timestampMs,poorSignal,eegRawValue,eegRawValueVolts,attention,meditation,blinkStrength,delta,theta,alphaLow,alphaHigh,betaLow,betaHigh,gammaLow,gammaMid,tagEvent,location
1605702907414,200,-2055,-4.515380859375E-4,0,0,0,16748317,142644,11952,11316,5529,4155,1796,660,Tag0,unknown
1605702907487,200,-951,-2.089599609375E-4,0,0,0,16748317,142644,11952,11316,5529,4155,1796,660,Tag0,unknown
1605702907499,200,-984,-2.162109375E-4,0,0,0,16748317,142644,11952,11316,5529,4155,1796,660,Tag0,unknown
1605702907555,200,-583,-1.281005859375E-4,0,0,0,16748317,142644,11952,11316,5529,4155,1796,660,Tag0,unknown
1605702907566,200,-254,-5.5810546875E-5,0,0,0,16748317,142644,11952,11316,5529,4155,1796,660,Tag0,unknown
1605702907623,200,-181,-3.9770507812500004E-5,0,0,0,16748317,142644,11952,11316,5529,4155,1796,660,Tag0,unknown
1605702907633,200,-161,-3.53759765625E-5,0,0,0,16748317,142644,11952,11316,5529,4155,1796,660,Tag0,unknown
1605702907691,200,-347,-7.62451171875E-5,0,0,0,16748317,142644,11952,11316,5529,4155,1796,660,Tag0,unknown
1605702907701,200,45,9.8876953125E-6,0,0,0,16748317,142644,11952,11316,5529,4155,1796,660,Tag0,unknown
1605702907758,200,-21,-4.614257812500001E-6,0,0,0,16748317,142644,11952,11316,5529,4155,1796,660,Tag0,unknown
1605702907768,200,-377,-8.28369140625E-5,0,0,0,16748317,142644,11952,11316,5529,4155,1796,660,Tag0,unknown
1605702907825,200,-375,-8.23974609375E-5,0,0,0,16748317,142644,11952,11316,5529,4155,1796,660,Tag0,unknown
1605702907835,200,-363,-7.97607421875E-5,0,0,0,16748317,142644,11952,11316,5529,4155,1796,660,Tag0,unknown
1605702907893,200,-321,-7.053222656250001E-5,0,0,0,16748317,142644,11952,11316,5529,4155,1796,660,Tag0,unknown
1605702907903,200,-70,-1.5380859375E-5,0,0,0,16748317,142644,11952,11316,5529,4155,1796,660,Tag0,unknown
1605702907960,200,208,4.5703125E-5,0,0,0,16748317,142644,11952,11316,5529,4155,1796,660,Tag0,unknown
1605702907970,200,370,8.1298828125E-5,0,0,0,16748317,142644,11952,11316,5529,4155,1796,660,Tag0,unknown
1605702908053,200,533,1.171142578125E-4,0,0,0,16748317,142644,11952,11316,5529,4155,1796,660,Tag0,unknown
1605702908075,200,375,8.23974609375E-5,0,0,0,16748317,142644,11952,11316,5529,4155,1796,660,Tag0,unknown
1605702908085,200,562,1.23486328125E-4,0,0,0,16748317,142644,11952,11316,5529,4155,1796,660,Tag0,unknown
1605702908095,200,1048,2.302734375E-4,0,0,0,16748317,142644,11952,11316,5529,4155,1796,660,Tag0,unknown
1605702908105,200,-110,-2.4169921875E-5,0,0,0,16748317,142644,11952,11316,5529,4155,1796,660,Tag0,unknown
1605702908115,200,265,5.82275390625E-5,0,0,0,16748317,142644,11952,11316,5529,4155,1796,660,Tag0,unknown
1605702908125,200,-67,-1.4721679687500002E-5,0,0,0,16748317,142644,11952,11316,5529,4155,1796,660,Tag0,unknown
1605702908135,200,-365,-8.02001953125E-5,0,0,0,16748317,142644,11952,11316,5529,4155,1796,660,Tag0,unknown
1605702908154,200,307,6.74560546875E-5,0,0,0,16748317,142644,11952,11316,5529,4155,1796,660,Tag0,unknown
1605702908186,200,587,1.2897949218750003E-4,0,0,0,16748317,142644,11952,11316,5529,4155,1796,660,Tag0,unknown
1605702908202,200,236,5.185546875E-5,0,0,0,16748317,142644,11952,11316,5529,4155,1796,660,Tag0,unknown
1605702908222,200,423,9.29443359375E-5,0,0,0,16748317,142644,11952,11316,5529,4155,1796,660,Tag0,unknown
1605702908236,200,161,3.53759765625E-5,0,0,0,16748317,142644,11952,11316,5529,4155,1796,660,Tag0,unknown
1605702908260,200,450,9.8876953125E-5,0,0,0,16748317,142644,11952,11316,5529,4155,1796,660,Tag0,unknown
1605702908271,200,172,3.7792968750000005E-5,0,0,0,16748317,142644,11952,11316,5529,4155,1796,660,Tag0,unknown
1605702908281,200,205,4.50439453125E-5,0,0,0,1005404,94534,67028,16753773,16758893,32229,20701,16754019,Tag0,unknown
1605702908292,200,171,3.75732421875E-5,0,0,0,1005404,94534,67028,16753773,16758893,32229,20701,16754019,Tag0,unknown
1605702908323,200,-5,-1.0986328125E-6,0,0,0,1005404,94534,67028,16753773,16758893,32229,20701,16754019,Tag0,unknown
1605702908336,200,160,3.515625E-5,0,0,0,1005404,94534,67028,16753773,16758893,32229,20701,16754019,Tag0,unknown
1605702908354,200,368,8.0859375E-5,0,0,0,1005404,94534,67028,16753773,16758893,32229,20701,16754019,Tag0,unknown
1605702908364,200,273,5.998535156250001E-5,0,0,0,1005404,94534,67028,16753773,16758893,32229,20701,16754019,Tag0,unknown
1605702908374,200,-109,-2.39501953125E-5,0,0,0,1005404,94534,67028,16753773,16758893,32229,20701,16754019,Tag0,unknown
1605702908391,200,113,2.48291015625E-5,0,0,0,1005404,94534,67028,16753773,16758893,32229,20701,16754019,Tag0,unknown
1605702908409,200,-257,-5.64697265625E-5,0,0,0,1005404,94534,67028,16753773,16758893,32229,20701,16754019,Tag0,unknown
1605702908436,200,75,1.64794921875E-5,0,0,0,1005404,94534,67028,16753773,16758893,32229,20701,16754019,Tag0,unknown
1605702908465,200,92,2.021484375E-5,0,0,0,1005404,94534,67028,16753773,16758893,32229,20701,16754019,Tag0,unknown
1605702908475,200,-137,-3.0102539062499998E-5,0,0,0,1005404,94534,67028,16753773,16758893,32229,20701,16754019,Tag0,unknown
1605702908500,200,69,1.51611328125E-5,0,0,0,1005404,94534,67028,16753773,16758893,32229,20701,16754019,Tag0,unknown
1605702908510,200,-74,-1.6259765625E-5,0,0,0,1005404,94534,67028,16753773,16758893,32229,20701,16754019,Tag0,unknown
1605702908528,200,44,9.66796875E-6,0,0,0,1005404,94534,67028,16753773,16758893,32229,20701,16754019,Tag0,unknown
1605702908544,200,-21,-4.614257812500001E-6,0,0,0,1005404,94534,67028,16753773,16758893,32229,20701,16754019,Tag0,unknown
1605702908572,200,102,2.2412109374999998E-5,0,0,0,1005404,94534,67028,16753773,16758893,32229,20701,16754019,Tag0,unknown
1605702908589,200,-127,-2.79052734375E-5,0,0,0,1005404,94534,67028,16753773,16758893,32229,20701,16754019,Tag0,unknown
1605702908599,200,-104,-2.28515625E-5,0,0,0,1005404,94534,67028,16753773,16758893,32229,20701,16754019,Tag0,unknown
1605702908610,200,-333,-7.316894531249999E-5,0,0,0,1005404,94534,67028,16753773,16758893,32229,20701,16754019,Tag0,unknown
1605702908622,200,1,2.197265625E-7,0,0,0,1005404,94534,67028,16753773,16758893,32229,20701,16754019,Tag0,unknown
1605702908643,200,112,2.4609375E-5,0,0,0,1005404,94534,67028,16753773,16758893,32229,20701,16754019,Tag0,unknown
1605702908655,200,-63,-1.38427734375E-5,0,0,0,1005404,94534,67028,16753773,16758893,32229,20701,16754019,Tag0,unknown
1605702908681,200,48,1.0546875E-5,0,0,0,1005404,94534,67028,16753773,16758893,32229,20701,16754019,Tag0,unknown
1605702908691,200,-331,-7.272949218750001E-5,0,0,0,1005404,94534,67028,16753773,16758893,32229,20701,16754019,Tag0,unknown
1605702908715,200,-135,-2.96630859375E-5,0,0,0,1005404,94534,67028,16753773,16758893,32229,20701,16754019,Tag0,unknown
1605702908725,200,-108,-2.3730468750000002E-5,0,0,0,1005404,94534,67028,16753773,16758893,32229,20701,16754019,Tag0,unknown
1605702908738,200,-149,-3.27392578125E-5,0,0,0,1005404,94534,67028,16753773,16758893,32229,20701,16754019,Tag0,unknown
1605702908755,200,-355,-7.80029296875E-5,0,0,0,1005404,94534,67028,16753773,16758893,32229,20701,16754019,Tag0,unknown
1605702908772,200,-171,-3.75732421875E-5,0,0,0,1005404,94534,67028,16753773,16758893,32229,20701,16754019,Tag0,unknown
1605702908796,200,-127,-2.79052734375E-5,0,0,0,1005404,94534,67028,16753773,16758893,32229,20701,16754019,Tag0,unknown
1605702908806,200,-111,-2.43896484375E-5,0,0,0,1005404,94534,67028,16753773,16758893,32229,20701,16754019,Tag0,unknown
1605702908820,200,-93,-2.04345703125E-5,0,0,0,1005404,94534,67028,16753773,16758893,32229,20701,16754019,Tag0,unknown
1605702908839,200,-330,-7.2509765625E-5,0,0,0,1005404,94534,67028,16753773,16758893,32229,20701,16754019,Tag0,unknown
1605702908867,200,-137,-3.0102539062499998E-5,0,0,0,1005404,94534,67028,16753773,16758893,32229,20701,16754019,Tag0,unknown
1605702908886,200,-369,-8.10791015625E-5,0,0,0,1005404,94534,67028,16753773,16758893,32229,20701,16754019,Tag0,unknown
1605702908907,200,11,2.4169921875E-6,0,0,0,1005404,94534,67028,16753773,16758893,32229,20701,16754019,Tag0,unknown
1605702908923,200,87,1.91162109375E-5,0,0,0,1005404,94534,67028,16753773,16758893,32229,20701,16754019,Tag0,unknown
1605702908940,200,-196,-4.306640625E-5,0,0,0,1005404,94534,67028,16753773,16758893,32229,20701,16754019,Tag0,unknown
1605702908957,200,-311,-6.833496093750001E-5,0,0,0,1005404,94534,67028,16753773,16758893,32229,20701,16754019,Tag0,unknown
1605702908967,200,-259,-5.69091796875E-5,0,0,0,1005404,94534,67028,16753773,16758893,32229,20701,16754019,Tag0,unknown
1605702908985,200,-541,-1.1887207031250001E-4,0,0,0,1005404,94534,67028,16753773,16758893,32229,20701,16754019,Tag0,unknown
1605702908995,200,372,8.173828125E-5,0,0,0,1005404,94534,67028,16753773,16758893,32229,20701,16754019,Tag0,unknown
1605702909021,200,-360,-7.91015625E-5,0,0,0,1005404,94534,67028,16753773,16758893,32229,20701,16754019,Tag0,unknown
1605702909040,200,-163,-3.5815429687500006E-5,0,0,0,1005404,94534,67028,16753773,16758893,32229,20701,16754019,Tag0,unknown
1605702909058,200,308,6.767578125E-5,0,0,0,1005404,94534,67028,16753773,16758893,32229,20701,16754019,Tag0,unknown
1605702909073,200,-23,-5.0537109375E-6,0,0,0,1005404,94534,67028,16753773,16758893,32229,20701,16754019,Tag0,unknown
1605702909097,200,-118,-2.5927734375E-5,0,0,0,1005404,94534,67028,16753773,16758893,32229,20701,16754019,Tag0,unknown
1605702909107,200,-112,-2.4609375E-5,0,0,0,1005404,94534,67028,16753773,16758893,32229,20701,16754019,Tag0,unknown
1605702909138,200,-7,-1.5380859375E-6,0,0,0,1005404,94534,67028,16753773,16758893,32229,20701,16754019,Tag0,unknown
1605702909157,200,293,6.43798828125E-5,0,0,0,1005404,94534,67028,16753773,16758893,32229,20701,16754019,Tag0,unknown
1605702909174,200,259,5.69091796875E-5,0,0,0,1005404,94534,67028,16753773,16758893,32229,20701,16754019,Tag0,unknown
1605702909192,200,-293,-6.43798828125E-5,0,0,0,1005404,94534,67028,16753773,16758893,32229,20701,16754019,Tag0,unknown
1605702909202,200,-317,-6.96533203125E-5,0,0,0,1005404,94534,67028,16753773,16758893,32229,20701,16754019,Tag0,unknown
1605702909215,200,93,2.04345703125E-5,0,0,0,1005404,94534,67028,16753773,16758893,32229,20701,16754019,Tag0,unknown
1605702909225,200,-316,-6.943359375000001E-5,0,0,0,1005404,94534,67028,16753773,16758893,32229,20701,16754019,Tag0,unknown
1605702909247,200,67,1.4721679687500002E-5,0,0,0,1005404,94534,67028,16753773,16758893,32229,20701,16754019,Tag0,unknown
1605702909257,200,103,2.26318359375E-5,0,0,0,1005404,94534,67028,16753773,16758893,32229,20701,16754019,Tag0,unknown
1605702909267,200,80,1.7578125E-5,0,0,0,1005404,94534,67028,16753773,16758893,32229,20701,16754019,Tag0,unknown
1605702909286,200,9,1.9775390625E-6,0,0,0,135189,16744635,8943,2482,2861,3407,2326,412,Tag0,unknown
1605702909296,200,-513,-1.127197265625E-4,0,0,0,135189,16744635,8943,2482,2861,3407,2326,412,Tag0,unknown
1605702909321,200,-133,-2.92236328125E-5,0,0,0,135189,16744635,8943,2482,2861,3407,2326,412,Tag0,unknown
1605702909331,200,-326,-7.163085937500001E-5,0,0,0,135189,16744635,8943,2482,2861,3407,2326,412,Tag0,unknown
1605702909359,200,-267,-5.86669921875E-5,0,0,0,135189,16744635,8943,2482,2861,3407,2326,412,Tag0,unknown
1605702909374,200,-215,-4.72412109375E-5,0,0,0,135189,16744635,8943,2482,2861,3407,2326,412,Tag0,unknown
1605702909393,200,-343,-7.53662109375E-5,0,0,0,135189,16744635,8943,2482,2861,3407,2326,412,Tag0,unknown
1605702909410,200,-361,-7.93212890625E-5,0,0,0,135189,16744635,8943,2482,2861,3407,2326,412,Tag0,unknown
1605702909420,200,-335,-7.36083984375E-5,0,0,0,135189,16744635,8943,2482,2861,3407,2326,412,Tag0,unknown
1605702909432,200,32,7.03125E-6,0,0,0,135189,16744635,8943,2482,2861,3407,2326,412,Tag0,unknown
1605702909463,200,-299,-6.56982421875E-5,0,0,0,135189,16744635,8943,2482,2861,3407,2326,412,Tag0,unknown
1605702909475,200,58,1.2744140625E-5,0,0,0,135189,16744635,8943,2482,2861,3407,2326,412,Tag0,unknown
1605702909500,200,-291,-6.39404296875E-5,0,0,0,135189,16744635,8943,2482,2861,3407,2326,412,Tag0,unknown
1605702909510,200,-331,-7.272949218750001E-5,0,0,0,135189,16744635,8943,2482,2861,3407,2326,412,Tag0,unknown
1605702909534,200,-317,-6.96533203125E-5,0,0,0,135189,16744635,8943,2482,2861,3407,2326,412,Tag0,unknown
1605702909549,200,53,1.1645507812500002E-5,0,0,0,135189,16744635,8943,2482,2861,3407,2326,412,Tag0,unknown
1605702909577,200,-125,-2.74658203125E-5,0,0,0,135189,16744635,8943,2482,2861,3407,2326,412,Tag0,unknown
1605702909592,200,-52,-1.142578125E-5,0,0,0,135189,16744635,8943,2482,2861,3407,2326,412,Tag0,unknown
1605702909611,200,-264,-5.80078125E-5,0,0,0,135189,16744635,8943,2482,2861,3407,2326,412,Tag0,unknown
1605702909628,200,259,5.69091796875E-5,0,0,0,135189,16744635,8943,2482,2861,3407,2326,412,Tag0,unknown
1605702909638,200,58,1.2744140625E-5,0,0,0,135189,16744635,8943,2482,2861,3407,2326,412,Tag0,unknown
1605702909650,200,-67,-1.4721679687500002E-5,0,0,0,135189,16744635,8943,2482,2861,3407,2326,412,Tag0,unknown
1605702909660,200,89,1.95556640625E-5,0,0,0,135189,16744635,8943,2482,2861,3407,2326,412,Tag0,unknown
1605702909683,200,-40,-8.7890625E-6,0,0,0,135189,16744635,8943,2482,2861,3407,2326,412,Tag0,unknown
1605702909693,200,101,2.2192382812500002E-5,0,0,0,135189,16744635,8943,2482,2861,3407,2326,412,Tag0,unknown
1605702909723,200,-89,-1.95556640625E-5,0,0,0,135189,16744635,8943,2482,2861,3407,2326,412,Tag0,unknown
1605702909743,200,-26,-5.712890625E-6,0,0,0,135189,16744635,8943,2482,2861,3407,2326,412,Tag0,unknown
1605702909760,200,-121,-2.6586914062500003E-5,0,0,0,135189,16744635,8943,2482,2861,3407,2326,412,Tag0,unknown
1605702909777,200,34,7.4707031250000005E-6,0,0,0,135189,16744635,8943,2482,2861,3407,2326,412,Tag0,unknown
1605702909798,200,65,1.42822265625E-5,0,0,0,135189,16744635,8943,2482,2861,3407,2326,412,Tag0,unknown
1605702909835,200,-321,-7.053222656250001E-5,0,0,0,135189,16744635,8943,2482,2861,3407,2326,412,Tag0,unknown
1605702909845,200,70,1.5380859375E-5,0,0,0,135189,16744635,8943,2482,2861,3407,2326,412,Tag0,unknown
1605702909877,200,121,2.6586914062500003E-5,0,0,0,135189,16744635,8943,2482,2861,3407,2326,412,Tag0,unknown
1605702909894,200,-276,-6.064453125E-5,0,0,0,135189,16744635,8943,2482,2861,3407,2326,412,Tag0,unknown
1605702909904,200,-705,-1.549072265625E-4,0,0,0,135189,16744635,8943,2482,2861,3407,2326,412,Tag0,unknown
1605702909918,200,-690,-1.51611328125E-4,0,0,0,135189,16744635,8943,2482,2861,3407,2326,412,Tag0,unknown
1605702909928,200,-397,-8.72314453125E-5,0,0,0,135189,16744635,8943,2482,2861,3407,2326,412,Tag0,unknown
1605702909952,200,-255,-5.60302734375E-5,0,0,0,135189,16744635,8943,2482,2861,3407,2326,412,Tag0,unknown
1605702909962,200,-185,-4.06494140625E-5,0,0,0,135189,16744635,8943,2482,2861,3407,2326,412,Tag0,unknown
1605702909988,200,-515,-1.131591796875E-4,0,0,0,135189,16744635,8943,2482,2861,3407,2326,412,Tag0,unknown
1605702909998,200,-833,-1.830322265625E-4,0,0,0,135189,16744635,8943,2482,2861,3407,2326,412,Tag0,unknown
1605702910021,200,-651,-1.430419921875E-4,0,0,0,135189,16744635,8943,2482,2861,3407,2326,412,Tag0,unknown
1605702910031,200,-789,-1.7336425781250002E-4,0,0,0,135189,16744635,8943,2482,2861,3407,2326,412,Tag0,unknown
1605702910048,200,-805,-1.768798828125E-4,0,0,0,135189,16744635,8943,2482,2861,3407,2326,412,Tag0,unknown
1605702910062,200,-486,-1.06787109375E-4,0,0,0,135189,16744635,8943,2482,2861,3407,2326,412,Tag0,unknown
1605702910078,200,-646,-1.41943359375E-4,0,0,0,135189,16744635,8943,2482,2861,3407,2326,412,Tag0,unknown
1605702910098,200,-818,-1.7973632812500002E-4,0,0,0,135189,16744635,8943,2482,2861,3407,2326,412,Tag0,unknown
1605702910122,200,-549,-1.2062988281250001E-4,0,0,0,135189,16744635,8943,2482,2861,3407,2326,412,Tag0,unknown
1605702910132,200,66,1.4501953125E-5,0,0,0,135189,16744635,8943,2482,2861,3407,2326,412,Tag0,unknown
1605702910144,200,0,0.0,0,0,0,135189,16744635,8943,2482,2861,3407,2326,412,Tag0,unknown
1605702910176,200,777,1.707275390625E-4,0,0,0,135189,16744635,8943,2482,2861,3407,2326,412,Tag0,unknown
1605702910186,200,249,5.47119140625E-5,0,0,0,135189,16744635,8943,2482,2861,3407,2326,412,Tag0,unknown
1605702910196,200,154,3.3837890625E-5,0,0,0,135189,16744635,8943,2482,2861,3407,2326,412,Tag0,unknown
1605702910212,200,563,1.237060546875E-4,0,0,0,135189,16744635,8943,2482,2861,3407,2326,412,Tag0,unknown
1605702910244,200,-343,-7.53662109375E-5,0,0,0,135189,16744635,8943,2482,2861,3407,2326,412,Tag0,unknown
1605702910262,200,-556,-1.2216796875000002E-4,0,0,0,135189,16744635,8943,2482,2861,3407,2326,412,Tag0,unknown
1605702910272,200,-337,-7.40478515625E-5,0,0,0,135189,16744635,8943,2482,2861,3407,2326,412,Tag0,unknown
1605702910308,200,-534,-1.17333984375E-4,0,0,0,1001235,81864,12607,9683,12821,4256,9133,2331,Tag0,unknown
1605702910318,200,-359,-7.88818359375E-5,0,0,0,1001235,81864,12607,9683,12821,4256,9133,2331,Tag0,unknown
1605702910328,200,194,4.2626953125E-5,0,0,0,1001235,81864,12607,9683,12821,4256,9133,2331,Tag0,unknown
1605702910357,200,313,6.87744140625E-5,0,0,0,1001235,81864,12607,9683,12821,4256,9133,2331,Tag0,unknown
1605702910369,200,290,6.3720703125E-5,0,0,0,1001235,81864,12607,9683,12821,4256,9133,2331,Tag0,unknown
1605702910391,200,-460,-1.0107421875E-4,0,0,0,1001235,81864,12607,9683,12821,4256,9133,2331,Tag0,unknown
1605702910401,200,-619,-1.360107421875E-4,0,0,0,1001235,81864,12607,9683,12821,4256,9133,2331,Tag0,unknown
1605702910442,200,-852,-1.8720703125E-4,0,0,0,1001235,81864,12607,9683,12821,4256,9133,2331,Tag0,unknown
1605702910452,200,-167,-3.6694335937500004E-5,0,0,0,1001235,81864,12607,9683,12821,4256,9133,2331,Tag0,unknown
1605702910478,200,-138,-3.0322265625E-5,0,0,0,1001235,81864,12607,9683,12821,4256,9133,2331,Tag0,unknown
1605702910497,200,-183,-4.02099609375E-5,0,0,0,1001235,81864,12607,9683,12821,4256,9133,2331,Tag0,unknown
1605702910517,200,359,7.88818359375E-5,0,0,0,1001235,81864,12607,9683,12821,4256,9133,2331,Tag0,unknown
1605702910531,200,115,2.52685546875E-5,0,0,0,1001235,81864,12607,9683,12821,4256,9133,2331,Tag0,unknown
1605702910553,200,107,2.35107421875E-5,0,0,0,1001235,81864,12607,9683,12821,4256,9133,2331,Tag0,unknown
1605702910565,200,-343,-7.53662109375E-5,0,0,0,1001235,81864,12607,9683,12821,4256,9133,2331,Tag0,unknown
1605702910575,200,123,2.70263671875E-5,0,0,0,1001235,81864,12607,9683,12821,4256,9133,2331,Tag0,unknown
1605702910592,200,324,7.119140625E-5,0,0,0,1001235,81864,12607,9683,12821,4256,9133,2331,Tag0,unknown
1605702910602,200,-141,-3.09814453125E-5,0,0,0,1001235,81864,12607,9683,12821,4256,9133,2331,Tag0,unknown
1605702910625,200,-299,-6.56982421875E-5,0,0,0,1001235,81864,12607,9683,12821,4256,9133,2331,Tag0,unknown
1605702910635,200,318,6.9873046875E-5,0,0,0,1001235,81864,12607,9683,12821,4256,9133,2331,Tag0,unknown
1605702910665,200,-295,-6.48193359375E-5,0,0,0,1001235,81864,12607,9683,12821,4256,9133,2331,Tag0,unknown
1605702910681,200,-96,-2.109375E-5,0,0,0,1001235,81864,12607,9683,12821,4256,9133,2331,Tag0,unknown
1605702910698,200,242,5.3173828125000005E-5,0,0,0,1001235,81864,12607,9683,12821,4256,9133,2331,Tag0,unknown
1605702910715,200,499,1.096435546875E-4,0,0,0,1001235,81864,12607,9683,12821,4256,9133,2331,Tag0,unknown
1605702910725,200,363,7.97607421875E-5,0,0,0,1001235,81864,12607,9683,12821,4256,9133,2331,Tag0,unknown
1605702910735,200,234,5.1416015624999996E-5,0,0,0,1001235,81864,12607,9683,12821,4256,9133,2331,Tag0,unknown
1605702910750,200,628,1.3798828125E-4,0,0,0,1001235,81864,12607,9683,12821,4256,9133,2331,Tag0,unknown
1605702910771,200,409,8.986816406250001E-5,0,0,0,1001235,81864,12607,9683,12821,4256,9133,2331,Tag0,unknown
1605702910782,200,250,5.4931640625E-5,0,0,0,1001235,81864,12607,9683,12821,4256,9133,2331,Tag0,unknown
1605702910806,200,131,2.87841796875E-5,0,0,0,1001235,81864,12607,9683,12821,4256,9133,2331,Tag0,unknown
1605702910816,200,272,5.9765625000000004E-5,0,0,0,1001235,81864,12607,9683,12821,4256,9133,2331,Tag0,unknown
1605702910843,200,247,5.42724609375E-5,0,0,0,1001235,81864,12607,9683,12821,4256,9133,2331,Tag0,unknown
1605702910853,200,272,5.9765625000000004E-5,0,0,0,1001235,81864,12607,9683,12821,4256,9133,2331,Tag0,unknown
1605702910881,200,515,1.131591796875E-4,0,0,0,1001235,81864,12607,9683,12821,4256,9133,2331,Tag0,unknown
1605702910913,200,-42,-9.228515625000002E-6,0,0,0,1001235,81864,12607,9683,12821,4256,9133,2331,Tag0,unknown
1605702910933,200,288,6.328125E-5,0,0,0,1001235,81864,12607,9683,12821,4256,9133,2331,Tag0,unknown
1605702910943,200,-103,-2.26318359375E-5,0,0,0,1001235,81864,12607,9683,12821,4256,9133,2331,Tag0,unknown
1605702910954,200,76,1.669921875E-5,0,0,0,1001235,81864,12607,9683,12821,4256,9133,2331,Tag0,unknown
1605702910966,200,311,6.833496093750001E-5,0,0,0,1001235,81864,12607,9683,12821,4256,9133,2331,Tag0,unknown
1605702910989,200,-31,-6.8115234375E-6,0,0,0,1001235,81864,12607,9683,12821,4256,9133,2331,Tag0,unknown
1605702910999,200,-7,-1.5380859375E-6,0,0,0,1001235,81864,12607,9683,12821,4256,9133,2331,Tag0,unknown
1605702911025,200,290,6.3720703125E-5,0,0,0,1001235,81864,12607,9683,12821,4256,9133,2331,Tag0,unknown
1605702911035,200,-124,-2.724609375E-5,0,0,0,1001235,81864,12607,9683,12821,4256,9133,2331,Tag0,unknown
1605702911059,200,19,4.1748046875E-6,0,0,0,1001235,81864,12607,9683,12821,4256,9133,2331,Tag0,unknown
1605702911069,200,86,1.8896484375000003E-5,0,0,0,1001235,81864,12607,9683,12821,4256,9133,2331,Tag0,unknown
1605702911083,200,-117,-2.5708007812499998E-5,0,0,0,1001235,81864,12607,9683,12821,4256,9133,2331,Tag0,unknown
1605702911100,200,109,2.39501953125E-5,0,0,0,1001235,81864,12607,9683,12821,4256,9133,2331,Tag0,unknown
1605702911117,200,-103,-2.26318359375E-5,0,0,0,1001235,81864,12607,9683,12821,4256,9133,2331,Tag0,unknown
1605702911140,200,-123,-2.70263671875E-5,0,0,0,1001235,81864,12607,9683,12821,4256,9133,2331,Tag0,unknown
1605702911150,200,-115,-2.52685546875E-5,0,0,0,1001235,81864,12607,9683,12821,4256,9133,2331,Tag0,unknown
1605702911173,200,265,5.82275390625E-5,0,0,0,1001235,81864,12607,9683,12821,4256,9133,2331,Tag0,unknown
1605702911185,200,-92,-2.021484375E-5,0,0,0,1001235,81864,12607,9683,12821,4256,9133,2331,Tag0,unknown
1605702911212,200,91,1.99951171875E-5,0,0,0,1001235,81864,12607,9683,12821,4256,9133,2331,Tag0,unknown
1605702911243,200,115,2.52685546875E-5,0,0,0,1001235,81864,12607,9683,12821,4256,9133,2331,Tag0,unknown
1605702911253,200,323,7.09716796875E-5,0,0,0,1001235,81864,12607,9683,12821,4256,9133,2331,Tag0,unknown
1605702911277,200,86,1.8896484375000003E-5,0,0,0,1001235,81864,12607,9683,12821,4256,9133,2331,Tag0,unknown
1605702911287,200,-106,-2.3291015625000003E-5,0,0,0,1260802,114139,47118,33134,16769007,18612,17388,9732,Tag0,unknown
1605702911313,200,107,2.35107421875E-5,0,0,0,1260802,114139,47118,33134,16769007,18612,17388,9732,Tag0,unknown
1605702911323,200,92,2.021484375E-5,0,0,0,1260802,114139,47118,33134,16769007,18612,17388,9732,Tag0,unknown
1605702911347,200,23,5.0537109375E-6,0,0,0,1260802,114139,47118,33134,16769007,18612,17388,9732,Tag0,unknown
1605702911357,200,-43,-9.448242187500001E-6,0,0,0,1260802,114139,47118,33134,16769007,18612,17388,9732,Tag0,unknown
1605702911383,200,-30,-6.591796875E-6,0,0,0,1260802,114139,47118,33134,16769007,18612,17388,9732,Tag0,unknown
1605702911401,200,-26,-5.712890625E-6,0,0,0,1260802,114139,47118,33134,16769007,18612,17388,9732,Tag0,unknown
1605702911418,200,-48,-1.0546875E-5,0,0,0,1260802,114139,47118,33134,16769007,18612,17388,9732,Tag0,unknown
1605702911436,200,-75,-1.64794921875E-5,0,0,0,1260802,114139,47118,33134,16769007,18612,17388,9732,Tag0,unknown
1605702911457,200,-31,-6.8115234375E-6,0,0,0,1260802,114139,47118,33134,16769007,18612,17388,9732,Tag0,unknown
1605702911468,200,-265,-5.82275390625E-5,0,0,0,1260802,114139,47118,33134,16769007,18612,17388,9732,Tag0,unknown
1605702911491,200,-104,-2.28515625E-5,0,0,0,1260802,114139,47118,33134,16769007,18612,17388,9732,Tag0,unknown
1605702911515,200,55,1.20849609375E-5,0,0,0,1260802,114139,47118,33134,16769007,18612,17388,9732,Tag0,unknown
1605702911535,200,41,9.008789062499999E-6,0,0,0,1260802,114139,47118,33134,16769007,18612,17388,9732,Tag0,unknown
1605702911545,200,115,2.52685546875E-5,0,0,0,1260802,114139,47118,33134,16769007,18612,17388,9732,Tag0,unknown
1605702911563,200,-302,-6.6357421875E-5,0,0,0,1260802,114139,47118,33134,16769007,18612,17388,9732,Tag0,unknown
1605702911573,200,-7,-1.5380859375E-6,0,0,0,1260802,114139,47118,33134,16769007,18612,17388,9732,Tag0,unknown
1605702911601,200,-295,-6.48193359375E-5,0,0,0,1260802,114139,47118,33134,16769007,18612,17388,9732,Tag0,unknown
1605702911621,200,77,1.69189453125E-5,0,0,0,1260802,114139,47118,33134,16769007,18612,17388,9732,Tag0,unknown
1605702911639,200,-345,-7.58056640625E-5,0,0,0,1260802,114139,47118,33134,16769007,18612,17388,9732,Tag0,unknown
1605702911654,200,-332,-7.294921875E-5,0,0,0,1260802,114139,47118,33134,16769007,18612,17388,9732,Tag0,unknown
1605702911672,200,-285,-6.26220703125E-5,0,0,0,1260802,114139,47118,33134,16769007,18612,17388,9732,Tag0,unknown
1605702911688,200,-293,-6.43798828125E-5,0,0,0,1260802,114139,47118,33134,16769007,18612,17388,9732,Tag0,unknown
1605702911727,200,-289,-6.35009765625E-5,0,0,0,1260802,114139,47118,33134,16769007,18612,17388,9732,Tag0,unknown
1605702911738,200,92,2.021484375E-5,0,0,0,1260802,114139,47118,33134,16769007,18612,17388,9732,Tag0,unknown
1605702911759,200,-289,-6.35009765625E-5,0,0,0,1260802,114139,47118,33134,16769007,18612,17388,9732,Tag0,unknown
1605702911770,200,-246,-5.4052734375E-5,0,0,0,1260802,114139,47118,33134,16769007,18612,17388,9732,Tag0,unknown
1605702911780,200,-341,-7.492675781250002E-5,0,0,0,1260802,114139,47118,33134,16769007,18612,17388,9732,Tag0,unknown
1605702911795,200,-364,-7.998046875E-5,0,0,0,1260802,114139,47118,33134,16769007,18612,17388,9732,Tag0,unknown
1605702911805,200,-280,-6.15234375E-5,0,0,0,1260802,114139,47118,33134,16769007,18612,17388,9732,Tag0,unknown
1605702911829,200,-314,-6.8994140625E-5,0,0,0,1260802,114139,47118,33134,16769007,18612,17388,9732,Tag0,unknown
1605702911839,200,-273,-5.998535156250001E-5,0,0,0,1260802,114139,47118,33134,16769007,18612,17388,9732,Tag0,unknown
1605702911868,200,-521,-1.1447753906250001E-4,0,0,0,1260802,114139,47118,33134,16769007,18612,17388,9732,Tag0,unknown
1605702911887,200,-298,-6.5478515625E-5,0,0,0,1260802,114139,47118,33134,16769007,18612,17388,9732,Tag0,unknown
1605702911908,200,-348,-7.646484375E-5,0,0,0,1260802,114139,47118,33134,16769007,18612,17388,9732,Tag0,unknown
1605702911921,200,40,8.7890625E-6,0,0,0,1260802,114139,47118,33134,16769007,18612,17388,9732,Tag0,unknown
1605702911931,200,-341,-7.492675781250002E-5,0,0,0,1260802,114139,47118,33134,16769007,18612,17388,9732,Tag0,unknown
1605702911949,200,59,1.29638671875E-5,0,0,0,1260802,114139,47118,33134,16769007,18612,17388,9732,Tag0,unknown
1605702911978,200,13,2.8564453125E-6,0,0,0,1260802,114139,47118,33134,16769007,18612,17388,9732,Tag0,unknown
1605702911988,200,-338,-7.426757812499999E-5,0,0,0,1260802,114139,47118,33134,16769007,18612,17388,9732,Tag0,unknown
1605702912014,200,269,5.9106445312499996E-5,0,0,0,1260802,114139,47118,33134,16769007,18612,17388,9732,Tag0,unknown
1605702912024,200,-110,-2.4169921875E-5,0,0,0,1260802,114139,47118,33134,16769007,18612,17388,9732,Tag0,unknown
1605702912048,200,117,2.5708007812499998E-5,0,0,0,1260802,114139,47118,33134,16769007,18612,17388,9732,Tag0,unknown
1605702912060,200,84,1.8457031250000004E-5,0,0,0,1260802,114139,47118,33134,16769007,18612,17388,9732,Tag0,unknown
1605702912087,200,-321,-7.053222656250001E-5,0,0,0,1260802,114139,47118,33134,16769007,18612,17388,9732,Tag0,unknown
1605702912105,200,52,1.142578125E-5,0,0,0,1260802,114139,47118,33134,16769007,18612,17388,9732,Tag0,unknown
1605702912122,200,-279,-6.13037109375E-5,0,0,0,1260802,114139,47118,33134,16769007,18612,17388,9732,Tag0,unknown
1605702912139,200,-83,-1.82373046875E-5,0,0,0,1260802,114139,47118,33134,16769007,18612,17388,9732,Tag0,unknown
1605702912163,200,-279,-6.13037109375E-5,0,0,0,1260802,114139,47118,33134,16769007,18612,17388,9732,Tag0,unknown
1605702912191,200,33,7.2509765625E-6,0,0,0,1260802,114139,47118,33134,16769007,18612,17388,9732,Tag0,unknown
1605702912204,200,-117,-2.5708007812499998E-5,0,0,0,1260802,114139,47118,33134,16769007,18612,17388,9732,Tag0,unknown
1605702912228,200,-91,-1.99951171875E-5,0,0,0,1260802,114139,47118,33134,16769007,18612,17388,9732,Tag0,unknown
1605702912238,200,-94,-2.0654296875000002E-5,0,0,0,1260802,114139,47118,33134,16769007,18612,17388,9732,Tag0,unknown
1605702912261,200,120,2.63671875E-5,0,0,0,1260802,114139,47118,33134,16769007,18612,17388,9732,Tag0,unknown
1605702912287,200,2,4.39453125E-7,0,0,0,1260802,114139,47118,33134,16769007,18612,17388,9732,Tag0,unknown
1605702912298,200,-115,-2.52685546875E-5,0,0,0,663203,16746919,9750,16658,13626,7456,8245,1424,Tag0,unknown
1605702912312,200,94,2.0654296875000002E-5,0,0,0,663203,16746919,9750,16658,13626,7456,8245,1424,Tag0,unknown
1605702912323,200,122,2.6806640625E-5,0,0,0,663203,16746919,9750,16658,13626,7456,8245,1424,Tag0,unknown
1605702912352,200,109,2.39501953125E-5,0,0,0,663203,16746919,9750,16658,13626,7456,8245,1424,Tag0,unknown
1605702912379,200,64,1.40625E-5,0,0,0,663203,16746919,9750,16658,13626,7456,8245,1424,Tag0,unknown
1605702912390,200,-106,-2.3291015625000003E-5,0,0,0,663203,16746919,9750,16658,13626,7456,8245,1424,Tag0,unknown
1605702912421,200,92,2.021484375E-5,0,0,0,663203,16746919,9750,16658,13626,7456,8245,1424,Tag0,unknown
1605702912440,200,-41,-9.008789062499999E-6,0,0,0,663203,16746919,9750,16658,13626,7456,8245,1424,Tag0,unknown
1605702912450,200,-133,-2.92236328125E-5,0,0,0,663203,16746919,9750,16658,13626,7456,8245,1424,Tag0,unknown
1605702912499,200,-309,-6.78955078125E-5,0,0,0,663203,16746919,9750,16658,13626,7456,8245,1424,Tag0,unknown
1605702912509,200,105,2.30712890625E-5,0,0,0,663203,16746919,9750,16658,13626,7456,8245,1424,Tag0,unknown
1605702912567,200,7,1.5380859375E-6,0,0,0,663203,16746919,9750,16658,13626,7456,8245,1424,Tag0,unknown
1605702912577,200,76,1.669921875E-5,0,0,0,663203,16746919,9750,16658,13626,7456,8245,1424,Tag0,unknown
1605702912635,200,45,9.8876953125E-6,0,0,0,663203,16746919,9750,16658,13626,7456,8245,1424,Tag0,unknown
1605702912645,200,23,5.0537109375E-6,0,0,0,663203,16746919,9750,16658,13626,7456,8245,1424,Tag0,unknown
1605702912705,200,-42,-9.228515625000002E-6,0,0,0,663203,16746919,9750,16658,13626,7456,8245,1424,Tag0,unknown
1605702912725,200,1,2.197265625E-7,0,0,0,663203,16746919,9750,16658,13626,7456,8245,1424,Tag0,unknown
1605702912773,200,-63,-1.38427734375E-5,0,0,0,663203,16746919,9750,16658,13626,7456,8245,1424,Tag0,unknown
1605702912793,200,-276,-6.064453125E-5,0,0,0,663203,16746919,9750,16658,13626,7456,8245,1424,Tag0,unknown
1605702912840,200,-63,-1.38427734375E-5,0,0,0,663203,16746919,9750,16658,13626,7456,8245,1424,Tag0,unknown
1605702912860,200,30,6.591796875E-6,0,0,0,663203,16746919,9750,16658,13626,7456,8245,1424,Tag0,unknown
1605702912907,200,68,1.4941406250000001E-5,0,0,0,663203,16746919,9750,16658,13626,7456,8245,1424,Tag0,unknown
1605702912927,200,-311,-6.833496093750001E-5,0,0,0,663203,16746919,9750,16658,13626,7456,8245,1424,Tag0,unknown
1605702912975,200,-115,-2.52685546875E-5,0,0,0,663203,16746919,9750,16658,13626,7456,8245,1424,Tag0,unknown
1605702912994,200,-127,-2.79052734375E-5,0,0,0,663203,16746919,9750,16658,13626,7456,8245,1424,Tag0,unknown
1605702913042,200,-55,-1.20849609375E-5,0,0,0,663203,16746919,9750,16658,13626,7456,8245,1424,Tag0,unknown
1605702913060,200,-259,-5.69091796875E-5,0,0,0,663203,16746919,9750,16658,13626,7456,8245,1424,Tag0,unknown
1605702913078,200,18,3.955078125E-6,0,0,0,663203,16746919,9750,16658,13626,7456,8245,1424,Tag0,unknown
1605702913088,200,-78,-1.7138671875E-5,0,0,0,663203,16746919,9750,16658,13626,7456,8245,1424,Tag0,unknown
1605702913098,200,52,1.142578125E-5,0,0,0,663203,16746919,9750,16658,13626,7456,8245,1424,Tag0,unknown
1605702913109,200,49,1.07666015625E-5,0,0,0,663203,16746919,9750,16658,13626,7456,8245,1424,Tag0,unknown
1605702913119,200,5,1.0986328125E-6,0,0,0,663203,16746919,9750,16658,13626,7456,8245,1424,Tag0,unknown
1605702913129,200,97,2.13134765625E-5,0,0,0,663203,16746919,9750,16658,13626,7456,8245,1424,Tag0,unknown
1605702913154,200,-109,-2.39501953125E-5,0,0,0,663203,16746919,9750,16658,13626,7456,8245,1424,Tag0,unknown
1605702913164,200,74,1.6259765625E-5,0,0,0,663203,16746919,9750,16658,13626,7456,8245,1424,Tag0,unknown
1605702913188,200,73,1.6040039062500002E-5,0,0,0,663203,16746919,9750,16658,13626,7456,8245,1424,Tag0,unknown
1605702913198,200,11,2.4169921875E-6,0,0,0,663203,16746919,9750,16658,13626,7456,8245,1424,Tag0,unknown
1605702913228,200,56,1.23046875E-5,0,0,0,663203,16746919,9750,16658,13626,7456,8245,1424,Tag0,unknown
1605702913243,200,-73,-1.6040039062500002E-5,0,0,0,663203,16746919,9750,16658,13626,7456,8245,1424,Tag0,unknown
1605702913262,200,-285,-6.26220703125E-5,0,0,0,663203,16746919,9750,16658,13626,7456,8245,1424,Tag0,unknown
1605702913277,200,-42,-9.228515625000002E-6,0,0,0,663203,16746919,9750,16658,13626,7456,8245,1424,Tag0,unknown
1605702913287,200,-103,-2.26318359375E-5,0,0,0,524011,222141,16716,30625,24878,20809,14397,8186,Tag0,unknown
1605702913303,200,-67,-1.4721679687500002E-5,0,0,0,524011,222141,16716,30625,24878,20809,14397,8186,Tag0,unknown
1605702913313,200,85,1.86767578125E-5,0,0,0,524011,222141,16716,30625,24878,20809,14397,8186,Tag0,unknown
1605702913323,200,331,7.272949218750001E-5,0,0,0,524011,222141,16716,30625,24878,20809,14397,8186,Tag0,unknown
1605702913340,200,328,7.207031249999999E-5,0,0,0,524011,222141,16716,30625,24878,20809,14397,8186,Tag0,unknown
1605702913352,200,-54,-1.1865234375000001E-5,0,0,0,524011,222141,16716,30625,24878,20809,14397,8186,Tag0,unknown
1605702913374,200,120,2.63671875E-5,0,0,0,524011,222141,16716,30625,24878,20809,14397,8186,Tag0,unknown
1605702913384,200,-604,-1.3271484375E-4,0,0,0,524011,222141,16716,30625,24878,20809,14397,8186,Tag0,unknown
1605702913414,200,-957,-2.1027832031250002E-4,0,0,0,524011,222141,16716,30625,24878,20809,14397,8186,Tag0,unknown
1605702913427,200,-930,-2.04345703125E-4,0,0,0,524011,222141,16716,30625,24878,20809,14397,8186,Tag0,unknown
1605702913448,200,-1859,-4.084716796875E-4,0,0,0,524011,222141,16716,30625,24878,20809,14397,8186,Tag0,unknown
1605702913461,200,-1799,-3.9528808593750005E-4,0,0,0,524011,222141,16716,30625,24878,20809,14397,8186,Tag0,unknown
1605702913487,200,-743,-1.6325683593750002E-4,0,0,0,524011,222141,16716,30625,24878,20809,14397,8186,Tag0,unknown
1605702913497,200,-787,-1.729248046875E-4,0,0,0,524011,222141,16716,30625,24878,20809,14397,8186,Tag0,unknown
1605702913520,200,-248,-5.44921875E-5,0,0,0,524011,222141,16716,30625,24878,20809,14397,8186,Tag0,unknown
1605702913544,200,-517,-1.135986328125E-4,0,0,0,524011,222141,16716,30625,24878,20809,14397,8186,Tag0,unknown
1605702913563,200,-301,-6.613769531250001E-5,0,0,0,524011,222141,16716,30625,24878,20809,14397,8186,Tag0,unknown
1605702913594,200,-111,-2.43896484375E-5,0,0,0,524011,222141,16716,30625,24878,20809,14397,8186,Tag0,unknown
1605702913613,200,-291,-6.39404296875E-5,0,0,0,524011,222141,16716,30625,24878,20809,14397,8186,Tag0,unknown
1605702913635,200,480,1.0546875E-4,0,0,0,524011,222141,16716,30625,24878,20809,14397,8186,Tag0,unknown
1605702913666,200,-88,-1.93359375E-5,0,0,0,524011,222141,16716,30625,24878,20809,14397,8186,Tag0,unknown
1605702913679,200,1,2.197265625E-7,0,0,0,524011,222141,16716,30625,24878,20809,14397,8186,Tag0,unknown
1605702913707,200,169,3.7133789062499996E-5,0,0,0,524011,222141,16716,30625,24878,20809,14397,8186,Tag0,unknown
1605702913717,200,-51,-1.1206054687499999E-5,0,0,0,524011,222141,16716,30625,24878,20809,14397,8186,Tag0,unknown
1605702913742,200,204,4.4824218749999996E-5,0,0,0,524011,222141,16716,30625,24878,20809,14397,8186,Tag0,unknown
1605702913752,200,242,5.3173828125000005E-5,0,0,0,524011,222141,16716,30625,24878,20809,14397,8186,Tag0,unknown
1605702913770,200,360,7.91015625E-5,0,0,0,524011,222141,16716,30625,24878,20809,14397,8186,Tag0,unknown
1605702913783,200,285,6.26220703125E-5,0,0,0,524011,222141,16716,30625,24878,20809,14397,8186,Tag0,unknown
1605702913814,200,91,1.99951171875E-5,0,0,0,524011,222141,16716,30625,24878,20809,14397,8186,Tag0,unknown
1605702913830,200,-43,-9.448242187500001E-6,0,0,0,524011,222141,16716,30625,24878,20809,14397,8186,Tag0,unknown
1605702913852,200,-41,-9.008789062499999E-6,0,0,0,524011,222141,16716,30625,24878,20809,14397,8186,Tag0,unknown
1605702913863,200,156,3.427734375E-5,0,0,0,524011,222141,16716,30625,24878,20809,14397,8186,Tag0,unknown
1605702913886,200,282,6.1962890625E-5,0,0,0,524011,222141,16716,30625,24878,20809,14397,8186,Tag0,unknown
1605702913898,200,-26,-5.712890625E-6,0,0,0,524011,222141,16716,30625,24878,20809,14397,8186,Tag0,unknown
1605702913923,200,257,5.64697265625E-5,0,0,0,524011,222141,16716,30625,24878,20809,14397,8186,Tag0,unknown
1605702913947,200,-68,-1.4941406250000001E-5,0,0,0,524011,222141,16716,30625,24878,20809,14397,8186,Tag0,unknown
1605702913965,200,288,6.328125E-5,0,0,0,524011,222141,16716,30625,24878,20809,14397,8186,Tag0,unknown
1605702913997,200,631,1.386474609375E-4,0,0,0,524011,222141,16716,30625,24878,20809,14397,8186,Tag0,unknown
1605702914015,200,221,4.85595703125E-5,0,0,0,524011,222141,16716,30625,24878,20809,14397,8186,Tag0,unknown
1605702914034,200,545,1.197509765625E-4,0,0,0,524011,222141,16716,30625,24878,20809,14397,8186,Tag0,unknown
1605702914047,200,364,7.998046875E-5,0,0,0,524011,222141,16716,30625,24878,20809,14397,8186,Tag0,unknown
1605702914068,200,38,8.349609375E-6,0,0,0,524011,222141,16716,30625,24878,20809,14397,8186,Tag0,unknown
1605702914082,200,117,2.5708007812499998E-5,0,0,0,524011,222141,16716,30625,24878,20809,14397,8186,Tag0,unknown
1605702914105,200,-246,-5.4052734375E-5,0,0,0,524011,222141,16716,30625,24878,20809,14397,8186,Tag0,unknown
1605702914130,200,-507,-1.1140136718750001E-4,0,0,0,524011,222141,16716,30625,24878,20809,14397,8186,Tag0,unknown
1605702914148,200,1,2.197265625E-7,0,0,0,524011,222141,16716,30625,24878,20809,14397,8186,Tag0,unknown
1605702914179,200,291,6.39404296875E-5,0,0,0,524011,222141,16716,30625,24878,20809,14397,8186,Tag0,unknown
1605702914198,200,300,6.591796875E-5,0,0,0,524011,222141,16716,30625,24878,20809,14397,8186,Tag0,unknown
1605702914215,200,364,7.998046875E-5,0,0,0,524011,222141,16716,30625,24878,20809,14397,8186,Tag0,unknown
1605702914235,200,369,8.10791015625E-5,0,0,0,524011,222141,16716,30625,24878,20809,14397,8186,Tag0,unknown
1605702914251,200,269,5.9106445312499996E-5,0,0,0,524011,222141,16716,30625,24878,20809,14397,8186,Tag0,unknown
1605702914277,200,-258,-5.6689453125000004E-5,0,0,0,524011,222141,16716,30625,24878,20809,14397,8186,Tag0,unknown
1605702914287,200,-725,-1.593017578125E-4,0,0,0,1233930,20580,7783,28096,3042,8739,3713,2264,Tag0,unknown
1605702914301,200,-471,-1.0349121093750001E-4,0,0,0,1233930,20580,7783,28096,3042,8739,3713,2264,Tag0,unknown
1605702914311,200,-545,-1.197509765625E-4,0,0,0,1233930,20580,7783,28096,3042,8739,3713,2264,Tag0,unknown
1605702914327,200,-717,-1.5754394531250002E-4,0,0,0,1233930,20580,7783,28096,3042,8739,3713,2264,Tag0,unknown
1605702914337,200,-243,-5.33935546875E-5,0,0,0,1233930,20580,7783,28096,3042,8739,3713,2264,Tag0,unknown
1605702914360,200,-796,-1.7490234374999998E-4,0,0,0,1233930,20580,7783,28096,3042,8739,3713,2264,Tag0,unknown
1605702914370,200,-419,-9.206542968750001E-5,0,0,0,1233930,20580,7783,28096,3042,8739,3713,2264,Tag0,unknown
1605702914383,200,-907,-1.992919921875E-4,0,0,0,1233930,20580,7783,28096,3042,8739,3713,2264,Tag0,unknown
1605702914401,200,-244,-5.361328125E-5,0,0,0,1233930,20580,7783,28096,3042,8739,3713,2264,Tag0,unknown
1605702914417,200,81,1.77978515625E-5,0,0,0,1233930,20580,7783,28096,3042,8739,3713,2264,Tag0,unknown
1605702914427,200,-854,-1.8764648437500001E-4,0,0,0,1233930,20580,7783,28096,3042,8739,3713,2264,Tag0,unknown
1605702914456,200,-963,-2.115966796875E-4,0,0,0,1233930,20580,7783,28096,3042,8739,3713,2264,Tag0,unknown
1605702914466,200,69,1.51611328125E-5,0,0,0,1233930,20580,7783,28096,3042,8739,3713,2264,Tag0,unknown
1605702914480,200,295,6.48193359375E-5,0,0,0,1233930,20580,7783,28096,3042,8739,3713,2264,Tag0,unknown
1605702914501,200,604,1.3271484375E-4,0,0,0,1233930,20580,7783,28096,3042,8739,3713,2264,Tag0,unknown
1605702914518,200,-194,-4.2626953125E-5,0,0,0,1233930,20580,7783,28096,3042,8739,3713,2264,Tag0,unknown
1605702914528,200,-797,-1.751220703125E-4,0,0,0,1233930,20580,7783,28096,3042,8739,3713,2264,Tag0,unknown
1605702914549,200,-713,-1.566650390625E-4,0,0,0,1233930,20580,7783,28096,3042,8739,3713,2264,Tag0,unknown
1605702914568,200,-1125,-2.471923828125E-4,0,0,0,1233930,20580,7783,28096,3042,8739,3713,2264,Tag0,unknown
1605702914584,200,-1373,-3.016845703125E-4,0,0,0,1233930,20580,7783,28096,3042,8739,3713,2264,Tag0,unknown
1605702914604,200,-954,-2.09619140625E-4,0,0,0,1233930,20580,7783,28096,3042,8739,3713,2264,Tag0,unknown
1605702914630,200,-411,-9.03076171875E-5,0,0,0,1233930,20580,7783,28096,3042,8739,3713,2264,Tag0,unknown
1605702914661,200,-439,-9.64599609375E-5,0,0,0,1233930,20580,7783,28096,3042,8739,3713,2264,Tag0,unknown
1605702914671,200,-139,-3.0541992187500004E-5,0,0,0,1233930,20580,7783,28096,3042,8739,3713,2264,Tag0,unknown
1605702914697,200,-316,-6.943359375000001E-5,0,0,0,1233930,20580,7783,28096,3042,8739,3713,2264,Tag0,unknown
1605702914730,200,-177,-3.8891601562500006E-5,0,0,0,1233930,20580,7783,28096,3042,8739,3713,2264,Tag0,unknown
1605702914740,200,-13,-2.8564453125E-6,0,0,0,1233930,20580,7783,28096,3042,8739,3713,2264,Tag0,unknown
1605702914767,200,1205,2.647705078125E-4,0,0,0,1233930,20580,7783,28096,3042,8739,3713,2264,Tag0,unknown
1605702914785,200,1876,4.1220703125000003E-4,0,0,0,1233930,20580,7783,28096,3042,8739,3713,2264,Tag0,unknown
1605702914804,200,1745,3.834228515625E-4,0,0,0,1233930,20580,7783,28096,3042,8739,3713,2264,Tag0,unknown
1605702914823,200,1581,3.473876953125E-4,0,0,0,1233930,20580,7783,28096,3042,8739,3713,2264,Tag0,unknown
1605702914842,200,1339,2.942138671875E-4,0,0,0,1233930,20580,7783,28096,3042,8739,3713,2264,Tag0,unknown
1605702914852,200,1110,2.43896484375E-4,0,0,0,1233930,20580,7783,28096,3042,8739,3713,2264,Tag0,unknown
1605702914868,200,213,4.68017578125E-5,0,0,0,1233930,20580,7783,28096,3042,8739,3713,2264,Tag0,unknown
1605702914885,200,-620,-1.3623046875E-4,0,0,0,1233930,20580,7783,28096,3042,8739,3713,2264,Tag0,unknown
1605702914917,200,-1176,-2.583984375E-4,0,0,0,1233930,20580,7783,28096,3042,8739,3713,2264,Tag0,unknown
1605702914949,200,-1064,-2.337890625E-4,0,0,0,1233930,20580,7783,28096,3042,8739,3713,2264,Tag0,unknown
1605702914971,200,-450,-9.8876953125E-5,0,0,0,1233930,20580,7783,28096,3042,8739,3713,2264,Tag0,unknown
1605702914981,200,-1126,-2.47412109375E-4,0,0,0,1233930,20580,7783,28096,3042,8739,3713,2264,Tag0,unknown
1605702914992,200,-1396,-3.0673828125000004E-4,0,0,0,1233930,20580,7783,28096,3042,8739,3713,2264,Tag0,unknown
1605702915006,200,-919,-2.0192871093750001E-4,0,0,0,1233930,20580,7783,28096,3042,8739,3713,2264,Tag0,unknown
1605702915025,200,1791,3.935302734375E-4,0,0,0,1233930,20580,7783,28096,3042,8739,3713,2264,Tag0,unknown
1605702915042,200,1791,3.935302734375E-4,0,0,0,1233930,20580,7783,28096,3042,8739,3713,2264,Tag0,unknown
1605702915068,200,1791,3.935302734375E-4,0,0,0,1233930,20580,7783,28096,3042,8739,3713,2264,Tag0,unknown
1605702915092,200,1188,2.6103515625000004E-4,0,0,0,1233930,20580,7783,28096,3042,8739,3713,2264,Tag0,unknown
1605702915105,200,1227,2.696044921875E-4,0,0,0,1233930,20580,7783,28096,3042,8739,3713,2264,Tag0,unknown
1605702915115,200,487,1.070068359375E-4,0,0,0,1233930,20580,7783,28096,3042,8739,3713,2264,Tag0,unknown
1605702915135,200,554,1.2172851562500001E-4,0,0,0,1233930,20580,7783,28096,3042,8739,3713,2264,Tag0,unknown
1605702915153,200,221,4.85595703125E-5,0,0,0,1233930,20580,7783,28096,3042,8739,3713,2264,Tag0,unknown
1605702915176,200,119,2.6147460937500004E-5,0,0,0,1233930,20580,7783,28096,3042,8739,3713,2264,Tag0,unknown
1605702915188,200,-341,-7.492675781250002E-5,0,0,0,1233930,20580,7783,28096,3042,8739,3713,2264,Tag0,unknown
1605702915208,200,535,1.175537109375E-4,0,0,0,1233930,20580,7783,28096,3042,8739,3713,2264,Tag0,unknown
1605702915220,200,385,8.45947265625E-5,0,0,0,1233930,20580,7783,28096,3042,8739,3713,2264,Tag0,unknown
1605702915242,200,522,1.14697265625E-4,0,0,0,1233930,20580,7783,28096,3042,8739,3713,2264,Tag0,unknown
1605702915254,200,231,5.07568359375E-5,0,0,0,1233930,20580,7783,28096,3042,8739,3713,2264,Tag0,unknown
1605702915278,200,323,7.09716796875E-5,0,0,0,3108000,1728565,55568,386004,213139,297503,32178,20824,Tag0,unknown
1605702915288,200,267,5.86669921875E-5,0,0,0,3108000,1728565,55568,386004,213139,297503,32178,20824,Tag0,unknown
1605702915315,200,-273,-5.998535156250001E-5,0,0,0,3108000,1728565,55568,386004,213139,297503,32178,20824,Tag0,unknown
1605702915325,200,12,2.63671875E-6,0,0,0,3108000,1728565,55568,386004,213139,297503,32178,20824,Tag0,unknown
1605702915349,200,-369,-8.10791015625E-5,0,0,0,3108000,1728565,55568,386004,213139,297503,32178,20824,Tag0,unknown
1605702915359,200,-139,-3.0541992187500004E-5,0,0,0,3108000,1728565,55568,386004,213139,297503,32178,20824,Tag0,unknown
1605702915391,200,37,8.1298828125E-6,0,0,0,3108000,1728565,55568,386004,213139,297503,32178,20824,Tag0,unknown
1605702915423,200,90,1.9775390625E-5,0,0,0,3108000,1728565,55568,386004,213139,297503,32178,20824,Tag0,unknown
1605702915437,200,1,2.197265625E-7,0,0,0,3108000,1728565,55568,386004,213139,297503,32178,20824,Tag0,unknown
1605702915447,200,72,1.58203125E-5,0,0,0,3108000,1728565,55568,386004,213139,297503,32178,20824,Tag0,unknown
1605702915470,200,105,2.30712890625E-5,0,0,0,3108000,1728565,55568,386004,213139,297503,32178,20824,Tag0,unknown
1605702915487,200,26,5.712890625E-6,0,0,0,3108000,1728565,55568,386004,213139,297503,32178,20824,Tag0,unknown
1605702915497,200,-361,-7.93212890625E-5,0,0,0,3108000,1728565,55568,386004,213139,297503,32178,20824,Tag0,unknown
1605702915515,200,-356,-7.822265625E-5,0,0,0,3108000,1728565,55568,386004,213139,297503,32178,20824,Tag0,unknown
1605702915525,200,45,9.8876953125E-6,0,0,0,3108000,1728565,55568,386004,213139,297503,32178,20824,Tag0,unknown
1605702915562,200,-321,-7.053222656250001E-5,0,0,0,3108000,1728565,55568,386004,213139,297503,32178,20824,Tag0,unknown
1605702915572,200,-359,-7.88818359375E-5,0,0,0,3108000,1728565,55568,386004,213139,297503,32178,20824,Tag0,unknown
1605702915588,200,-171,-3.75732421875E-5,0,0,0,3108000,1728565,55568,386004,213139,297503,32178,20824,Tag0,unknown
1605702915610,200,23,5.0537109375E-6,0,0,0,3108000,1728565,55568,386004,213139,297503,32178,20824,Tag0,unknown
1605702915642,200,-339,-7.448730468750001E-5,0,0,0,3108000,1728565,55568,386004,213139,297503,32178,20824,Tag0,unknown
1605702915655,200,-270,-5.9326171875E-5,0,0,0,3108000,1728565,55568,386004,213139,297503,32178,20824,Tag0,unknown
1605702915665,200,279,6.13037109375E-5,0,0,0,3108000,1728565,55568,386004,213139,297503,32178,20824,Tag0,unknown
1605702915686,200,268,5.8886718750000006E-5,0,0,0,3108000,1728565,55568,386004,213139,297503,32178,20824,Tag0,unknown
1605702915707,200,369,8.10791015625E-5,0,0,0,3108000,1728565,55568,386004,213139,297503,32178,20824,Tag0,unknown
1605702915724,200,299,6.56982421875E-5,0,0,0,3108000,1728565,55568,386004,213139,297503,32178,20824,Tag0,unknown
1605702915734,200,-291,-6.39404296875E-5,0,0,0,3108000,1728565,55568,386004,213139,297503,32178,20824,Tag0,unknown
1605702915757,200,-371,-8.151855468750001E-5,0,0,0,3108000,1728565,55568,386004,213139,297503,32178,20824,Tag0,unknown
1605702915772,200,-131,-2.87841796875E-5,0,0,0,3108000,1728565,55568,386004,213139,297503,32178,20824,Tag0,unknown
1605702915791,200,-69,-1.51611328125E-5,0,0,0,3108000,1728565,55568,386004,213139,297503,32178,20824,Tag0,unknown
1605702915806,200,5,1.0986328125E-6,0,0,0,3108000,1728565,55568,386004,213139,297503,32178,20824,Tag0,unknown
1605702915816,200,263,5.7788085937500005E-5,0,0,0,3108000,1728565,55568,386004,213139,297503,32178,20824,Tag0,unknown
1605702915830,200,292,6.416015625000001E-5,0,0,0,3108000,1728565,55568,386004,213139,297503,32178,20824,Tag0,unknown
1605702915840,200,333,7.316894531249999E-5,0,0,0,3108000,1728565,55568,386004,213139,297503,32178,20824,Tag0,unknown
1605702915864,200,-318,-6.9873046875E-5,0,0,0,3108000,1728565,55568,386004,213139,297503,32178,20824,Tag0,unknown
1605702915874,200,9,1.9775390625E-6,0,0,0,3108000,1728565,55568,386004,213139,297503,32178,20824,Tag0,unknown
1605702915902,200,-402,-8.8330078125E-5,0,0,0,3108000,1728565,55568,386004,213139,297503,32178,20824,Tag0,unknown
1605702915935,200,-348,-7.646484375E-5,0,0,0,3108000,1728565,55568,386004,213139,297503,32178,20824,Tag0,unknown
1605702915945,200,-157,-3.44970703125E-5,0,0,0,3108000,1728565,55568,386004,213139,297503,32178,20824,Tag0,unknown
1605702915957,200,-539,-1.1843261718750001E-4,0,0,0,3108000,1728565,55568,386004,213139,297503,32178,20824,Tag0,unknown
1605702915981,200,-621,-1.364501953125E-4,0,0,0,3108000,1728565,55568,386004,213139,297503,32178,20824,Tag0,unknown
1605702916009,200,-520,-1.142578125E-4,0,0,0,3108000,1728565,55568,386004,213139,297503,32178,20824,Tag0,unknown
1605702916024,200,-391,-8.591308593750001E-5,0,0,0,3108000,1728565,55568,386004,213139,297503,32178,20824,Tag0,unknown
1605702916054,200,295,6.48193359375E-5,0,0,0,3108000,1728565,55568,386004,213139,297503,32178,20824,Tag0,unknown
1605702916080,200,249,5.47119140625E-5,0,0,0,3108000,1728565,55568,386004,213139,297503,32178,20824,Tag0,unknown
1605702916093,200,337,7.40478515625E-5,0,0,0,3108000,1728565,55568,386004,213139,297503,32178,20824,Tag0,unknown
1605702916103,200,571,1.254638671875E-4,0,0,0,3108000,1728565,55568,386004,213139,297503,32178,20824,Tag0,unknown
1605702916120,200,208,4.5703125E-5,0,0,0,3108000,1728565,55568,386004,213139,297503,32178,20824,Tag0,unknown
1605702916130,200,313,6.87744140625E-5,0,0,0,3108000,1728565,55568,386004,213139,297503,32178,20824,Tag0,unknown
1605702916154,200,317,6.96533203125E-5,0,0,0,3108000,1728565,55568,386004,213139,297503,32178,20824,Tag0,unknown
1605702916164,200,-28,-6.15234375E-6,0,0,0,3108000,1728565,55568,386004,213139,297503,32178,20824,Tag0,unknown
1605702916176,200,41,9.008789062499999E-6,0,0,0,3108000,1728565,55568,386004,213139,297503,32178,20824,Tag0,unknown
1605702916200,200,-397,-8.72314453125E-5,0,0,0,3108000,1728565,55568,386004,213139,297503,32178,20824,Tag0,unknown
1605702916210,200,-521,-1.1447753906250001E-4,0,0,0,3108000,1728565,55568,386004,213139,297503,32178,20824,Tag0,unknown
1605702916226,200,-213,-4.68017578125E-5,0,0,0,3108000,1728565,55568,386004,213139,297503,32178,20824,Tag0,unknown
1605702916243,200,-125,-2.74658203125E-5,0,0,0,3108000,1728565,55568,386004,213139,297503,32178,20824,Tag0,unknown
1605702916259,200,4,8.7890625E-7,0,0,0,3108000,1728565,55568,386004,213139,297503,32178,20824,Tag0,unknown
1605702916269,200,-577,-1.2678222656250002E-4,0,0,0,80692,134151,16564,19047,20216,4921,4768,2824,Tag0,unknown
1605702916283,200,-189,-4.15283203125E-5,0,0,0,80692,134151,16564,19047,20216,4921,4768,2824,Tag0,unknown
1605702916294,200,2,4.39453125E-7,0,0,0,80692,134151,16564,19047,20216,4921,4768,2824,Tag0,unknown
1605702916320,200,-653,-1.434814453125E-4,0,0,0,80692,134151,16564,19047,20216,4921,4768,2824,Tag0,unknown
1605702916330,200,-1622,-3.56396484375E-4,0,0,0,80692,134151,16564,19047,20216,4921,4768,2824,Tag0,unknown
1605702916340,200,-1655,-3.636474609375E-4,0,0,0,80692,134151,16564,19047,20216,4921,4768,2824,Tag0,unknown
1605702916356,200,-1237,-2.718017578125E-4,0,0,0,80692,134151,16564,19047,20216,4921,4768,2824,Tag0,unknown
1605702916377,200,-1229,-2.700439453125E-4,0,0,0,80692,134151,16564,19047,20216,4921,4768,2824,Tag0,unknown
1605702916397,200,-1221,-2.682861328125E-4,0,0,0,80692,134151,16564,19047,20216,4921,4768,2824,Tag0,unknown
1605702916407,200,-939,-2.0632324218750002E-4,0,0,0,80692,134151,16564,19047,20216,4921,4768,2824,Tag0,unknown
1605702916426,200,-648,-1.423828125E-4,0,0,0,80692,134151,16564,19047,20216,4921,4768,2824,Tag0,unknown
1605702916444,200,-498,-1.09423828125E-4,0,0,0,80692,134151,16564,19047,20216,4921,4768,2824,Tag0,unknown
1605702916463,200,-529,-1.162353515625E-4,0,0,0,80692,134151,16564,19047,20216,4921,4768,2824,Tag0,unknown
1605702916477,200,-151,-3.31787109375E-5,0,0,0,80692,134151,16564,19047,20216,4921,4768,2824,Tag0,unknown
1605702916500,200,65,1.42822265625E-5,0,0,0,80692,134151,16564,19047,20216,4921,4768,2824,Tag0,unknown
1605702916510,200,-121,-2.6586914062500003E-5,0,0,0,80692,134151,16564,19047,20216,4921,4768,2824,Tag0,unknown
1605702916534,200,-327,-7.18505859375E-5,0,0,0,80692,134151,16564,19047,20216,4921,4768,2824,Tag0,unknown
1605702916544,200,37,8.1298828125E-6,0,0,0,80692,134151,16564,19047,20216,4921,4768,2824,Tag0,unknown
1605702916572,200,-573,-1.259033203125E-4,0,0,0,80692,134151,16564,19047,20216,4921,4768,2824,Tag0,unknown
1605702916605,200,299,6.56982421875E-5,0,0,0,80692,134151,16564,19047,20216,4921,4768,2824,Tag0,unknown
1605702916615,200,-323,-7.09716796875E-5,0,0,0,80692,134151,16564,19047,20216,4921,4768,2824,Tag0,unknown
1605702916627,200,-281,-6.17431640625E-5,0,0,0,80692,134151,16564,19047,20216,4921,4768,2824,Tag0,unknown
1605702916649,200,-977,-2.1467285156250002E-4,0,0,0,80692,134151,16564,19047,20216,4921,4768,2824,Tag0,unknown
1605702916681,200,-710,-1.56005859375E-4,0,0,0,80692,134151,16564,19047,20216,4921,4768,2824,Tag0,unknown
1605702916694,200,-676,-1.4853515624999999E-4,0,0,0,80692,134151,16564,19047,20216,4921,4768,2824,Tag0,unknown
1605702916727,200,277,6.0864257812500005E-5,0,0,0,80692,134151,16564,19047,20216,4921,4768,2824,Tag0,unknown
1605702916745,200,281,6.17431640625E-5,0,0,0,80692,134151,16564,19047,20216,4921,4768,2824,Tag0,unknown
1605702916755,200,-245,-5.38330078125E-5,0,0,0,80692,134151,16564,19047,20216,4921,4768,2824,Tag0,unknown
1605702916771,200,-621,-1.364501953125E-4,0,0,0,80692,134151,16564,19047,20216,4921,4768,2824,Tag0,unknown
1605702916781,200,-586,-1.28759765625E-4,0,0,0,80692,134151,16564,19047,20216,4921,4768,2824,Tag0,unknown
1605702916803,200,-603,-1.3249511718750002E-4,0,0,0,80692,134151,16564,19047,20216,4921,4768,2824,Tag0,unknown
1605702916813,200,-609,-1.338134765625E-4,0,0,0,80692,134151,16564,19047,20216,4921,4768,2824,Tag0,unknown
1605702916842,200,137,3.0102539062499998E-5,0,0,0,80692,134151,16564,19047,20216,4921,4768,2824,Tag0,unknown
1605702916861,200,273,5.998535156250001E-5,0,0,0,80692,134151,16564,19047,20216,4921,4768,2824,Tag0,unknown
1605702916878,200,-293,-6.43798828125E-5,0,0,0,80692,134151,16564,19047,20216,4921,4768,2824,Tag0,unknown
1605702916897,200,261,5.73486328125E-5,0,0,0,80692,134151,16564,19047,20216,4921,4768,2824,Tag0,unknown
1605702916917,200,348,7.646484375E-5,0,0,0,80692,134151,16564,19047,20216,4921,4768,2824,Tag0,unknown
1605702916929,200,345,7.58056640625E-5,0,0,0,80692,134151,16564,19047,20216,4921,4768,2824,Tag0,unknown
1605702916951,200,437,9.602050781250001E-5,0,0,0,80692,134151,16564,19047,20216,4921,4768,2824,Tag0,unknown
1605702916962,200,139,3.0541992187500004E-5,0,0,0,80692,134151,16564,19047,20216,4921,4768,2824,Tag0,unknown
1605702916972,200,-102,-2.2412109374999998E-5,0,0,0,80692,134151,16564,19047,20216,4921,4768,2824,Tag0,unknown
1605702916990,200,-19,-4.1748046875E-6,0,0,0,80692,134151,16564,19047,20216,4921,4768,2824,Tag0,unknown
1605702917000,200,288,6.328125E-5,0,0,0,80692,134151,16564,19047,20216,4921,4768,2824,Tag0,unknown
1605702917024,200,73,1.6040039062500002E-5,0,0,0,80692,134151,16564,19047,20216,4921,4768,2824,Tag0,unknown
1605702917034,200,-279,-6.13037109375E-5,0,0,0,80692,134151,16564,19047,20216,4921,4768,2824,Tag0,unknown
1605702917062,200,-84,-1.8457031250000004E-5,0,0,0,80692,134151,16564,19047,20216,4921,4768,2824,Tag0,unknown
1605702917080,200,629,1.382080078125E-4,0,0,0,80692,134151,16564,19047,20216,4921,4768,2824,Tag0,unknown
1605702917097,200,496,1.08984375E-4,0,0,0,80692,134151,16564,19047,20216,4921,4768,2824,Tag0,unknown
1605702917113,200,152,3.33984375E-5,0,0,0,80692,134151,16564,19047,20216,4921,4768,2824,Tag0,unknown
1605702917139,200,182,3.9990234375E-5,0,0,0,80692,134151,16564,19047,20216,4921,4768,2824,Tag0,unknown
1605702917152,200,292,6.416015625000001E-5,0,0,0,80692,134151,16564,19047,20216,4921,4768,2824,Tag0,unknown
1605702917180,200,316,6.943359375000001E-5,0,0,0,80692,134151,16564,19047,20216,4921,4768,2824,Tag0,unknown
1605702917197,200,808,1.7753906250000002E-4,0,0,0,80692,134151,16564,19047,20216,4921,4768,2824,Tag0,unknown
1605702917215,200,916,2.0126953125E-4,0,0,0,80692,134151,16564,19047,20216,4921,4768,2824,Tag0,unknown
1605702917231,200,739,1.623779296875E-4,0,0,0,80692,134151,16564,19047,20216,4921,4768,2824,Tag0,unknown
1605702917269,200,224,4.921875E-5,0,0,0,709778,16761297,24448,16750064,65419,22169,5920,5691,Tag0,unknown
1605702917288,200,-171,-3.75732421875E-5,0,0,0,709778,16761297,24448,16750064,65419,22169,5920,5691,Tag0,unknown
1605702917298,200,26,5.712890625E-6,0,0,0,709778,16761297,24448,16750064,65419,22169,5920,5691,Tag0,unknown
1605702917322,200,-125,-2.74658203125E-5,0,0,0,709778,16761297,24448,16750064,65419,22169,5920,5691,Tag0,unknown
1605702917334,200,278,6.108398437500001E-5,0,0,0,709778,16761297,24448,16750064,65419,22169,5920,5691,Tag0,unknown
1605702917348,200,-123,-2.70263671875E-5,0,0,0,709778,16761297,24448,16750064,65419,22169,5920,5691,Tag0,unknown
1605702917371,200,69,1.51611328125E-5,0,0,0,709778,16761297,24448,16750064,65419,22169,5920,5691,Tag0,unknown
1605702917382,200,227,4.98779296875E-5,0,0,0,709778,16761297,24448,16750064,65419,22169,5920,5691,Tag0,unknown
1605702917395,200,182,3.9990234375E-5,0,0,0,709778,16761297,24448,16750064,65419,22169,5920,5691,Tag0,unknown
1605702917415,200,235,5.16357421875E-5,0,0,0,709778,16761297,24448,16750064,65419,22169,5920,5691,Tag0,unknown
1605702917433,200,163,3.5815429687500006E-5,0,0,0,709778,16761297,24448,16750064,65419,22169,5920,5691,Tag0,unknown
1605702917443,200,360,7.91015625E-5,0,0,0,709778,16761297,24448,16750064,65419,22169,5920,5691,Tag0,unknown
1605702917506,200,356,7.822265625E-5,0,0,0,709778,16761297,24448,16750064,65419,22169,5920,5691,Tag0,unknown
1605702917517,200,-89,-1.95556640625E-5,0,0,0,709778,16761297,24448,16750064,65419,22169,5920,5691,Tag0,unknown
1605702917574,200,531,1.1667480468750001E-4,0,0,0,709778,16761297,24448,16750064,65419,22169,5920,5691,Tag0,unknown
1605702917584,200,275,6.04248046875E-5,0,0,0,709778,16761297,24448,16750064,65419,22169,5920,5691,Tag0,unknown
1605702917641,200,288,6.328125E-5,0,0,0,709778,16761297,24448,16750064,65419,22169,5920,5691,Tag0,unknown
1605702917651,200,-285,-6.26220703125E-5,0,0,0,709778,16761297,24448,16750064,65419,22169,5920,5691,Tag0,unknown
1605702917709,200,-86,-1.8896484375000003E-5,0,0,0,709778,16761297,24448,16750064,65419,22169,5920,5691,Tag0,unknown
1605702917719,200,66,1.4501953125E-5,0,0,0,709778,16761297,24448,16750064,65419,22169,5920,5691,Tag0,unknown
1605702917850,200,-91,-1.99951171875E-5,0,0,0,709778,16761297,24448,16750064,65419,22169,5920,5691,Tag0,unknown
1605702917877,200,85,1.86767578125E-5,0,0,0,709778,16761297,24448,16750064,65419,22169,5920,5691,Tag0,unknown
1605702917887,200,227,4.98779296875E-5,0,0,0,709778,16761297,24448,16750064,65419,22169,5920,5691,Tag0,unknown
1605702917991,200,274,6.0205078124999997E-5,0,0,0,709778,16761297,24448,16750064,65419,22169,5920,5691,Tag0,unknown
1605702918009,200,368,8.0859375E-5,0,0,0,709778,16761297,24448,16750064,65419,22169,5920,5691,Tag0,unknown
1605702918019,200,181,3.9770507812500004E-5,0,0,0,709778,16761297,24448,16750064,65419,22169,5920,5691,Tag0,unknown
1605702918029,200,-14,-3.076171875E-6,0,0,0,709778,16761297,24448,16750064,65419,22169,5920,5691,Tag0,unknown
1605702918059,200,-52,-1.142578125E-5,0,0,0,709778,16761297,24448,16750064,65419,22169,5920,5691,Tag0,unknown
1605702918069,200,300,6.591796875E-5,0,0,0,709778,16761297,24448,16750064,65419,22169,5920,5691,Tag0,unknown
1605702918096,200,-89,-1.95556640625E-5,0,0,0,709778,16761297,24448,16750064,65419,22169,5920,5691,Tag0,unknown
1605702918106,200,-370,-8.1298828125E-5,0,0,0,709778,16761297,24448,16750064,65419,22169,5920,5691,Tag0,unknown
1605702918116,200,-166,-3.6474609375E-5,0,0,0,709778,16761297,24448,16750064,65419,22169,5920,5691,Tag0,unknown
1605702918126,200,-37,-8.1298828125E-6,0,0,0,709778,16761297,24448,16750064,65419,22169,5920,5691,Tag0,unknown
1605702918136,200,-43,-9.448242187500001E-6,0,0,0,709778,16761297,24448,16750064,65419,22169,5920,5691,Tag0,unknown
1605702918146,200,-315,-6.92138671875E-5,0,0,0,709778,16761297,24448,16750064,65419,22169,5920,5691,Tag0,unknown
1605702918163,200,8,1.7578125E-6,0,0,0,709778,16761297,24448,16750064,65419,22169,5920,5691,Tag0,unknown
1605702918184,200,-259,-5.69091796875E-5,0,0,0,709778,16761297,24448,16750064,65419,22169,5920,5691,Tag0,unknown
1605702918201,200,-354,-7.778320312500001E-5,0,0,0,709778,16761297,24448,16750064,65419,22169,5920,5691,Tag0,unknown
1605702918233,200,-363,-7.97607421875E-5,0,0,0,709778,16761297,24448,16750064,65419,22169,5920,5691,Tag0,unknown
1605702918251,200,114,2.5048828125000003E-5,0,0,0,709778,16761297,24448,16750064,65419,22169,5920,5691,Tag0,unknown
1605702918274,200,61,1.34033203125E-5,0,0,0,148130,11246,3219,2183,2185,5287,889,459,Tag0,unknown
1605702918308,200,93,2.04345703125E-5,0,0,0,148130,11246,3219,2183,2185,5287,889,459,Tag0,unknown
1605702918318,200,25,5.4931640625E-6,0,0,0,148130,11246,3219,2183,2185,5287,889,459,Tag0,unknown
1605702918347,200,76,1.669921875E-5,0,0,0,148130,11246,3219,2183,2185,5287,889,459,Tag0,unknown
1605702918357,200,54,1.1865234375000001E-5,0,0,0,148130,11246,3219,2183,2185,5287,889,459,Tag0,unknown
1605702918373,200,41,9.008789062499999E-6,0,0,0,148130,11246,3219,2183,2185,5287,889,459,Tag0,unknown
1605702918393,200,-225,-4.94384765625E-5,0,0,0,148130,11246,3219,2183,2185,5287,889,459,Tag0,unknown
1605702918408,200,-349,-7.668457031250001E-5,0,0,0,148130,11246,3219,2183,2185,5287,889,459,Tag0,unknown
1605702918429,200,9,1.9775390625E-6,0,0,0,148130,11246,3219,2183,2185,5287,889,459,Tag0,unknown
1605702918439,200,-371,-8.151855468750001E-5,0,0,0,148130,11246,3219,2183,2185,5287,889,459,Tag0,unknown
1605702918464,200,-270,-5.9326171875E-5,0,0,0,148130,11246,3219,2183,2185,5287,889,459,Tag0,unknown
1605702918498,200,36,7.91015625E-6,0,0,0,148130,11246,3219,2183,2185,5287,889,459,Tag0,unknown
1605702918516,200,112,2.4609375E-5,0,0,0,148130,11246,3219,2183,2185,5287,889,459,Tag0,unknown
1605702918536,200,91,1.99951171875E-5,0,0,0,148130,11246,3219,2183,2185,5287,889,459,Tag0,unknown
1605702918566,200,-23,-5.0537109375E-6,0,0,0,148130,11246,3219,2183,2185,5287,889,459,Tag0,unknown
1605702918576,200,-156,-3.427734375E-5,0,0,0,148130,11246,3219,2183,2185,5287,889,459,Tag0,unknown
1605702918586,200,121,2.6586914062500003E-5,0,0,0,148130,11246,3219,2183,2185,5287,889,459,Tag0,unknown
1605702918608,200,-262,-5.7568359375E-5,0,0,0,148130,11246,3219,2183,2185,5287,889,459,Tag0,unknown
1605702918620,200,-301,-6.613769531250001E-5,0,0,0,148130,11246,3219,2183,2185,5287,889,459,Tag0,unknown
1605702918642,200,77,1.69189453125E-5,0,0,0,148130,11246,3219,2183,2185,5287,889,459,Tag0,unknown
1605702918654,200,-326,-7.163085937500001E-5,0,0,0,148130,11246,3219,2183,2185,5287,889,459,Tag0,unknown
1605702918664,200,-257,-5.64697265625E-5,0,0,0,148130,11246,3219,2183,2185,5287,889,459,Tag0,unknown
1605702918682,200,-315,-6.92138671875E-5,0,0,0,148130,11246,3219,2183,2185,5287,889,459,Tag0,unknown
1605702918692,200,27,5.9326171875000005E-6,0,0,0,148130,11246,3219,2183,2185,5287,889,459,Tag0,unknown
1605702918716,200,-309,-6.78955078125E-5,0,0,0,148130,11246,3219,2183,2185,5287,889,459,Tag0,unknown
1605702918726,200,-281,-6.17431640625E-5,0,0,0,148130,11246,3219,2183,2185,5287,889,459,Tag0,unknown
1605702918755,200,-168,-3.691406250000001E-5,0,0,0,148130,11246,3219,2183,2185,5287,889,459,Tag0,unknown
1605702918787,200,58,1.2744140625E-5,0,0,0,148130,11246,3219,2183,2185,5287,889,459,Tag0,unknown
1605702918804,200,26,5.712890625E-6,0,0,0,148130,11246,3219,2183,2185,5287,889,459,Tag0,unknown
1605702918825,200,277,6.0864257812500005E-5,0,0,0,148130,11246,3219,2183,2185,5287,889,459,Tag0,unknown
1605702918857,200,-311,-6.833496093750001E-5,0,0,0,148130,11246,3219,2183,2185,5287,889,459,Tag0,unknown
1605702918871,200,-209,-4.59228515625E-5,0,0,0,148130,11246,3219,2183,2185,5287,889,459,Tag0,unknown
1605702918881,200,-324,-7.119140625E-5,0,0,0,148130,11246,3219,2183,2185,5287,889,459,Tag0,unknown
1605702918899,200,-318,-6.9873046875E-5,0,0,0,148130,11246,3219,2183,2185,5287,889,459,Tag0,unknown
1605702918909,200,-251,-5.5151367187500004E-5,0,0,0,148130,11246,3219,2183,2185,5287,889,459,Tag0,unknown
1605702918936,200,-459,-1.008544921875E-4,0,0,0,148130,11246,3219,2183,2185,5287,889,459,Tag0,unknown
1605702918955,200,-856,-1.880859375E-4,0,0,0,148130,11246,3219,2183,2185,5287,889,459,Tag0,unknown
1605702918977,200,-1259,-2.7663574218750005E-4,0,0,0,148130,11246,3219,2183,2185,5287,889,459,Tag0,unknown
1605702918989,200,-707,-1.5534667968750002E-4,0,0,0,148130,11246,3219,2183,2185,5287,889,459,Tag0,unknown
1605702919019,200,-829,-1.821533203125E-4,0,0,0,148130,11246,3219,2183,2185,5287,889,459,Tag0,unknown
1605702919029,200,729,1.601806640625E-4,0,0,0,148130,11246,3219,2183,2185,5287,889,459,Tag0,unknown
1605702919052,200,683,1.500732421875E-4,0,0,0,148130,11246,3219,2183,2185,5287,889,459,Tag0,unknown
1605702919073,200,917,2.014892578125E-4,0,0,0,148130,11246,3219,2183,2185,5287,889,459,Tag0,unknown
1605702919094,200,359,7.88818359375E-5,0,0,0,148130,11246,3219,2183,2185,5287,889,459,Tag0,unknown
1605702919108,200,346,7.6025390625E-5,0,0,0,148130,11246,3219,2183,2185,5287,889,459,Tag0,unknown
1605702919129,200,-293,-6.43798828125E-5,0,0,0,148130,11246,3219,2183,2185,5287,889,459,Tag0,unknown
1605702919141,200,-181,-3.9770507812500004E-5,0,0,0,148130,11246,3219,2183,2185,5287,889,459,Tag0,unknown
1605702919151,200,-308,-6.767578125E-5,0,0,0,148130,11246,3219,2183,2185,5287,889,459,Tag0,unknown
1605702919168,200,70,1.5380859375E-5,0,0,0,148130,11246,3219,2183,2185,5287,889,459,Tag0,unknown
1605702919202,200,-273,-5.998535156250001E-5,0,0,0,148130,11246,3219,2183,2185,5287,889,459,Tag0,unknown
1605702919212,200,-839,-1.843505859375E-4,0,0,0,148130,11246,3219,2183,2185,5287,889,459,Tag0,unknown
1605702919238,200,-296,-6.50390625E-5,0,0,0,148130,11246,3219,2183,2185,5287,889,459,Tag0,unknown
1605702919256,200,-361,-7.93212890625E-5,0,0,0,148130,11246,3219,2183,2185,5287,889,459,Tag0,unknown
1605702919279,200,-151,-3.31787109375E-5,0,0,0,1380174,204224,52919,142954,16774533,16759367,16609,6954,Tag0,unknown
1605702919312,200,-11,-2.4169921875E-6,0,0,0,1380174,204224,52919,142954,16774533,16759367,16609,6954,Tag0,unknown
1605702919323,200,215,4.72412109375E-5,0,0,0,1380174,204224,52919,142954,16774533,16759367,16609,6954,Tag0,unknown
1605702919349,200,104,2.28515625E-5,0,0,0,1380174,204224,52919,142954,16774533,16759367,16609,6954,Tag0,unknown
1605702919359,200,-117,-2.5708007812499998E-5,0,0,0,1380174,204224,52919,142954,16774533,16759367,16609,6954,Tag0,unknown
1605702919402,200,16,3.515625E-6,0,0,0,1380174,204224,52919,142954,16774533,16759367,16609,6954,Tag0,unknown
1605702919413,200,39,8.5693359375E-6,0,0,0,1380174,204224,52919,142954,16774533,16759367,16609,6954,Tag0,unknown
1605702919425,200,-344,-7.558593750000001E-5,0,0,0,1380174,204224,52919,142954,16774533,16759367,16609,6954,Tag0,unknown
1605702919435,200,285,6.26220703125E-5,0,0,0,1380174,204224,52919,142954,16774533,16759367,16609,6954,Tag0,unknown
1605702919450,200,327,7.18505859375E-5,0,0,0,1380174,204224,52919,142954,16774533,16759367,16609,6954,Tag0,unknown
1605702919460,200,359,7.88818359375E-5,0,0,0,1380174,204224,52919,142954,16774533,16759367,16609,6954,Tag0,unknown
1605702919485,200,323,7.09716796875E-5,0,0,0,1380174,204224,52919,142954,16774533,16759367,16609,6954,Tag0,unknown
1605702919495,200,-273,-5.998535156250001E-5,0,0,0,1380174,204224,52919,142954,16774533,16759367,16609,6954,Tag0,unknown
1605702919530,200,-557,-1.223876953125E-4,0,0,0,1380174,204224,52919,142954,16774533,16759367,16609,6954,Tag0,unknown
1605702919541,200,-181,-3.9770507812500004E-5,0,0,0,1380174,204224,52919,142954,16774533,16759367,16609,6954,Tag0,unknown
1605702919560,200,-241,-5.29541015625E-5,0,0,0,1380174,204224,52919,142954,16774533,16759367,16609,6954,Tag0,unknown
1605702919575,200,-553,-1.215087890625E-4,0,0,0,1380174,204224,52919,142954,16774533,16759367,16609,6954,Tag0,unknown
1605702919597,200,-172,-3.7792968750000005E-5,0,0,0,1380174,204224,52919,142954,16774533,16759367,16609,6954,Tag0,unknown
1605702919610,200,67,1.4721679687500002E-5,0,0,0,1380174,204224,52919,142954,16774533,16759367,16609,6954,Tag0,unknown
1605702919636,200,-324,-7.119140625E-5,0,0,0,1380174,204224,52919,142954,16774533,16759367,16609,6954,Tag0,unknown
1605702919646,200,-30,-6.591796875E-6,0,0,0,1380174,204224,52919,142954,16774533,16759367,16609,6954,Tag0,unknown
1605702919667,200,-280,-6.15234375E-5,0,0,0,1380174,204224,52919,142954,16774533,16759367,16609,6954,Tag0,unknown
1605702919690,200,-354,-7.778320312500001E-5,0,0,0,1380174,204224,52919,142954,16774533,16759367,16609,6954,Tag0,unknown
1605702919708,200,-246,-5.4052734375E-5,0,0,0,1380174,204224,52919,142954,16774533,16759367,16609,6954,Tag0,unknown
1605702919740,200,18,3.955078125E-6,0,0,0,1380174,204224,52919,142954,16774533,16759367,16609,6954,Tag0,unknown
1605702919759,200,-249,-5.47119140625E-5,0,0,0,1380174,204224,52919,142954,16774533,16759367,16609,6954,Tag0,unknown
1605702919780,200,-380,-8.349609375E-5,0,0,0,1380174,204224,52919,142954,16774533,16759367,16609,6954,Tag0,unknown
1605702919793,200,-834,-1.83251953125E-4,0,0,0,1380174,204224,52919,142954,16774533,16759367,16609,6954,Tag0,unknown
1605702919818,200,-777,-1.707275390625E-4,0,0,0,1380174,204224,52919,142954,16774533,16759367,16609,6954,Tag0,unknown
1605702919828,200,-510,-1.12060546875E-4,0,0,0,1380174,204224,52919,142954,16774533,16759367,16609,6954,Tag0,unknown
1605702919852,200,-145,-3.18603515625E-5,0,0,0,1380174,204224,52919,142954,16774533,16759367,16609,6954,Tag0,unknown
1605702919862,200,-381,-8.371582031250001E-5,0,0,0,1380174,204224,52919,142954,16774533,16759367,16609,6954,Tag0,unknown
1605702919898,200,531,1.1667480468750001E-4,0,0,0,1380174,204224,52919,142954,16774533,16759367,16609,6954,Tag0,unknown
1605702919909,200,388,8.525390625E-5,0,0,0,1380174,204224,52919,142954,16774533,16759367,16609,6954,Tag0,unknown
1605702919938,200,-293,-6.43798828125E-5,0,0,0,1380174,204224,52919,142954,16774533,16759367,16609,6954,Tag0,unknown
1605702919948,200,1061,2.331298828125E-4,0,0,0,1380174,204224,52919,142954,16774533,16759367,16609,6954,Tag0,unknown
1605702919972,200,709,1.557861328125E-4,0,0,0,1380174,204224,52919,142954,16774533,16759367,16609,6954,Tag0,unknown
1605702919982,200,1101,2.419189453125E-4,0,0,0,1380174,204224,52919,142954,16774533,16759367,16609,6954,Tag0,unknown
1605702920008,200,802,1.7622070312500003E-4,0,0,0,1380174,204224,52919,142954,16774533,16759367,16609,6954,Tag0,unknown
1605702920030,200,574,1.2612304687500001E-4,0,0,0,1380174,204224,52919,142954,16774533,16759367,16609,6954,Tag0,unknown
1605702920049,200,599,1.316162109375E-4,0,0,0,1380174,204224,52919,142954,16774533,16759367,16609,6954,Tag0,unknown
1605702920059,200,129,2.8344726562500002E-5,0,0,0,1380174,204224,52919,142954,16774533,16759367,16609,6954,Tag0,unknown
1605702920080,200,313,6.87744140625E-5,0,0,0,1380174,204224,52919,142954,16774533,16759367,16609,6954,Tag0,unknown
1605702920095,200,-119,-2.6147460937500004E-5,0,0,0,1380174,204224,52919,142954,16774533,16759367,16609,6954,Tag0,unknown
1605702920116,200,35,7.6904296875E-6,0,0,0,1380174,204224,52919,142954,16774533,16759367,16609,6954,Tag0,unknown
1605702920128,200,48,1.0546875E-5,0,0,0,1380174,204224,52919,142954,16774533,16759367,16609,6954,Tag0,unknown
1605702920138,200,-365,-8.02001953125E-5,0,0,0,1380174,204224,52919,142954,16774533,16759367,16609,6954,Tag0,unknown
1605702920155,200,-213,-4.68017578125E-5,0,0,0,1380174,204224,52919,142954,16774533,16759367,16609,6954,Tag0,unknown
1605702920165,200,-165,-3.62548828125E-5,0,0,0,1380174,204224,52919,142954,16774533,16759367,16609,6954,Tag0,unknown
1605702920178,200,-571,-1.254638671875E-4,0,0,0,1380174,204224,52919,142954,16774533,16759367,16609,6954,Tag0,unknown
1605702920199,200,-297,-6.525878906250001E-5,0,0,0,1380174,204224,52919,142954,16774533,16759367,16609,6954,Tag0,unknown
1605702920227,200,13,2.8564453125E-6,0,0,0,1380174,204224,52919,142954,16774533,16759367,16609,6954,Tag0,unknown
1605702920244,200,-89,-1.95556640625E-5,0,0,0,1380174,204224,52919,142954,16774533,16759367,16609,6954,Tag0,unknown
1605702920269,200,-67,-1.4721679687500002E-5,0,0,0,2316183,54700,16768839,16758644,138924,16764457,21964,12474,Tag0,unknown
1605702920280,200,103,2.26318359375E-5,0,0,0,2316183,54700,16768839,16758644,138924,16764457,21964,12474,Tag0,unknown
1605702920302,200,263,5.7788085937500005E-5,0,0,0,2316183,54700,16768839,16758644,138924,16764457,21964,12474,Tag0,unknown
1605702920328,200,-22,-4.833984375E-6,0,0,0,2316183,54700,16768839,16758644,138924,16764457,21964,12474,Tag0,unknown
1605702920346,200,-321,-7.053222656250001E-5,0,0,0,2316183,54700,16768839,16758644,138924,16764457,21964,12474,Tag0,unknown
1605702920369,200,-72,-1.58203125E-5,0,0,0,2316183,54700,16768839,16758644,138924,16764457,21964,12474,Tag0,unknown
1605702920412,200,97,2.13134765625E-5,0,0,0,2316183,54700,16768839,16758644,138924,16764457,21964,12474,Tag0,unknown
1605702920429,200,-339,-7.448730468750001E-5,0,0,0,2316183,54700,16768839,16758644,138924,16764457,21964,12474,Tag0,unknown
1605702920439,200,329,7.229003906250001E-5,0,0,0,2316183,54700,16768839,16758644,138924,16764457,21964,12474,Tag0,unknown
1605702920471,200,262,5.7568359375E-5,0,0,0,2316183,54700,16768839,16758644,138924,16764457,21964,12474,Tag0,unknown
1605702920481,200,353,7.75634765625E-5,0,0,0,2316183,54700,16768839,16758644,138924,16764457,21964,12474,Tag0,unknown
1605702920495,200,219,4.81201171875E-5,0,0,0,2316183,54700,16768839,16758644,138924,16764457,21964,12474,Tag0,unknown
1605702920514,200,331,7.272949218750001E-5,0,0,0,2316183,54700,16768839,16758644,138924,16764457,21964,12474,Tag0,unknown
1605702920551,200,161,3.53759765625E-5,0,0,0,2316183,54700,16768839,16758644,138924,16764457,21964,12474,Tag0,unknown
1605702920563,200,548,1.2041015624999999E-4,0,0,0,2316183,54700,16768839,16758644,138924,16764457,21964,12474,Tag0,unknown
1605702920573,200,-9,-1.9775390625E-6,0,0,0,2316183,54700,16768839,16758644,138924,16764457,21964,12474,Tag0,unknown
1605702920587,200,317,6.96533203125E-5,0,0,0,2316183,54700,16768839,16758644,138924,16764457,21964,12474,Tag0,unknown
1605702920597,200,368,8.0859375E-5,0,0,0,2316183,54700,16768839,16758644,138924,16764457,21964,12474,Tag0,unknown
1605702920629,200,-119,-2.6147460937500004E-5,0,0,0,2316183,54700,16768839,16758644,138924,16764457,21964,12474,Tag0,unknown
1605702920648,200,-173,-3.80126953125E-5,0,0,0,2316183,54700,16768839,16758644,138924,16764457,21964,12474,Tag0,unknown
1605702920658,200,-103,-2.26318359375E-5,0,0,0,2316183,54700,16768839,16758644,138924,16764457,21964,12474,Tag0,unknown
1605702920682,200,-155,-3.40576171875E-5,0,0,0,2316183,54700,16768839,16758644,138924,16764457,21964,12474,Tag0,unknown
1605702920696,200,-246,-5.4052734375E-5,0,0,0,2316183,54700,16768839,16758644,138924,16764457,21964,12474,Tag0,unknown
1605702920718,200,-247,-5.42724609375E-5,0,0,0,2316183,54700,16768839,16758644,138924,16764457,21964,12474,Tag0,unknown
1605702920732,200,-609,-1.338134765625E-4,0,0,0,2316183,54700,16768839,16758644,138924,16764457,21964,12474,Tag0,unknown
1605702920750,200,-309,-6.78955078125E-5,0,0,0,2316183,54700,16768839,16758644,138924,16764457,21964,12474,Tag0,unknown
1605702920760,200,83,1.82373046875E-5,0,0,0,2316183,54700,16768839,16758644,138924,16764457,21964,12474,Tag0,unknown
1605702920783,200,102,2.2412109374999998E-5,0,0,0,2316183,54700,16768839,16758644,138924,16764457,21964,12474,Tag0,unknown
1605702920797,200,-55,-1.20849609375E-5,0,0,0,2316183,54700,16768839,16758644,138924,16764457,21964,12474,Tag0,unknown
1605702920826,200,-260,-5.712890625E-5,0,0,0,2316183,54700,16768839,16758644,138924,16764457,21964,12474,Tag0,unknown
1605702920837,200,-252,-5.537109375E-5,0,0,0,2316183,54700,16768839,16758644,138924,16764457,21964,12474,Tag0,unknown
1605702920861,200,-337,-7.40478515625E-5,0,0,0,2316183,54700,16768839,16758644,138924,16764457,21964,12474,Tag0,unknown
1605702920881,200,-249,-5.47119140625E-5,0,0,0,2316183,54700,16768839,16758644,138924,16764457,21964,12474,Tag0,unknown
1605702920909,200,-376,-8.261718750000001E-5,0,0,0,2316183,54700,16768839,16758644,138924,16764457,21964,12474,Tag0,unknown
1605702920919,200,-216,-4.7460937500000004E-5,0,0,0,2316183,54700,16768839,16758644,138924,16764457,21964,12474,Tag0,unknown
1605702920933,200,-373,-8.19580078125E-5,0,0,0,2316183,54700,16768839,16758644,138924,16764457,21964,12474,Tag0,unknown
1605702920953,200,-341,-7.492675781250002E-5,0,0,0,2316183,54700,16768839,16758644,138924,16764457,21964,12474,Tag0,unknown
1605702920965,200,-148,-3.251953125E-5,0,0,0,2316183,54700,16768839,16758644,138924,16764457,21964,12474,Tag0,unknown
1605702920987,200,3,6.591796875E-7,0,0,0,2316183,54700,16768839,16758644,138924,16764457,21964,12474,Tag0,unknown
1605702920998,200,64,1.40625E-5,0,0,0,2316183,54700,16768839,16758644,138924,16764457,21964,12474,Tag0,unknown
1605702921024,200,-111,-2.43896484375E-5,0,0,0,2316183,54700,16768839,16758644,138924,16764457,21964,12474,Tag0,unknown
1605702921034,200,299,6.56982421875E-5,0,0,0,2316183,54700,16768839,16758644,138924,16764457,21964,12474,Tag0,unknown
1605702921048,200,76,1.669921875E-5,0,0,0,2316183,54700,16768839,16758644,138924,16764457,21964,12474,Tag0,unknown
1605702921069,200,11,2.4169921875E-6,0,0,0,2316183,54700,16768839,16758644,138924,16764457,21964,12474,Tag0,unknown
1605702921089,200,289,6.35009765625E-5,0,0,0,2316183,54700,16768839,16758644,138924,16764457,21964,12474,Tag0,unknown
1605702921114,200,41,9.008789062499999E-6,0,0,0,2316183,54700,16768839,16758644,138924,16764457,21964,12474,Tag0,unknown
1605702921144,200,37,8.1298828125E-6,0,0,0,2316183,54700,16768839,16758644,138924,16764457,21964,12474,Tag0,unknown
1605702921154,200,11,2.4169921875E-6,0,0,0,2316183,54700,16768839,16758644,138924,16764457,21964,12474,Tag0,unknown
1605702921182,200,27,5.9326171875000005E-6,0,0,0,2316183,54700,16768839,16758644,138924,16764457,21964,12474,Tag0,unknown
1605702921206,200,-41,-9.008789062499999E-6,0,0,0,2316183,54700,16768839,16758644,138924,16764457,21964,12474,Tag0,unknown
1605702921223,200,87,1.91162109375E-5,0,0,0,2316183,54700,16768839,16758644,138924,16764457,21964,12474,Tag0,unknown
1605702921239,200,-269,-5.9106445312499996E-5,0,0,0,2316183,54700,16768839,16758644,138924,16764457,21964,12474,Tag0,unknown
1605702921251,200,-85,-1.86767578125E-5,0,0,0,128920,75595,9004,29788,10660,14731,1057,2213,Tag0,unknown
1605702921267,200,-112,-2.4609375E-5,0,0,0,128920,75595,9004,29788,10660,14731,1057,2213,Tag0,unknown
1605702921282,200,117,2.5708007812499998E-5,0,0,0,128920,75595,9004,29788,10660,14731,1057,2213,Tag0,unknown
1605702921306,200,8,1.7578125E-6,0,0,0,128920,75595,9004,29788,10660,14731,1057,2213,Tag0,unknown
1605702921338,200,-265,-5.82275390625E-5,0,0,0,128920,75595,9004,29788,10660,14731,1057,2213,Tag0,unknown
1605702921349,200,25,5.4931640625E-6,0,0,0,128920,75595,9004,29788,10660,14731,1057,2213,Tag0,unknown
1605702921359,200,-105,-2.30712890625E-5,0,0,0,128920,75595,9004,29788,10660,14731,1057,2213,Tag0,unknown
1605702921377,200,-305,-6.70166015625E-5,0,0,0,128920,75595,9004,29788,10660,14731,1057,2213,Tag0,unknown
1605702921387,200,-11,-2.4169921875E-6,0,0,0,128920,75595,9004,29788,10660,14731,1057,2213,Tag0,unknown
1605702921411,200,-108,-2.3730468750000002E-5,0,0,0,128920,75595,9004,29788,10660,14731,1057,2213,Tag0,unknown
1605702921421,200,267,5.86669921875E-5,0,0,0,128920,75595,9004,29788,10660,14731,1057,2213,Tag0,unknown
1605702921431,200,380,8.349609375E-5,0,0,0,128920,75595,9004,29788,10660,14731,1057,2213,Tag0,unknown
1605702921455,200,305,6.70166015625E-5,0,0,0,128920,75595,9004,29788,10660,14731,1057,2213,Tag0,unknown
1605702921466,200,101,2.2192382812500002E-5,0,0,0,128920,75595,9004,29788,10660,14731,1057,2213,Tag0,unknown
1605702921503,200,322,7.0751953125E-5,0,0,0,128920,75595,9004,29788,10660,14731,1057,2213,Tag0,unknown
1605702921516,200,125,2.74658203125E-5,0,0,0,128920,75595,9004,29788,10660,14731,1057,2213,Tag0,unknown
1605702921537,200,-22,-4.833984375E-6,0,0,0,128920,75595,9004,29788,10660,14731,1057,2213,Tag0,unknown
1605702921552,200,23,5.0537109375E-6,0,0,0,128920,75595,9004,29788,10660,14731,1057,2213,Tag0,unknown
1605702921562,200,-57,-1.2524414062500001E-5,0,0,0,128920,75595,9004,29788,10660,14731,1057,2213,Tag0,unknown
1605702921576,200,-125,-2.74658203125E-5,0,0,0,128920,75595,9004,29788,10660,14731,1057,2213,Tag0,unknown
1605702921607,200,118,2.5927734375E-5,0,0,0,128920,75595,9004,29788,10660,14731,1057,2213,Tag0,unknown
1605702921617,200,56,1.23046875E-5,0,0,0,128920,75595,9004,29788,10660,14731,1057,2213,Tag0,unknown
1605702921646,200,101,2.2192382812500002E-5,0,0,0,128920,75595,9004,29788,10660,14731,1057,2213,Tag0,unknown
1605702921666,200,-86,-1.8896484375000003E-5,0,0,0,128920,75595,9004,29788,10660,14731,1057,2213,Tag0,unknown
1605702921683,200,-155,-3.40576171875E-5,0,0,0,128920,75595,9004,29788,10660,14731,1057,2213,Tag0,unknown
1605702921700,200,-340,-7.470703125E-5,0,0,0,128920,75595,9004,29788,10660,14731,1057,2213,Tag0,unknown
1605702921720,200,-247,-5.42724609375E-5,0,0,0,128920,75595,9004,29788,10660,14731,1057,2213,Tag0,unknown
1605702921752,200,-169,-3.7133789062499996E-5,0,0,0,128920,75595,9004,29788,10660,14731,1057,2213,Tag0,unknown
1605702921766,200,-524,-1.1513671875E-4,0,0,0,128920,75595,9004,29788,10660,14731,1057,2213,Tag0,unknown
1605702921776,200,-540,-1.1865234375E-4,0,0,0,128920,75595,9004,29788,10660,14731,1057,2213,Tag0,unknown
1605702921796,200,-149,-3.27392578125E-5,0,0,0,128920,75595,9004,29788,10660,14731,1057,2213,Tag0,unknown
1605702921806,200,-628,-1.3798828125E-4,0,0,0,128920,75595,9004,29788,10660,14731,1057,2213,Tag0,unknown
1605702921819,200,-552,-1.212890625E-4,0,0,0,128920,75595,9004,29788,10660,14731,1057,2213,Tag0,unknown
1605702921841,200,-563,-1.237060546875E-4,0,0,0,128920,75595,9004,29788,10660,14731,1057,2213,Tag0,unknown
1605702921863,200,-199,-4.3725585937499995E-5,0,0,0,128920,75595,9004,29788,10660,14731,1057,2213,Tag0,unknown
1605702921881,200,-214,-4.7021484375E-5,0,0,0,128920,75595,9004,29788,10660,14731,1057,2213,Tag0,unknown
1605702921911,200,-1269,-2.7883300781250003E-4,0,0,0,128920,75595,9004,29788,10660,14731,1057,2213,Tag0,unknown
1605702921921,200,-1897,-4.168212890625E-4,0,0,0,128920,75595,9004,29788,10660,14731,1057,2213,Tag0,unknown
1605702921967,200,-932,-2.0478515625000002E-4,0,0,0,128920,75595,9004,29788,10660,14731,1057,2213,Tag0,unknown
1605702921984,200,-550,-1.20849609375E-4,0,0,0,128920,75595,9004,29788,10660,14731,1057,2213,Tag0,unknown
1605702921994,200,897,1.970947265625E-4,0,0,0,128920,75595,9004,29788,10660,14731,1057,2213,Tag0,unknown
1605702922004,200,162,3.5595703125E-5,0,0,0,128920,75595,9004,29788,10660,14731,1057,2213,Tag0,unknown
1605702922019,200,270,5.9326171875E-5,0,0,0,128920,75595,9004,29788,10660,14731,1057,2213,Tag0,unknown
1605702922042,200,227,4.98779296875E-5,0,0,0,128920,75595,9004,29788,10660,14731,1057,2213,Tag0,unknown
1605702922052,200,856,1.880859375E-4,0,0,0,128920,75595,9004,29788,10660,14731,1057,2213,Tag0,unknown
1605702922083,200,-507,-1.1140136718750001E-4,0,0,0,128920,75595,9004,29788,10660,14731,1057,2213,Tag0,unknown
1605702922101,200,-673,-1.478759765625E-4,0,0,0,128920,75595,9004,29788,10660,14731,1057,2213,Tag0,unknown
1605702922118,200,739,1.623779296875E-4,0,0,0,128920,75595,9004,29788,10660,14731,1057,2213,Tag0,unknown
1605702922134,200,566,1.2436523437500002E-4,0,0,0,128920,75595,9004,29788,10660,14731,1057,2213,Tag0,unknown
1605702922157,200,-253,-5.55908203125E-5,0,0,0,128920,75595,9004,29788,10660,14731,1057,2213,Tag0,unknown
1605702922168,200,168,3.691406250000001E-5,0,0,0,128920,75595,9004,29788,10660,14731,1057,2213,Tag0,unknown
1605702922191,200,1172,2.5751953125E-4,0,0,0,128920,75595,9004,29788,10660,14731,1057,2213,Tag0,unknown
1605702922201,200,773,1.6984863281250002E-4,0,0,0,128920,75595,9004,29788,10660,14731,1057,2213,Tag0,unknown
1605702922228,200,145,3.18603515625E-5,0,0,0,128920,75595,9004,29788,10660,14731,1057,2213,Tag0,unknown
1605702922238,200,135,2.96630859375E-5,0,0,0,925064,285245,16749670,16774606,142157,91877,16797,5952,Tag0,unknown
1605702922266,200,167,3.6694335937500004E-5,0,0,0,925064,285245,16749670,16774606,142157,91877,16797,5952,Tag0,unknown
1605702922284,200,441,9.689941406250001E-5,0,0,0,925064,285245,16749670,16774606,142157,91877,16797,5952,Tag0,unknown
1605702922301,200,531,1.1667480468750001E-4,0,0,0,925064,285245,16749670,16774606,142157,91877,16797,5952,Tag0,unknown
1605702922318,200,-69,-1.51611328125E-5,0,0,0,925064,285245,16749670,16774606,142157,91877,16797,5952,Tag0,unknown
1605702922353,200,-552,-1.212890625E-4,0,0,0,925064,285245,16749670,16774606,142157,91877,16797,5952,Tag0,unknown
1605702922368,200,-362,-7.954101562500001E-5,0,0,0,925064,285245,16749670,16774606,142157,91877,16797,5952,Tag0,unknown
1605702922389,200,289,6.35009765625E-5,0,0,0,925064,285245,16749670,16774606,142157,91877,16797,5952,Tag0,unknown
1605702922401,200,-21,-4.614257812500001E-6,0,0,0,925064,285245,16749670,16774606,142157,91877,16797,5952,Tag0,unknown
1605702922423,200,203,4.460449218750001E-5,0,0,0,925064,285245,16749670,16774606,142157,91877,16797,5952,Tag0,unknown
1605702922434,200,109,2.39501953125E-5,0,0,0,925064,285245,16749670,16774606,142157,91877,16797,5952,Tag0,unknown
1605702922501,200,-194,-4.2626953125E-5,0,0,0,925064,285245,16749670,16774606,142157,91877,16797,5952,Tag0,unknown
1605702922520,200,-386,-8.481445312500001E-5,0,0,0,925064,285245,16749670,16774606,142157,91877,16797,5952,Tag0,unknown
1605702922639,200,295,6.48193359375E-5,0,0,0,925064,285245,16749670,16774606,142157,91877,16797,5952,Tag0,unknown
1605702922664,200,244,5.361328125E-5,0,0,0,925064,285245,16749670,16774606,142157,91877,16797,5952,Tag0,unknown
1605702922674,200,365,8.02001953125E-5,0,0,0,925064,285245,16749670,16774606,142157,91877,16797,5952,Tag0,unknown
1605702922684,200,53,1.1645507812500002E-5,0,0,0,925064,285245,16749670,16774606,142157,91877,16797,5952,Tag0,unknown
1605702922706,200,-135,-2.96630859375E-5,0,0,0,925064,285245,16749670,16774606,142157,91877,16797,5952,Tag0,unknown
1605702922719,200,-267,-5.86669921875E-5,0,0,0,925064,285245,16749670,16774606,142157,91877,16797,5952,Tag0,unknown
1605702922845,200,-571,-1.254638671875E-4,0,0,0,925064,285245,16749670,16774606,142157,91877,16797,5952,Tag0,unknown
1605702922866,200,-147,-3.22998046875E-5,0,0,0,925064,285245,16749670,16774606,142157,91877,16797,5952,Tag0,unknown
1605702922876,200,-217,-4.76806640625E-5,0,0,0,925064,285245,16749670,16774606,142157,91877,16797,5952,Tag0,unknown
1605702922886,200,-689,-1.513916015625E-4,0,0,0,925064,285245,16749670,16774606,142157,91877,16797,5952,Tag0,unknown
1605702922915,200,-267,-5.86669921875E-5,0,0,0,925064,285245,16749670,16774606,142157,91877,16797,5952,Tag0,unknown
1605702922925,200,341,7.492675781250002E-5,0,0,0,925064,285245,16749670,16774606,142157,91877,16797,5952,Tag0,unknown
1605702922981,200,-16,-3.515625E-6,0,0,0,925064,285245,16749670,16774606,142157,91877,16797,5952,Tag0,unknown
1605702922991,200,-364,-7.998046875E-5,0,0,0,925064,285245,16749670,16774606,142157,91877,16797,5952,Tag0,unknown
1605702923049,200,-110,-2.4169921875E-5,0,0,0,925064,285245,16749670,16774606,142157,91877,16797,5952,Tag0,unknown
1605702923059,200,-259,-5.69091796875E-5,0,0,0,925064,285245,16749670,16774606,142157,91877,16797,5952,Tag0,unknown
1605702923071,200,67,1.4721679687500002E-5,0,0,0,925064,285245,16749670,16774606,142157,91877,16797,5952,Tag0,unknown
1605702923081,200,-533,-1.171142578125E-4,0,0,0,925064,285245,16749670,16774606,142157,91877,16797,5952,Tag0,unknown
1605702923091,200,26,5.712890625E-6,0,0,0,925064,285245,16749670,16774606,142157,91877,16797,5952,Tag0,unknown
1605702923102,200,91,1.99951171875E-5,0,0,0,925064,285245,16749670,16774606,142157,91877,16797,5952,Tag0,unknown
1605702923112,200,-108,-2.3730468750000002E-5,0,0,0,925064,285245,16749670,16774606,142157,91877,16797,5952,Tag0,unknown
1605702923122,200,-277,-6.0864257812500005E-5,0,0,0,925064,285245,16749670,16774606,142157,91877,16797,5952,Tag0,unknown
1605702923153,200,-93,-2.04345703125E-5,0,0,0,925064,285245,16749670,16774606,142157,91877,16797,5952,Tag0,unknown
1605702923170,200,-110,-2.4169921875E-5,0,0,0,925064,285245,16749670,16774606,142157,91877,16797,5952,Tag0,unknown
1605702923186,200,-101,-2.2192382812500002E-5,0,0,0,925064,285245,16749670,16774606,142157,91877,16797,5952,Tag0,unknown
1605702923208,200,121,2.6586914062500003E-5,0,0,0,925064,285245,16749670,16774606,142157,91877,16797,5952,Tag0,unknown
1605702923242,200,-42,-9.228515625000002E-6,0,0,0,925064,285245,16749670,16774606,142157,91877,16797,5952,Tag0,unknown
1605702923253,200,96,2.109375E-5,0,0,0,925064,285245,16749670,16774606,142157,91877,16797,5952,Tag0,unknown
1605702923263,200,325,7.14111328125E-5,0,0,0,971190,87837,31467,16746079,15651,16754632,23359,973,Tag0,unknown
1605702923286,200,96,2.109375E-5,0,0,0,971190,87837,31467,16746079,15651,16754632,23359,973,Tag0,unknown
1605702923321,200,5,1.0986328125E-6,0,0,0,971190,87837,31467,16746079,15651,16754632,23359,973,Tag0,unknown
1605702923338,200,-29,-6.3720703125E-6,0,0,0,971190,87837,31467,16746079,15651,16754632,23359,973,Tag0,unknown
1605702923348,200,51,1.1206054687499999E-5,0,0,0,971190,87837,31467,16746079,15651,16754632,23359,973,Tag0,unknown
1605702923362,200,70,1.5380859375E-5,0,0,0,971190,87837,31467,16746079,15651,16754632,23359,973,Tag0,unknown
1605702923372,200,261,5.73486328125E-5,0,0,0,971190,87837,31467,16746079,15651,16754632,23359,973,Tag0,unknown
1605702923403,200,121,2.6586914062500003E-5,0,0,0,971190,87837,31467,16746079,15651,16754632,23359,973,Tag0,unknown
1605702923421,200,97,2.13134765625E-5,0,0,0,971190,87837,31467,16746079,15651,16754632,23359,973,Tag0,unknown
1605702923446,200,120,2.63671875E-5,0,0,0,971190,87837,31467,16746079,15651,16754632,23359,973,Tag0,unknown
1605702923458,200,-41,-9.008789062499999E-6,0,0,0,971190,87837,31467,16746079,15651,16754632,23359,973,Tag0,unknown
1605702923481,200,115,2.52685546875E-5,0,0,0,971190,87837,31467,16746079,15651,16754632,23359,973,Tag0,unknown
1605702923491,200,-60,-1.318359375E-5,0,0,0,971190,87837,31467,16746079,15651,16754632,23359,973,Tag0,unknown
1605702923515,200,343,7.53662109375E-5,0,0,0,971190,87837,31467,16746079,15651,16754632,23359,973,Tag0,unknown
1605702923525,200,-6,-1.318359375E-6,0,0,0,971190,87837,31467,16746079,15651,16754632,23359,973,Tag0,unknown
1605702923563,200,16,3.515625E-6,0,0,0,971190,87837,31467,16746079,15651,16754632,23359,973,Tag0,unknown
1605702923573,200,96,2.109375E-5,0,0,0,971190,87837,31467,16746079,15651,16754632,23359,973,Tag0,unknown
1605702923601,200,-357,-7.844238281250001E-5,0,0,0,971190,87837,31467,16746079,15651,16754632,23359,973,Tag0,unknown
1605702923621,200,105,2.30712890625E-5,0,0,0,971190,87837,31467,16746079,15651,16754632,23359,973,Tag0,unknown
1605702923637,200,-294,-6.4599609375E-5,0,0,0,971190,87837,31467,16746079,15651,16754632,23359,973,Tag0,unknown
1605702923654,200,-168,-3.691406250000001E-5,0,0,0,971190,87837,31467,16746079,15651,16754632,23359,973,Tag0,unknown
1605702923683,200,116,2.548828125E-5,0,0,0,971190,87837,31467,16746079,15651,16754632,23359,973,Tag0,unknown
1605702923704,200,23,5.0537109375E-6,0,0,0,971190,87837,31467,16746079,15651,16754632,23359,973,Tag0,unknown
1605702923725,200,266,5.8447265625E-5,0,0,0,971190,87837,31467,16746079,15651,16754632,23359,973,Tag0,unknown
1605702923739,200,105,2.30712890625E-5,0,0,0,971190,87837,31467,16746079,15651,16754632,23359,973,Tag0,unknown
1605702923766,200,-79,-1.7358398437500003E-5,0,0,0,971190,87837,31467,16746079,15651,16754632,23359,973,Tag0,unknown
1605702923776,200,19,4.1748046875E-6,0,0,0,971190,87837,31467,16746079,15651,16754632,23359,973,Tag0,unknown
1605702923801,200,22,4.833984375E-6,0,0,0,971190,87837,31467,16746079,15651,16754632,23359,973,Tag0,unknown
1605702923811,200,-357,-7.844238281250001E-5,0,0,0,971190,87837,31467,16746079,15651,16754632,23359,973,Tag0,unknown
1605702923835,200,4,8.7890625E-7,0,0,0,971190,87837,31467,16746079,15651,16754632,23359,973,Tag0,unknown
1605702923857,200,88,1.93359375E-5,0,0,0,971190,87837,31467,16746079,15651,16754632,23359,973,Tag0,unknown
1605702923867,200,84,1.8457031250000004E-5,0,0,0,971190,87837,31467,16746079,15651,16754632,23359,973,Tag0,unknown
1605702923877,200,43,9.448242187500001E-6,0,0,0,971190,87837,31467,16746079,15651,16754632,23359,973,Tag0,unknown
1605702923890,200,-382,-8.3935546875E-5,0,0,0,971190,87837,31467,16746079,15651,16754632,23359,973,Tag0,unknown
1605702923900,200,-146,-3.2080078125000004E-5,0,0,0,971190,87837,31467,16746079,15651,16754632,23359,973,Tag0,unknown
1605702923917,200,-354,-7.778320312500001E-5,0,0,0,971190,87837,31467,16746079,15651,16754632,23359,973,Tag0,unknown
1605702923956,200,-371,-8.151855468750001E-5,0,0,0,971190,87837,31467,16746079,15651,16754632,23359,973,Tag0,unknown
1605702923971,200,-117,-2.5708007812499998E-5,0,0,0,971190,87837,31467,16746079,15651,16754632,23359,973,Tag0,unknown
1605702923994,200,-52,-1.142578125E-5,0,0,0,971190,87837,31467,16746079,15651,16754632,23359,973,Tag0,unknown
1605702924015,200,-109,-2.39501953125E-5,0,0,0,971190,87837,31467,16746079,15651,16754632,23359,973,Tag0,unknown
1605702924031,200,-27,-5.9326171875000005E-6,0,0,0,971190,87837,31467,16746079,15651,16754632,23359,973,Tag0,unknown
1605702924041,200,114,2.5048828125000003E-5,0,0,0,971190,87837,31467,16746079,15651,16754632,23359,973,Tag0,unknown
1605702924068,200,36,7.91015625E-6,0,0,0,971190,87837,31467,16746079,15651,16754632,23359,973,Tag0,unknown
1605702924102,200,-92,-2.021484375E-5,0,0,0,971190,87837,31467,16746079,15651,16754632,23359,973,Tag0,unknown
1605702924122,200,-322,-7.0751953125E-5,0,0,0,971190,87837,31467,16746079,15651,16754632,23359,973,Tag0,unknown
1605702924139,200,-24,-5.2734375E-6,0,0,0,971190,87837,31467,16746079,15651,16754632,23359,973,Tag0,unknown
1605702924163,200,-15,-3.2958984375E-6,0,0,0,971190,87837,31467,16746079,15651,16754632,23359,973,Tag0,unknown
1605702924175,200,-370,-8.1298828125E-5,0,0,0,971190,87837,31467,16746079,15651,16754632,23359,973,Tag0,unknown
1605702924192,200,-1139,-2.5026855468750003E-4,0,0,0,971190,87837,31467,16746079,15651,16754632,23359,973,Tag0,unknown
1605702924208,200,-391,-8.591308593750001E-5,0,0,0,971190,87837,31467,16746079,15651,16754632,23359,973,Tag0,unknown
1605702924218,200,-413,-9.07470703125E-5,0,0,0,971190,87837,31467,16746079,15651,16754632,23359,973,Tag0,unknown
1605702924230,200,-871,-1.9138183593749998E-4,0,0,0,73915,16754380,13496,9216,16525,7729,2310,706,Tag0,unknown
1605702924262,200,-1236,-2.7158203125E-4,0,0,0,73915,16754380,13496,9216,16525,7729,2310,706,Tag0,unknown
1605702924278,200,-1187,-2.608154296875E-4,0,0,0,73915,16754380,13496,9216,16525,7729,2310,706,Tag0,unknown
1605702924295,200,-1093,-2.401611328125E-4,0,0,0,73915,16754380,13496,9216,16525,7729,2310,706,Tag0,unknown
1605702924309,200,-750,-1.64794921875E-4,0,0,0,73915,16754380,13496,9216,16525,7729,2310,706,Tag0,unknown
1605702924328,200,-771,-1.694091796875E-4,0,0,0,73915,16754380,13496,9216,16525,7729,2310,706,Tag0,unknown
1605702924340,200,-452,-9.931640625E-5,0,0,0,73915,16754380,13496,9216,16525,7729,2310,706,Tag0,unknown
1605702924362,200,1791,3.935302734375E-4,0,0,0,73915,16754380,13496,9216,16525,7729,2310,706,Tag0,unknown
1605702924372,200,1791,3.935302734375E-4,0,0,0,73915,16754380,13496,9216,16525,7729,2310,706,Tag0,unknown
1605702924396,200,1791,3.935302734375E-4,0,0,0,73915,16754380,13496,9216,16525,7729,2310,706,Tag0,unknown
1605702924406,200,1791,3.935302734375E-4,0,0,0,73915,16754380,13496,9216,16525,7729,2310,706,Tag0,unknown
1605702924430,200,923,2.028076171875E-4,0,0,0,73915,16754380,13496,9216,16525,7729,2310,706,Tag0,unknown
1605702924456,200,871,1.9138183593749998E-4,0,0,0,73915,16754380,13496,9216,16525,7729,2310,706,Tag0,unknown
1605702924473,200,592,1.30078125E-4,0,0,0,73915,16754380,13496,9216,16525,7729,2310,706,Tag0,unknown
1605702924506,200,762,1.6743164062500002E-4,0,0,0,73915,16754380,13496,9216,16525,7729,2310,706,Tag0,unknown
1605702924523,200,653,1.434814453125E-4,0,0,0,73915,16754380,13496,9216,16525,7729,2310,706,Tag0,unknown
1605702924540,200,1065,2.340087890625E-4,0,0,0,73915,16754380,13496,9216,16525,7729,2310,706,Tag0,unknown
1605702924550,200,249,5.47119140625E-5,0,0,0,73915,16754380,13496,9216,16525,7729,2310,706,Tag0,unknown
1605702924570,200,152,3.33984375E-5,0,0,0,73915,16754380,13496,9216,16525,7729,2310,706,Tag0,unknown
1605702924591,200,-7,-1.5380859375E-6,0,0,0,73915,16754380,13496,9216,16525,7729,2310,706,Tag0,unknown
1605702924608,200,-1729,-3.799072265625E-4,0,0,0,73915,16754380,13496,9216,16525,7729,2310,706,Tag0,unknown
1605702924618,200,-1027,-2.2565917968750003E-4,0,0,0,73915,16754380,13496,9216,16525,7729,2310,706,Tag0,unknown
1605702924640,200,-778,-1.70947265625E-4,0,0,0,73915,16754380,13496,9216,16525,7729,2310,706,Tag0,unknown
1605702924658,200,-660,-1.4501953125E-4,0,0,0,73915,16754380,13496,9216,16525,7729,2310,706,Tag0,unknown
1605702924676,200,-150,-3.2958984375E-5,0,0,0,73915,16754380,13496,9216,16525,7729,2310,706,Tag0,unknown
1605702924691,200,8,1.7578125E-6,0,0,0,73915,16754380,13496,9216,16525,7729,2310,706,Tag0,unknown
1605702924701,200,322,7.0751953125E-5,0,0,0,73915,16754380,13496,9216,16525,7729,2310,706,Tag0,unknown
1605702924714,200,451,9.909667968750001E-5,0,0,0,73915,16754380,13496,9216,16525,7729,2310,706,Tag0,unknown
1605702924724,200,496,1.08984375E-4,0,0,0,73915,16754380,13496,9216,16525,7729,2310,706,Tag0,unknown
1605702924749,200,824,1.810546875E-4,0,0,0,73915,16754380,13496,9216,16525,7729,2310,706,Tag0,unknown
1605702924759,200,813,1.786376953125E-4,0,0,0,73915,16754380,13496,9216,16525,7729,2310,706,Tag0,unknown
1605702924787,200,278,6.108398437500001E-5,0,0,0,73915,16754380,13496,9216,16525,7729,2310,706,Tag0,unknown
1605702924806,200,363,7.97607421875E-5,0,0,0,73915,16754380,13496,9216,16525,7729,2310,706,Tag0,unknown
1605702924824,200,-292,-6.416015625000001E-5,0,0,0,73915,16754380,13496,9216,16525,7729,2310,706,Tag0,unknown
1605702924841,200,-375,-8.23974609375E-5,0,0,0,73915,16754380,13496,9216,16525,7729,2310,706,Tag0,unknown
1605702924859,200,18,3.955078125E-6,0,0,0,73915,16754380,13496,9216,16525,7729,2310,706,Tag0,unknown
1605702924891,200,-186,-4.0869140625E-5,0,0,0,73915,16754380,13496,9216,16525,7729,2310,706,Tag0,unknown
1605702924907,200,-516,-1.1337890625000001E-4,0,0,0,73915,16754380,13496,9216,16525,7729,2310,706,Tag0,unknown
1605702924936,200,-354,-7.778320312500001E-5,0,0,0,73915,16754380,13496,9216,16525,7729,2310,706,Tag0,unknown
1605702924971,200,-364,-7.998046875E-5,0,0,0,73915,16754380,13496,9216,16525,7729,2310,706,Tag0,unknown
1605702924992,200,-140,-3.076171875E-5,0,0,0,73915,16754380,13496,9216,16525,7729,2310,706,Tag0,unknown
1605702925002,200,-314,-6.8994140625E-5,0,0,0,73915,16754380,13496,9216,16525,7729,2310,706,Tag0,unknown
1605702925012,200,-139,-3.0541992187500004E-5,0,0,0,73915,16754380,13496,9216,16525,7729,2310,706,Tag0,unknown
1605702925022,200,57,1.2524414062500001E-5,0,0,0,73915,16754380,13496,9216,16525,7729,2310,706,Tag0,unknown
1605702925040,200,-158,-3.4716796875000005E-5,0,0,0,73915,16754380,13496,9216,16525,7729,2310,706,Tag0,unknown
1605702925057,200,-186,-4.0869140625E-5,0,0,0,73915,16754380,13496,9216,16525,7729,2310,706,Tag0,unknown
1605702925067,200,-261,-5.73486328125E-5,0,0,0,73915,16754380,13496,9216,16525,7729,2310,706,Tag0,unknown
1605702925081,200,-188,-4.1308593750000004E-5,0,0,0,73915,16754380,13496,9216,16525,7729,2310,706,Tag0,unknown
1605702925093,200,48,1.0546875E-5,0,0,0,73915,16754380,13496,9216,16525,7729,2310,706,Tag0,unknown
1605702925116,200,-177,-3.8891601562500006E-5,0,0,0,73915,16754380,13496,9216,16525,7729,2310,706,Tag0,unknown
1605702925126,200,-327,-7.18505859375E-5,0,0,0,73915,16754380,13496,9216,16525,7729,2310,706,Tag0,unknown
1605702925150,200,-264,-5.80078125E-5,0,0,0,73915,16754380,13496,9216,16525,7729,2310,706,Tag0,unknown
1605702925166,200,-309,-6.78955078125E-5,0,0,0,73915,16754380,13496,9216,16525,7729,2310,706,Tag0,unknown
1605702925185,200,113,2.48291015625E-5,0,0,0,73915,16754380,13496,9216,16525,7729,2310,706,Tag0,unknown
1605702925199,200,75,1.64794921875E-5,0,0,0,73915,16754380,13496,9216,16525,7729,2310,706,Tag0,unknown
1605702925209,200,51,1.1206054687499999E-5,0,0,0,73915,16754380,13496,9216,16525,7729,2310,706,Tag0,unknown
1605702925246,200,-121,-2.6586914062500003E-5,0,0,0,1971980,67561,24518,16746616,7108,24220,2830,3481,Tag0,unknown
1605702925263,200,-110,-2.4169921875E-5,0,0,0,1971980,67561,24518,16746616,7108,24220,2830,3481,Tag0,unknown
1605702925275,200,-68,-1.4941406250000001E-5,0,0,0,1971980,67561,24518,16746616,7108,24220,2830,3481,Tag0,unknown
1605702925297,200,9,1.9775390625E-6,0,0,0,1971980,67561,24518,16746616,7108,24220,2830,3481,Tag0,unknown
1605702925309,200,-307,-6.74560546875E-5,0,0,0,1971980,67561,24518,16746616,7108,24220,2830,3481,Tag0,unknown
1605702925319,200,-869,-1.909423828125E-4,0,0,0,1971980,67561,24518,16746616,7108,24220,2830,3481,Tag0,unknown
1605702925334,200,-813,-1.786376953125E-4,0,0,0,1971980,67561,24518,16746616,7108,24220,2830,3481,Tag0,unknown
1605702925344,200,-398,-8.745117187499999E-5,0,0,0,1971980,67561,24518,16746616,7108,24220,2830,3481,Tag0,unknown
1605702925368,200,-248,-5.44921875E-5,0,0,0,1971980,67561,24518,16746616,7108,24220,2830,3481,Tag0,unknown
1605702925378,200,-337,-7.40478515625E-5,0,0,0,1971980,67561,24518,16746616,7108,24220,2830,3481,Tag0,unknown
1605702925409,200,370,8.1298828125E-5,0,0,0,1971980,67561,24518,16746616,7108,24220,2830,3481,Tag0,unknown
1605702925427,200,259,5.69091796875E-5,0,0,0,1971980,67561,24518,16746616,7108,24220,2830,3481,Tag0,unknown
1605702925443,200,157,3.44970703125E-5,0,0,0,1971980,67561,24518,16746616,7108,24220,2830,3481,Tag0,unknown
1605702925460,200,246,5.4052734375E-5,0,0,0,1971980,67561,24518,16746616,7108,24220,2830,3481,Tag0,unknown
1605702925474,200,1591,3.4958496093750004E-4,0,0,0,1971980,67561,24518,16746616,7108,24220,2830,3481,Tag0,unknown
1605702925484,200,1226,2.6938476562500004E-4,0,0,0,1971980,67561,24518,16746616,7108,24220,2830,3481,Tag0,unknown
1605702925498,200,1175,2.581787109375E-4,0,0,0,1971980,67561,24518,16746616,7108,24220,2830,3481,Tag0,unknown
1605702925519,200,-1105,-2.427978515625E-4,0,0,0,1971980,67561,24518,16746616,7108,24220,2830,3481,Tag0,unknown
1605702925529,200,-2048,-4.5E-4,0,0,0,1971980,67561,24518,16746616,7108,24220,2830,3481,Tag0,unknown
1605702925539,200,-2048,-4.5E-4,0,0,0,1971980,67561,24518,16746616,7108,24220,2830,3481,Tag0,unknown
1605702925556,200,-1957,-4.3000488281249997E-4,0,0,0,1971980,67561,24518,16746616,7108,24220,2830,3481,Tag0,unknown
1605702925566,200,-1914,-4.2055664062500003E-4,0,0,0,1971980,67561,24518,16746616,7108,24220,2830,3481,Tag0,unknown
1605702925593,200,-1842,-4.04736328125E-4,0,0,0,1971980,67561,24518,16746616,7108,24220,2830,3481,Tag0,unknown
1605702925614,200,-1475,-3.240966796875E-4,0,0,0,1971980,67561,24518,16746616,7108,24220,2830,3481,Tag0,unknown
1605702925624,200,-693,-1.522705078125E-4,0,0,0,1971980,67561,24518,16746616,7108,24220,2830,3481,Tag0,unknown
1605702925635,200,-843,-1.852294921875E-4,0,0,0,1971980,67561,24518,16746616,7108,24220,2830,3481,Tag0,unknown
1605702925662,200,-413,-9.07470703125E-5,0,0,0,1971980,67561,24518,16746616,7108,24220,2830,3481,Tag0,unknown
1605702925677,200,-633,-1.3908691406250002E-4,0,0,0,1971980,67561,24518,16746616,7108,24220,2830,3481,Tag0,unknown
1605702925688,200,-541,-1.1887207031250001E-4,0,0,0,1971980,67561,24518,16746616,7108,24220,2830,3481,Tag0,unknown
1605702925702,200,-359,-7.88818359375E-5,0,0,0,1971980,67561,24518,16746616,7108,24220,2830,3481,Tag0,unknown
1605702925712,200,16,3.515625E-6,0,0,0,1971980,67561,24518,16746616,7108,24220,2830,3481,Tag0,unknown
1605702925740,200,108,2.3730468750000002E-5,0,0,0,1971980,67561,24518,16746616,7108,24220,2830,3481,Tag0,unknown
1605702925750,200,-24,-5.2734375E-6,0,0,0,1971980,67561,24518,16746616,7108,24220,2830,3481,Tag0,unknown
1605702925760,200,300,6.591796875E-5,0,0,0,1971980,67561,24518,16746616,7108,24220,2830,3481,Tag0,unknown
1605702925778,200,445,9.77783203125E-5,0,0,0,1971980,67561,24518,16746616,7108,24220,2830,3481,Tag0,unknown
1605702925804,200,787,1.729248046875E-4,0,0,0,1971980,67561,24518,16746616,7108,24220,2830,3481,Tag0,unknown
1605702925814,200,661,1.452392578125E-4,0,0,0,1971980,67561,24518,16746616,7108,24220,2830,3481,Tag0,unknown
1605702925828,200,776,1.705078125E-4,0,0,0,1971980,67561,24518,16746616,7108,24220,2830,3481,Tag0,unknown
1605702925848,200,230,5.0537109375E-5,0,0,0,1971980,67561,24518,16746616,7108,24220,2830,3481,Tag0,unknown
1605702925861,200,219,4.81201171875E-5,0,0,0,1971980,67561,24518,16746616,7108,24220,2830,3481,Tag0,unknown
1605702925886,200,227,4.98779296875E-5,0,0,0,1971980,67561,24518,16746616,7108,24220,2830,3481,Tag0,unknown
1605702925896,200,520,1.142578125E-4,0,0,0,1971980,67561,24518,16746616,7108,24220,2830,3481,Tag0,unknown
1605702925906,200,251,5.5151367187500004E-5,0,0,0,1971980,67561,24518,16746616,7108,24220,2830,3481,Tag0,unknown
1605702925922,200,202,4.4384765625000004E-5,0,0,0,1971980,67561,24518,16746616,7108,24220,2830,3481,Tag0,unknown
1605702925932,200,516,1.1337890625000001E-4,0,0,0,1971980,67561,24518,16746616,7108,24220,2830,3481,Tag0,unknown
1605702925957,200,545,1.197509765625E-4,0,0,0,1971980,67561,24518,16746616,7108,24220,2830,3481,Tag0,unknown
1605702925967,200,836,1.8369140625E-4,0,0,0,1971980,67561,24518,16746616,7108,24220,2830,3481,Tag0,unknown
1605702925977,200,592,1.30078125E-4,0,0,0,1971980,67561,24518,16746616,7108,24220,2830,3481,Tag0,unknown
1605702925992,200,250,5.4931640625E-5,0,0,0,1971980,67561,24518,16746616,7108,24220,2830,3481,Tag0,unknown
1605702926013,200,378,8.3056640625E-5,0,0,0,1971980,67561,24518,16746616,7108,24220,2830,3481,Tag0,unknown
1605702926031,200,158,3.4716796875000005E-5,0,0,0,1971980,67561,24518,16746616,7108,24220,2830,3481,Tag0,unknown
1605702926047,200,389,8.54736328125E-5,0,0,0,1971980,67561,24518,16746616,7108,24220,2830,3481,Tag0,unknown
1605702926057,200,365,8.02001953125E-5,0,0,0,1971980,67561,24518,16746616,7108,24220,2830,3481,Tag0,unknown
1605702926070,200,263,5.7788085937500005E-5,0,0,0,1971980,67561,24518,16746616,7108,24220,2830,3481,Tag0,unknown
1605702926081,200,87,1.91162109375E-5,0,0,0,1971980,67561,24518,16746616,7108,24220,2830,3481,Tag0,unknown
1605702926108,200,134,2.9443359375000003E-5,0,0,0,1971980,67561,24518,16746616,7108,24220,2830,3481,Tag0,unknown
1605702926118,200,145,3.18603515625E-5,0,0,0,1971980,67561,24518,16746616,7108,24220,2830,3481,Tag0,unknown
1605702926128,200,-111,-2.43896484375E-5,0,0,0,1971980,67561,24518,16746616,7108,24220,2830,3481,Tag0,unknown
1605702926146,200,51,1.1206054687499999E-5,0,0,0,1971980,67561,24518,16746616,7108,24220,2830,3481,Tag0,unknown
1605702926174,200,-128,-2.8125E-5,0,0,0,1971980,67561,24518,16746616,7108,24220,2830,3481,Tag0,unknown
1605702926184,200,-93,-2.04345703125E-5,0,0,0,1971980,67561,24518,16746616,7108,24220,2830,3481,Tag0,unknown
1605702926194,200,-325,-7.14111328125E-5,0,0,0,1971980,67561,24518,16746616,7108,24220,2830,3481,Tag0,unknown
1605702926213,200,-343,-7.53662109375E-5,0,0,0,1971980,67561,24518,16746616,7108,24220,2830,3481,Tag0,unknown
1605702926235,200,119,2.6147460937500004E-5,0,0,0,1971980,67561,24518,16746616,7108,24220,2830,3481,Tag0,unknown
1605702926248,200,53,1.1645507812500002E-5,0,0,0,738602,157757,14485,22303,19494,26763,20373,3808,Tag0,unknown
1605702926258,200,-327,-7.18505859375E-5,0,0,0,738602,157757,14485,22303,19494,26763,20373,3808,Tag0,unknown
1605702926285,200,-275,-6.04248046875E-5,0,0,0,738602,157757,14485,22303,19494,26763,20373,3808,Tag0,unknown
1605702926297,200,-267,-5.86669921875E-5,0,0,0,738602,157757,14485,22303,19494,26763,20373,3808,Tag0,unknown
1605702926323,200,-28,-6.15234375E-6,0,0,0,738602,157757,14485,22303,19494,26763,20373,3808,Tag0,unknown
1605702926333,200,-338,-7.426757812499999E-5,0,0,0,738602,157757,14485,22303,19494,26763,20373,3808,Tag0,unknown
1605702926357,200,-126,-2.7685546875E-5,0,0,0,738602,157757,14485,22303,19494,26763,20373,3808,Tag0,unknown
1605702926367,200,-115,-2.52685546875E-5,0,0,0,738602,157757,14485,22303,19494,26763,20373,3808,Tag0,unknown
1605702926397,200,-314,-6.8994140625E-5,0,0,0,738602,157757,14485,22303,19494,26763,20373,3808,Tag0,unknown
1605702926414,200,-306,-6.723632812500001E-5,0,0,0,738602,157757,14485,22303,19494,26763,20373,3808,Tag0,unknown
1605702926432,200,106,2.3291015625000003E-5,0,0,0,738602,157757,14485,22303,19494,26763,20373,3808,Tag0,unknown
1605702926448,200,69,1.51611328125E-5,0,0,0,738602,157757,14485,22303,19494,26763,20373,3808,Tag0,unknown
1605702926458,200,-12,-2.63671875E-6,0,0,0,738602,157757,14485,22303,19494,26763,20373,3808,Tag0,unknown
1605702926477,200,115,2.52685546875E-5,0,0,0,738602,157757,14485,22303,19494,26763,20373,3808,Tag0,unknown
1605702926498,200,115,2.52685546875E-5,0,0,0,738602,157757,14485,22303,19494,26763,20373,3808,Tag0,unknown
1605702926508,200,162,3.5595703125E-5,0,0,0,738602,157757,14485,22303,19494,26763,20373,3808,Tag0,unknown
1605702926518,200,-102,-2.2412109374999998E-5,0,0,0,738602,157757,14485,22303,19494,26763,20373,3808,Tag0,unknown
1605702926531,200,377,8.28369140625E-5,0,0,0,738602,157757,14485,22303,19494,26763,20373,3808,Tag0,unknown
1605702926554,200,8,1.7578125E-6,0,0,0,738602,157757,14485,22303,19494,26763,20373,3808,Tag0,unknown
1605702926565,200,49,1.07666015625E-5,0,0,0,738602,157757,14485,22303,19494,26763,20373,3808,Tag0,unknown
1605702926575,200,51,1.1206054687499999E-5,0,0,0,738602,157757,14485,22303,19494,26763,20373,3808,Tag0,unknown
1605702926591,200,256,5.625E-5,0,0,0,738602,157757,14485,22303,19494,26763,20373,3808,Tag0,unknown
1605702926601,200,322,7.0751953125E-5,0,0,0,738602,157757,14485,22303,19494,26763,20373,3808,Tag0,unknown
1605702926633,200,-122,-2.6806640625E-5,0,0,0,738602,157757,14485,22303,19494,26763,20373,3808,Tag0,unknown
1605702926648,200,-99,-2.1752929687500003E-5,0,0,0,738602,157757,14485,22303,19494,26763,20373,3808,Tag0,unknown
1605702926667,200,-53,-1.1645507812500002E-5,0,0,0,738602,157757,14485,22303,19494,26763,20373,3808,Tag0,unknown
1605702926683,200,106,2.3291015625000003E-5,0,0,0,738602,157757,14485,22303,19494,26763,20373,3808,Tag0,unknown
1605702926701,200,86,1.8896484375000003E-5,0,0,0,738602,157757,14485,22303,19494,26763,20373,3808,Tag0,unknown
1605702926722,200,57,1.2524414062500001E-5,0,0,0,738602,157757,14485,22303,19494,26763,20373,3808,Tag0,unknown
1605702926732,200,-77,-1.69189453125E-5,0,0,0,738602,157757,14485,22303,19494,26763,20373,3808,Tag0,unknown
1605702926749,200,-54,-1.1865234375000001E-5,0,0,0,738602,157757,14485,22303,19494,26763,20373,3808,Tag0,unknown
1605702926773,200,7,1.5380859375E-6,0,0,0,738602,157757,14485,22303,19494,26763,20373,3808,Tag0,unknown
1605702926791,200,-370,-8.1298828125E-5,0,0,0,738602,157757,14485,22303,19494,26763,20373,3808,Tag0,unknown
1605702926809,200,-220,-4.833984375E-5,0,0,0,738602,157757,14485,22303,19494,26763,20373,3808,Tag0,unknown
1605702926822,200,0,0.0,0,0,0,738602,157757,14485,22303,19494,26763,20373,3808,Tag0,unknown
1605702926843,200,-178,-3.9111328125E-5,0,0,0,738602,157757,14485,22303,19494,26763,20373,3808,Tag0,unknown
1605702926853,200,53,1.1645507812500002E-5,0,0,0,738602,157757,14485,22303,19494,26763,20373,3808,Tag0,unknown
1605702926866,200,7,1.5380859375E-6,0,0,0,738602,157757,14485,22303,19494,26763,20373,3808,Tag0,unknown
1605702926890,200,112,2.4609375E-5,0,0,0,738602,157757,14485,22303,19494,26763,20373,3808,Tag0,unknown
1605702926905,200,8,1.7578125E-6,0,0,0,738602,157757,14485,22303,19494,26763,20373,3808,Tag0,unknown
1605702926915,200,25,5.4931640625E-6,0,0,0,738602,157757,14485,22303,19494,26763,20373,3808,Tag0,unknown
1605702926935,200,75,1.64794921875E-5,0,0,0,738602,157757,14485,22303,19494,26763,20373,3808,Tag0,unknown
1605702926950,200,-316,-6.943359375000001E-5,0,0,0,738602,157757,14485,22303,19494,26763,20373,3808,Tag0,unknown
1605702926971,200,-26,-5.712890625E-6,0,0,0,738602,157757,14485,22303,19494,26763,20373,3808,Tag0,unknown
1605702926984,200,-74,-1.6259765625E-5,0,0,0,738602,157757,14485,22303,19494,26763,20373,3808,Tag0,unknown
1605702927008,200,92,2.021484375E-5,0,0,0,738602,157757,14485,22303,19494,26763,20373,3808,Tag0,unknown
1605702927018,200,-301,-6.613769531250001E-5,0,0,0,738602,157757,14485,22303,19494,26763,20373,3808,Tag0,unknown
1605702927042,200,-274,-6.0205078124999997E-5,0,0,0,738602,157757,14485,22303,19494,26763,20373,3808,Tag0,unknown
1605702927052,200,-356,-7.822265625E-5,0,0,0,738602,157757,14485,22303,19494,26763,20373,3808,Tag0,unknown
1605702927082,200,-267,-5.86669921875E-5,0,0,0,738602,157757,14485,22303,19494,26763,20373,3808,Tag0,unknown
1605702927101,200,-51,-1.1206054687499999E-5,0,0,0,738602,157757,14485,22303,19494,26763,20373,3808,Tag0,unknown
1605702927118,200,-177,-3.8891601562500006E-5,0,0,0,738602,157757,14485,22303,19494,26763,20373,3808,Tag0,unknown
1605702927146,200,114,2.5048828125000003E-5,0,0,0,738602,157757,14485,22303,19494,26763,20373,3808,Tag0,unknown
1605702927166,200,-339,-7.448730468750001E-5,0,0,0,738602,157757,14485,22303,19494,26763,20373,3808,Tag0,unknown
1605702927190,200,-74,-1.6259765625E-5,0,0,0,738602,157757,14485,22303,19494,26763,20373,3808,Tag0,unknown
1605702927201,200,3,6.591796875E-7,0,0,0,738602,157757,14485,22303,19494,26763,20373,3808,Tag0,unknown
1605702927234,200,89,1.95556640625E-5,0,0,0,1044514,349917,41518,18511,23677,22918,12775,6586,Tag0,unknown
1605702927253,200,-379,-8.32763671875E-5,0,0,0,1044514,349917,41518,18511,23677,22918,12775,6586,Tag0,unknown
1605702927263,200,39,8.5693359375E-6,0,0,0,1044514,349917,41518,18511,23677,22918,12775,6586,Tag0,unknown
1605702927273,200,-120,-2.63671875E-5,0,0,0,1044514,349917,41518,18511,23677,22918,12775,6586,Tag0,unknown
1605702927286,200,-63,-1.38427734375E-5,0,0,0,1044514,349917,41518,18511,23677,22918,12775,6586,Tag0,unknown
1605702927296,200,-259,-5.69091796875E-5,0,0,0,1044514,349917,41518,18511,23677,22918,12775,6586,Tag0,unknown
1605702927316,200,4,8.7890625E-7,0,0,0,1044514,349917,41518,18511,23677,22918,12775,6586,Tag0,unknown
1605702927335,200,117,2.5708007812499998E-5,0,0,0,1044514,349917,41518,18511,23677,22918,12775,6586,Tag0,unknown
1605702927353,200,-137,-3.0102539062499998E-5,0,0,0,1044514,349917,41518,18511,23677,22918,12775,6586,Tag0,unknown
1605702927363,200,6,1.318359375E-6,0,0,0,1044514,349917,41518,18511,23677,22918,12775,6586,Tag0,unknown
1605702927373,200,1,2.197265625E-7,0,0,0,1044514,349917,41518,18511,23677,22918,12775,6586,Tag0,unknown
1605702927387,200,-129,-2.8344726562500002E-5,0,0,0,1044514,349917,41518,18511,23677,22918,12775,6586,Tag0,unknown
1605702927404,200,55,1.20849609375E-5,0,0,0,1044514,349917,41518,18511,23677,22918,12775,6586,Tag0,unknown
1605702927430,200,28,6.15234375E-6,0,0,0,1044514,349917,41518,18511,23677,22918,12775,6586,Tag0,unknown
1605702927440,200,75,1.64794921875E-5,0,0,0,1044514,349917,41518,18511,23677,22918,12775,6586,Tag0,unknown
1605702927450,200,52,1.142578125E-5,0,0,0,1044514,349917,41518,18511,23677,22918,12775,6586,Tag0,unknown
1605702927505,200,36,7.91015625E-6,0,0,0,1044514,349917,41518,18511,23677,22918,12775,6586,Tag0,unknown
1605702927520,200,5,1.0986328125E-6,0,0,0,1044514,349917,41518,18511,23677,22918,12775,6586,Tag0,unknown
1605702927572,200,57,1.2524414062500001E-5,0,0,0,1044514,349917,41518,18511,23677,22918,12775,6586,Tag0,unknown
1605702927588,200,-203,-4.460449218750001E-5,0,0,0,1044514,349917,41518,18511,23677,22918,12775,6586,Tag0,unknown
1605702927711,200,90,1.9775390625E-5,0,0,0,1044514,349917,41518,18511,23677,22918,12775,6586,Tag0,unknown
1605702927728,200,-134,-2.9443359375000003E-5,0,0,0,1044514,349917,41518,18511,23677,22918,12775,6586,Tag0,unknown
1605702927738,200,27,5.9326171875000005E-6,0,0,0,1044514,349917,41518,18511,23677,22918,12775,6586,Tag0,unknown
1605702927778,200,-86,-1.8896484375000003E-5,0,0,0,1044514,349917,41518,18511,23677,22918,12775,6586,Tag0,unknown
1605702927788,200,-150,-3.2958984375E-5,0,0,0,1044514,349917,41518,18511,23677,22918,12775,6586,Tag0,unknown
1605702927847,200,101,2.2192382812500002E-5,0,0,0,1044514,349917,41518,18511,23677,22918,12775,6586,Tag0,unknown
1605702927857,200,-277,-6.0864257812500005E-5,0,0,0,1044514,349917,41518,18511,23677,22918,12775,6586,Tag0,unknown
1605702927914,200,83,1.82373046875E-5,0,0,0,1044514,349917,41518,18511,23677,22918,12775,6586,Tag0,unknown
1605702927924,200,-275,-6.04248046875E-5,0,0,0,1044514,349917,41518,18511,23677,22918,12775,6586,Tag0,unknown
1605702927983,200,32,7.03125E-6,0,0,0,1044514,349917,41518,18511,23677,22918,12775,6586,Tag0,unknown
1605702927993,200,-16,-3.515625E-6,0,0,0,1044514,349917,41518,18511,23677,22918,12775,6586,Tag0,unknown
1605702928085,200,10,2.197265625E-6,0,0,0,1044514,349917,41518,18511,23677,22918,12775,6586,Tag0,unknown
1605702928108,200,-116,-2.548828125E-5,0,0,0,1044514,349917,41518,18511,23677,22918,12775,6586,Tag0,unknown
1605702928118,200,264,5.80078125E-5,0,0,0,1044514,349917,41518,18511,23677,22918,12775,6586,Tag0,unknown
1605702928128,200,-135,-2.96630859375E-5,0,0,0,1044514,349917,41518,18511,23677,22918,12775,6586,Tag0,unknown
1605702928138,200,16,3.515625E-6,0,0,0,1044514,349917,41518,18511,23677,22918,12775,6586,Tag0,unknown
1605702928148,200,108,2.3730468750000002E-5,0,0,0,1044514,349917,41518,18511,23677,22918,12775,6586,Tag0,unknown
1605702928159,200,-47,-1.0327148437500001E-5,0,0,0,1044514,349917,41518,18511,23677,22918,12775,6586,Tag0,unknown
1605702928173,200,23,5.0537109375E-6,0,0,0,1044514,349917,41518,18511,23677,22918,12775,6586,Tag0,unknown
1605702928183,200,-85,-1.86767578125E-5,0,0,0,1044514,349917,41518,18511,23677,22918,12775,6586,Tag0,unknown
1605702928193,200,101,2.2192382812500002E-5,0,0,0,1044514,349917,41518,18511,23677,22918,12775,6586,Tag0,unknown
1605702928205,200,-361,-7.93212890625E-5,0,0,0,1044514,349917,41518,18511,23677,22918,12775,6586,Tag0,unknown
1605702928221,200,-110,-2.4169921875E-5,0,0,0,1044514,349917,41518,18511,23677,22918,12775,6586,Tag0,unknown
1605702928242,200,-104,-2.28515625E-5,0,0,0,931237,201618,81552,26746,21914,21887,10480,8814,Tag0,unknown
1605702928288,200,50,1.0986328125E-5,0,0,0,931237,201618,81552,26746,21914,21887,10480,8814,Tag0,unknown
1605702928307,200,78,1.7138671875E-5,0,0,0,931237,201618,81552,26746,21914,21887,10480,8814,Tag0,unknown
1605702928317,200,119,2.6147460937500004E-5,0,0,0,931237,201618,81552,26746,21914,21887,10480,8814,Tag0,unknown
1605702928331,200,284,6.240234375E-5,0,0,0,931237,201618,81552,26746,21914,21887,10480,8814,Tag0,unknown
1605702928342,200,-69,-1.51611328125E-5,0,0,0,931237,201618,81552,26746,21914,21887,10480,8814,Tag0,unknown
1605702928362,200,3,6.591796875E-7,0,0,0,931237,201618,81552,26746,21914,21887,10480,8814,Tag0,unknown
1605702928375,200,-331,-7.272949218750001E-5,0,0,0,931237,201618,81552,26746,21914,21887,10480,8814,Tag0,unknown
1605702928396,200,91,1.99951171875E-5,0,0,0,931237,201618,81552,26746,21914,21887,10480,8814,Tag0,unknown
1605702928407,200,-72,-1.58203125E-5,0,0,0,931237,201618,81552,26746,21914,21887,10480,8814,Tag0,unknown
1605702928432,200,-275,-6.04248046875E-5,0,0,0,931237,201618,81552,26746,21914,21887,10480,8814,Tag0,unknown
1605702928447,200,-279,-6.13037109375E-5,0,0,0,931237,201618,81552,26746,21914,21887,10480,8814,Tag0,unknown
