timestampMs,poorSignal,eegRawValue,eegRawValueVolts,attention,meditation,blinkStrength,delta,theta,alphaLow,alphaHigh,betaLow,betaHigh,gammaLow,gammaMid,tagEvent,location
1605702836215,200,-458,-1.00634765625E-4,0,0,0,230335,18442,4573,31187,7182,14569,3057,3115,Tag0,unknown
1605702836239,200,-1034,-2.27197265625E-4,0,0,0,230335,18442,4573,31187,7182,14569,3057,3115,Tag0,unknown
1605702836249,200,-706,-1.55126953125E-4,0,0,0,230335,18442,4573,31187,7182,14569,3057,3115,Tag0,unknown
1605702836273,200,-1701,-3.7375488281250004E-4,0,0,0,230335,18442,4573,31187,7182,14569,3057,3115,Tag0,unknown
1605702836283,200,-1867,-4.102294921875E-4,0,0,0,230335,18442,4573,31187,7182,14569,3057,3115,Tag0,unknown
1605702836313,200,-1043,-2.2917480468750002E-4,0,0,0,230335,18442,4573,31187,7182,14569,3057,3115,Tag0,unknown
1605702836332,200,-738,-1.62158203125E-4,0,0,0,230335,18442,4573,31187,7182,14569,3057,3115,Tag0,unknown
1605702836349,200,-521,-1.1447753906250001E-4,0,0,0,230335,18442,4573,31187,7182,14569,3057,3115,Tag0,unknown
1605702836365,200,-226,-4.9658203125E-5,0,0,0,230335,18442,4573,31187,7182,14569,3057,3115,Tag0,unknown
1605702836384,200,-170,-3.7353515625E-5,0,0,0,230335,18442,4573,31187,7182,14569,3057,3115,Tag0,unknown
1605702836418,200,27,5.9326171875000005E-6,0,0,0,230335,18442,4573,31187,7182,14569,3057,3115,Tag0,unknown
1605702836431,200,29,6.3720703125E-6,0,0,0,230335,18442,4573,31187,7182,14569,3057,3115,Tag0,unknown
1605702836456,200,-58,-1.2744140625E-5,0,0,0,230335,18442,4573,31187,7182,14569,3057,3115,Tag0,unknown
1605702836466,200,-61,-1.34033203125E-5,0,0,0,230335,18442,4573,31187,7182,14569,3057,3115,Tag0,unknown
1605702836489,200,-265,-5.82275390625E-5,0,0,0,230335,18442,4573,31187,7182,14569,3057,3115,Tag0,unknown
1605702836499,200,49,1.07666015625E-5,0,0,0,230335,18442,4573,31187,7182,14569,3057,3115,Tag0,unknown
1605702836525,200,258,5.6689453125000004E-5,0,0,0,230335,18442,4573,31187,7182,14569,3057,3115,Tag0,unknown
1605702836535,200,-121,-2.6586914062500003E-5,0,0,0,230335,18442,4573,31187,7182,14569,3057,3115,Tag0,unknown
1605702836550,200,69,1.51611328125E-5,0,0,0,501239,21284,16144,11723,5221,8161,5958,914,Tag0,unknown
1605702836571,200,-93,-2.04345703125E-5,0,0,0,501239,21284,16144,11723,5221,8161,5958,914,Tag0,unknown
1605702836601,200,51,1.1206054687499999E-5,0,0,0,501239,21284,16144,11723,5221,8161,5958,914,Tag0,unknown
1605702836616,200,-305,-6.70166015625E-5,0,0,0,501239,21284,16144,11723,5221,8161,5958,914,Tag0,unknown
1605702836640,200,813,1.786376953125E-4,0,0,0,501239,21284,16144,11723,5221,8161,5958,914,Tag0,unknown
1605702836650,200,481,1.056884765625E-4,0,0,0,501239,21284,16144,11723,5221,8161,5958,914,Tag0,unknown
1605702836674,200,505,1.109619140625E-4,0,0,0,501239,21284,16144,11723,5221,8161,5958,914,Tag0,unknown
1605702836684,200,804,1.7666015625E-4,0,0,0,501239,21284,16144,11723,5221,8161,5958,914,Tag0,unknown
1605702836714,200,22,4.833984375E-6,0,0,0,501239,21284,16144,11723,5221,8161,5958,914,Tag0,unknown
1605702836733,200,535,1.175537109375E-4,0,0,0,501239,21284,16144,11723,5221,8161,5958,914,Tag0,unknown
1605702836751,200,1190,2.61474609375E-4,0,0,0,501239,21284,16144,11723,5221,8161,5958,914,Tag0,unknown
1605702836769,200,-123,-2.70263671875E-5,0,0,0,501239,21284,16144,11723,5221,8161,5958,914,Tag0,unknown
1605702836787,200,-279,-6.13037109375E-5,0,0,0,501239,21284,16144,11723,5221,8161,5958,914,Tag0,unknown
1605702836820,200,-790,-1.73583984375E-4,0,0,0,501239,21284,16144,11723,5221,8161,5958,914,Tag0,unknown
1605702836834,200,-281,-6.17431640625E-5,0,0,0,501239,21284,16144,11723,5221,8161,5958,914,Tag0,unknown
1605702836844,200,83,1.82373046875E-5,0,0,0,501239,21284,16144,11723,5221,8161,5958,914,Tag0,unknown
1605702836858,200,-579,-1.272216796875E-4,0,0,0,501239,21284,16144,11723,5221,8161,5958,914,Tag0,unknown
1605702836868,200,-615,-1.351318359375E-4,0,0,0,501239,21284,16144,11723,5221,8161,5958,914,Tag0,unknown
1605702836893,200,-577,-1.2678222656250002E-4,0,0,0,501239,21284,16144,11723,5221,8161,5958,914,Tag0,unknown
1605702836903,200,101,2.2192382812500002E-5,0,0,0,501239,21284,16144,11723,5221,8161,5958,914,Tag0,unknown
1605702836931,200,324,7.119140625E-5,0,0,0,501239,21284,16144,11723,5221,8161,5958,914,Tag0,unknown
1605702836941,200,273,5.998535156250001E-5,0,0,0,501239,21284,16144,11723,5221,8161,5958,914,Tag0,unknown
1605702836966,200,515,1.131591796875E-4,0,0,0,501239,21284,16144,11723,5221,8161,5958,914,Tag0,unknown
1605702836987,200,203,4.460449218750001E-5,0,0,0,501239,21284,16144,11723,5221,8161,5958,914,Tag0,unknown
1605702836997,200,240,5.2734375E-5,0,0,0,501239,21284,16144,11723,5221,8161,5958,914,Tag0,unknown
1605702837007,200,139,3.0541992187500004E-5,0,0,0,501239,21284,16144,11723,5221,8161,5958,914,Tag0,unknown
1605702837018,200,41,9.008789062499999E-6,0,0,0,501239,21284,16144,11723,5221,8161,5958,914,Tag0,unknown
1605702837040,200,-90,-1.9775390625E-5,0,0,0,501239,21284,16144,11723,5221,8161,5958,914,Tag0,unknown
1605702837051,200,-11,-2.4169921875E-6,0,0,0,501239,21284,16144,11723,5221,8161,5958,914,Tag0,unknown
1605702837077,200,-308,-6.767578125E-5,0,0,0,501239,21284,16144,11723,5221,8161,5958,914,Tag0,unknown
1605702837087,200,-105,-2.30712890625E-5,0,0,0,501239,21284,16144,11723,5221,8161,5958,914,Tag0,unknown
1605702837111,200,5,1.0986328125E-6,0,0,0,501239,21284,16144,11723,5221,8161,5958,914,Tag0,unknown
1605702837121,200,-302,-6.6357421875E-5,0,0,0,501239,21284,16144,11723,5221,8161,5958,914,Tag0,unknown
1605702837150,200,-131,-2.87841796875E-5,0,0,0,501239,21284,16144,11723,5221,8161,5958,914,Tag0,unknown
1605702837169,200,-452,-9.931640625E-5,0,0,0,501239,21284,16144,11723,5221,8161,5958,914,Tag0,unknown
1605702837187,200,-3,-6.591796875E-7,0,0,0,501239,21284,16144,11723,5221,8161,5958,914,Tag0,unknown
1605702837197,200,-295,-6.48193359375E-5,0,0,0,501239,21284,16144,11723,5221,8161,5958,914,Tag0,unknown
1605702837207,200,264,5.80078125E-5,0,0,0,501239,21284,16144,11723,5221,8161,5958,914,Tag0,unknown
1605702837224,200,268,5.8886718750000006E-5,0,0,0,501239,21284,16144,11723,5221,8161,5958,914,Tag0,unknown
1605702837237,200,-27,-5.9326171875000005E-6,0,0,0,501239,21284,16144,11723,5221,8161,5958,914,Tag0,unknown
1605702837260,200,1029,2.260986328125E-4,0,0,0,501239,21284,16144,11723,5221,8161,5958,914,Tag0,unknown
1605702837270,200,115,2.52685546875E-5,0,0,0,501239,21284,16144,11723,5221,8161,5958,914,Tag0,unknown
1605702837280,200,873,1.9182128906250002E-4,0,0,0,501239,21284,16144,11723,5221,8161,5958,914,Tag0,unknown
1605702837296,200,890,1.95556640625E-4,0,0,0,501239,21284,16144,11723,5221,8161,5958,914,Tag0,unknown
1605702837306,200,570,1.25244140625E-4,0,0,0,501239,21284,16144,11723,5221,8161,5958,914,Tag0,unknown
1605702837330,200,603,1.3249511718750002E-4,0,0,0,501239,21284,16144,11723,5221,8161,5958,914,Tag0,unknown
1605702837340,200,1515,3.328857421875E-4,0,0,0,501239,21284,16144,11723,5221,8161,5958,914,Tag0,unknown
1605702837354,200,1237,2.718017578125E-4,0,0,0,501239,21284,16144,11723,5221,8161,5958,914,Tag0,unknown
1605702837375,200,727,1.5974121093750003E-4,0,0,0,501239,21284,16144,11723,5221,8161,5958,914,Tag0,unknown
1605702837405,200,505,1.109619140625E-4,0,0,0,501239,21284,16144,11723,5221,8161,5958,914,Tag0,unknown
1605702837422,200,700,1.5380859375E-4,0,0,0,501239,21284,16144,11723,5221,8161,5958,914,Tag0,unknown
1605702837432,200,944,2.07421875E-4,0,0,0,501239,21284,16144,11723,5221,8161,5958,914,Tag0,unknown
1605702837482,200,897,1.970947265625E-4,0,0,0,501239,21284,16144,11723,5221,8161,5958,914,Tag0,unknown
1605702837492,200,489,1.0744628906250001E-4,0,0,0,501239,21284,16144,11723,5221,8161,5958,914,Tag0,unknown
1605702837618,200,129,2.8344726562500002E-5,0,0,0,501239,21284,16144,11723,5221,8161,5958,914,Tag0,unknown
1605702837639,200,39,8.5693359375E-6,0,0,0,501239,21284,16144,11723,5221,8161,5958,914,Tag0,unknown
1605702837649,200,-151,-3.31787109375E-5,0,0,0,501239,21284,16144,11723,5221,8161,5958,914,Tag0,unknown
1605702837659,200,-354,-7.778320312500001E-5,0,0,0,501239,21284,16144,11723,5221,8161,5958,914,Tag0,unknown
1605702837687,200,6,1.318359375E-6,0,0,0,501239,21284,16144,11723,5221,8161,5958,914,Tag0,unknown
1605702837704,200,-283,-6.218261718750001E-5,0,0,0,501239,21284,16144,11723,5221,8161,5958,914,Tag0,unknown
1605702837828,200,-121,-2.6586914062500003E-5,0,0,0,501239,21284,16144,11723,5221,8161,5958,914,Tag0,unknown
1605702837857,200,-187,-4.10888671875E-5,0,0,0,1089629,501923,15683,83232,65916,25586,15484,20047,Tag0,unknown
1605702837893,200,0,0.0,0,0,0,1089629,501923,15683,83232,65916,25586,15484,20047,Tag0,unknown
1605702837908,200,-353,-7.75634765625E-5,0,0,0,1089629,501923,15683,83232,65916,25586,15484,20047,Tag0,unknown
1605702837960,200,-38,-8.349609375E-6,0,0,0,1089629,501923,15683,83232,65916,25586,15484,20047,Tag0,unknown
1605702837974,200,587,1.2897949218750003E-4,0,0,0,1089629,501923,15683,83232,65916,25586,15484,20047,Tag0,unknown
1605702838028,200,277,6.0864257812500005E-5,0,0,0,1089629,501923,15683,83232,65916,25586,15484,20047,Tag0,unknown
1605702838041,200,353,7.75634765625E-5,0,0,0,1089629,501923,15683,83232,65916,25586,15484,20047,Tag0,unknown
1605702838086,200,71,1.56005859375E-5,0,0,0,1089629,501923,15683,83232,65916,25586,15484,20047,Tag0,unknown
1605702838108,200,185,4.06494140625E-5,0,0,0,1089629,501923,15683,83232,65916,25586,15484,20047,Tag0,unknown
1605702838118,200,391,8.591308593750001E-5,0,0,0,1089629,501923,15683,83232,65916,25586,15484,20047,Tag0,unknown
1605702838128,200,232,5.09765625E-5,0,0,0,1089629,501923,15683,83232,65916,25586,15484,20047,Tag0,unknown
1605702838138,200,-517,-1.135986328125E-4,0,0,0,1089629,501923,15683,83232,65916,25586,15484,20047,Tag0,unknown
1605702838148,200,-10,-2.197265625E-6,0,0,0,1089629,501923,15683,83232,65916,25586,15484,20047,Tag0,unknown
1605702838158,200,309,6.78955078125E-5,0,0,0,1089629,501923,15683,83232,65916,25586,15484,20047,Tag0,unknown
1605702838168,200,27,5.9326171875000005E-6,0,0,0,1089629,501923,15683,83232,65916,25586,15484,20047,Tag0,unknown
1605702838178,200,-330,-7.2509765625E-5,0,0,0,1089629,501923,15683,83232,65916,25586,15484,20047,Tag0,unknown
1605702838195,200,357,7.844238281250001E-5,0,0,0,1089629,501923,15683,83232,65916,25586,15484,20047,Tag0,unknown
1605702838206,200,243,5.33935546875E-5,0,0,0,1089629,501923,15683,83232,65916,25586,15484,20047,Tag0,unknown
1605702838230,200,-5,-1.0986328125E-6,0,0,0,1089629,501923,15683,83232,65916,25586,15484,20047,Tag0,unknown
1605702838240,200,-46,-1.0107421875E-5,0,0,0,1089629,501923,15683,83232,65916,25586,15484,20047,Tag0,unknown
1605702838266,200,-312,-6.85546875E-5,0,0,0,1089629,501923,15683,83232,65916,25586,15484,20047,Tag0,unknown
1605702838276,200,-577,-1.2678222656250002E-4,0,0,0,1089629,501923,15683,83232,65916,25586,15484,20047,Tag0,unknown
1605702838300,200,-561,-1.232666015625E-4,0,0,0,1089629,501923,15683,83232,65916,25586,15484,20047,Tag0,unknown
1605702838310,200,-513,-1.127197265625E-4,0,0,0,1089629,501923,15683,83232,65916,25586,15484,20047,Tag0,unknown
1605702838320,200,-134,-2.9443359375000003E-5,0,0,0,1089629,501923,15683,83232,65916,25586,15484,20047,Tag0,unknown
1605702838345,200,-248,-5.44921875E-5,0,0,0,1089629,501923,15683,83232,65916,25586,15484,20047,Tag0,unknown
1605702838359,200,-798,-1.7534179687500001E-4,0,0,0,1089629,501923,15683,83232,65916,25586,15484,20047,Tag0,unknown
1605702838369,200,-417,-9.16259765625E-5,0,0,0,1089629,501923,15683,83232,65916,25586,15484,20047,Tag0,unknown
1605702838380,200,-297,-6.525878906250001E-5,0,0,0,1089629,501923,15683,83232,65916,25586,15484,20047,Tag0,unknown
1605702838392,200,-1464,-3.216796875E-4,0,0,0,1089629,501923,15683,83232,65916,25586,15484,20047,Tag0,unknown
1605702838414,200,-883,-1.9401855468750002E-4,0,0,0,1089629,501923,15683,83232,65916,25586,15484,20047,Tag0,unknown
1605702838425,200,375,8.23974609375E-5,0,0,0,1089629,501923,15683,83232,65916,25586,15484,20047,Tag0,unknown
1605702838449,200,-321,-7.053222656250001E-5,0,0,0,1089629,501923,15683,83232,65916,25586,15484,20047,Tag0,unknown
1605702838460,200,76,1.669921875E-5,0,0,0,1089629,501923,15683,83232,65916,25586,15484,20047,Tag0,unknown
1605702838484,200,317,6.96533203125E-5,0,0,0,1089629,501923,15683,83232,65916,25586,15484,20047,Tag0,unknown
1605702838494,200,86,1.8896484375000003E-5,0,0,0,1089629,501923,15683,83232,65916,25586,15484,20047,Tag0,unknown
1605702838518,200,597,1.3117675781250003E-4,0,0,0,1089629,501923,15683,83232,65916,25586,15484,20047,Tag0,unknown
1605702838528,200,1209,2.656494140625E-4,0,0,0,1089629,501923,15683,83232,65916,25586,15484,20047,Tag0,unknown
1605702838555,200,535,1.175537109375E-4,0,0,0,1028930,409947,222153,314102,64642,66441,16758370,16769323,Tag0,unknown
1605702838575,200,57,1.2524414062500001E-5,0,0,0,1028930,409947,222153,314102,64642,66441,16758370,16769323,Tag0,unknown
1605702838585,200,869,1.909423828125E-4,0,0,0,1028930,409947,222153,314102,64642,66441,16758370,16769323,Tag0,unknown
1605702838595,200,811,1.781982421875E-4,0,0,0,1028930,409947,222153,314102,64642,66441,16758370,16769323,Tag0,unknown
1605702838609,200,458,1.00634765625E-4,0,0,0,1028930,409947,222153,314102,64642,66441,16758370,16769323,Tag0,unknown
1605702838627,200,617,1.355712890625E-4,0,0,0,1028930,409947,222153,314102,64642,66441,16758370,16769323,Tag0,unknown
1605702838642,200,518,1.13818359375E-4,0,0,0,1028930,409947,222153,314102,64642,66441,16758370,16769323,Tag0,unknown
1605702838665,200,208,4.5703125E-5,0,0,0,1028930,409947,222153,314102,64642,66441,16758370,16769323,Tag0,unknown
1605702838675,200,-467,-1.026123046875E-4,0,0,0,1028930,409947,222153,314102,64642,66441,16758370,16769323,Tag0,unknown
1605702838697,200,-513,-1.127197265625E-4,0,0,0,1028930,409947,222153,314102,64642,66441,16758370,16769323,Tag0,unknown
1605702838709,200,-261,-5.73486328125E-5,0,0,0,1028930,409947,222153,314102,64642,66441,16758370,16769323,Tag0,unknown
1605702838731,200,-712,-1.564453125E-4,0,0,0,1028930,409947,222153,314102,64642,66441,16758370,16769323,Tag0,unknown
1605702838742,200,693,1.522705078125E-4,0,0,0,1028930,409947,222153,314102,64642,66441,16758370,16769323,Tag0,unknown
1605702838752,200,-1570,-3.44970703125E-4,0,0,0,1028930,409947,222153,314102,64642,66441,16758370,16769323,Tag0,unknown
1605702838766,200,-741,-1.6281738281249998E-4,0,0,0,1028930,409947,222153,314102,64642,66441,16758370,16769323,Tag0,unknown
1605702838776,200,-172,-3.7792968750000005E-5,0,0,0,1028930,409947,222153,314102,64642,66441,16758370,16769323,Tag0,unknown
1605702838797,200,-281,-6.17431640625E-5,0,0,0,1028930,409947,222153,314102,64642,66441,16758370,16769323,Tag0,unknown
1605702838831,200,178,3.9111328125E-5,0,0,0,1028930,409947,222153,314102,64642,66441,16758370,16769323,Tag0,unknown
1605702838842,200,-76,-1.669921875E-5,0,0,0,1028930,409947,222153,314102,64642,66441,16758370,16769323,Tag0,unknown
1605702838852,200,-535,-1.175537109375E-4,0,0,0,1028930,409947,222153,314102,64642,66441,16758370,16769323,Tag0,unknown
1605702838867,200,-47,-1.0327148437500001E-5,0,0,0,1028930,409947,222153,314102,64642,66441,16758370,16769323,Tag0,unknown
1605702838878,200,-275,-6.04248046875E-5,0,0,0,1028930,409947,222153,314102,64642,66441,16758370,16769323,Tag0,unknown
1605702838901,200,153,3.3618164062500004E-5,0,0,0,1028930,409947,222153,314102,64642,66441,16758370,16769323,Tag0,unknown
1605702838911,200,229,5.03173828125E-5,0,0,0,1028930,409947,222153,314102,64642,66441,16758370,16769323,Tag0,unknown
1605702838921,200,484,1.0634765625000001E-4,0,0,0,1028930,409947,222153,314102,64642,66441,16758370,16769323,Tag0,unknown
1605702838938,200,785,1.724853515625E-4,0,0,0,1028930,409947,222153,314102,64642,66441,16758370,16769323,Tag0,unknown
1605702838948,200,325,7.14111328125E-5,0,0,0,1028930,409947,222153,314102,64642,66441,16758370,16769323,Tag0,unknown
1605702838972,200,347,7.62451171875E-5,0,0,0,1028930,409947,222153,314102,64642,66441,16758370,16769323,Tag0,unknown
1605702838982,200,224,4.921875E-5,0,0,0,1028930,409947,222153,314102,64642,66441,16758370,16769323,Tag0,unknown
1605702838999,200,528,1.16015625E-4,0,0,0,1028930,409947,222153,314102,64642,66441,16758370,16769323,Tag0,unknown
1605702839013,200,-128,-2.8125E-5,0,0,0,1028930,409947,222153,314102,64642,66441,16758370,16769323,Tag0,unknown
1605702839045,200,-545,-1.197509765625E-4,0,0,0,1028930,409947,222153,314102,64642,66441,16758370,16769323,Tag0,unknown
1605702839061,200,-203,-4.460449218750001E-5,0,0,0,1028930,409947,222153,314102,64642,66441,16758370,16769323,Tag0,unknown
1605702839071,200,-653,-1.434814453125E-4,0,0,0,1028930,409947,222153,314102,64642,66441,16758370,16769323,Tag0,unknown
1605702839085,200,-938,-2.0610351562500002E-4,0,0,0,1028930,409947,222153,314102,64642,66441,16758370,16769323,Tag0,unknown
1605702839096,200,-886,-1.94677734375E-4,0,0,0,1028930,409947,222153,314102,64642,66441,16758370,16769323,Tag0,unknown
1605702839120,200,-1751,-3.847412109375E-4,0,0,0,1028930,409947,222153,314102,64642,66441,16758370,16769323,Tag0,unknown
1605702839130,200,-1469,-3.227783203125E-4,0,0,0,1028930,409947,222153,314102,64642,66441,16758370,16769323,Tag0,unknown
1605702839158,200,-346,-7.6025390625E-5,0,0,0,1028930,409947,222153,314102,64642,66441,16758370,16769323,Tag0,unknown
1605702839177,200,-776,-1.705078125E-4,0,0,0,1028930,409947,222153,314102,64642,66441,16758370,16769323,Tag0,unknown
1605702839194,200,-292,-6.416015625000001E-5,0,0,0,1028930,409947,222153,314102,64642,66441,16758370,16769323,Tag0,unknown
1605702839204,200,-1075,-2.362060546875E-4,0,0,0,1028930,409947,222153,314102,64642,66441,16758370,16769323,Tag0,unknown
1605702839216,200,-1077,-2.366455078125E-4,0,0,0,1028930,409947,222153,314102,64642,66441,16758370,16769323,Tag0,unknown
1605702839226,200,-1492,-3.2783203125E-4,0,0,0,1028930,409947,222153,314102,64642,66441,16758370,16769323,Tag0,unknown
1605702839236,200,-1485,-3.262939453125E-4,0,0,0,1028930,409947,222153,314102,64642,66441,16758370,16769323,Tag0,unknown
1605702839265,200,83,1.82373046875E-5,0,0,0,1028930,409947,222153,314102,64642,66441,16758370,16769323,Tag0,unknown
1605702839278,200,-89,-1.95556640625E-5,0,0,0,1028930,409947,222153,314102,64642,66441,16758370,16769323,Tag0,unknown
1605702839304,200,1791,3.935302734375E-4,0,0,0,1028930,409947,222153,314102,64642,66441,16758370,16769323,Tag0,unknown
1605702839314,200,1617,3.552978515625E-4,0,0,0,1028930,409947,222153,314102,64642,66441,16758370,16769323,Tag0,unknown
1605702839341,200,378,8.3056640625E-5,0,0,0,1028930,409947,222153,314102,64642,66441,16758370,16769323,Tag0,unknown
1605702839351,200,258,5.6689453125000004E-5,0,0,0,1028930,409947,222153,314102,64642,66441,16758370,16769323,Tag0,unknown
1605702839361,200,125,2.74658203125E-5,0,0,0,1028930,409947,222153,314102,64642,66441,16758370,16769323,Tag0,unknown
1605702839376,200,267,5.86669921875E-5,0,0,0,1028930,409947,222153,314102,64642,66441,16758370,16769323,Tag0,unknown
1605702839396,200,-57,-1.2524414062500001E-5,0,0,0,1028930,409947,222153,314102,64642,66441,16758370,16769323,Tag0,unknown
1605702839413,200,-13,-2.8564453125E-6,0,0,0,1028930,409947,222153,314102,64642,66441,16758370,16769323,Tag0,unknown
1605702839429,200,-202,-4.4384765625000004E-5,0,0,0,1028930,409947,222153,314102,64642,66441,16758370,16769323,Tag0,unknown
1605702839447,200,13,2.8564453125E-6,0,0,0,1028930,409947,222153,314102,64642,66441,16758370,16769323,Tag0,unknown
1605702839480,200,-316,-6.943359375000001E-5,0,0,0,1028930,409947,222153,314102,64642,66441,16758370,16769323,Tag0,unknown
1605702839495,200,-185,-4.06494140625E-5,0,0,0,1028930,409947,222153,314102,64642,66441,16758370,16769323,Tag0,unknown
1605702839513,200,107,2.35107421875E-5,0,0,0,1028930,409947,222153,314102,64642,66441,16758370,16769323,Tag0,unknown
1605702839530,200,-280,-6.15234375E-5,0,0,0,1028930,409947,222153,314102,64642,66441,16758370,16769323,Tag0,unknown
1605702839540,200,-635,-1.395263671875E-4,0,0,0,938831,57570,90430,16758216,22670,16746305,16747543,16356,Tag0,unknown
1605702839554,200,-377,-8.28369140625E-5,0,0,0,938831,57570,90430,16758216,22670,16746305,16747543,16356,Tag0,unknown
1605702839564,200,-364,-7.998046875E-5,0,0,0,938831,57570,90430,16758216,22670,16746305,16747543,16356,Tag0,unknown
1605702839588,200,13,2.8564453125E-6,0,0,0,938831,57570,90430,16758216,22670,16746305,16747543,16356,Tag0,unknown
1605702839598,200,-147,-3.22998046875E-5,0,0,0,938831,57570,90430,16758216,22670,16746305,16747543,16356,Tag0,unknown
1605702839622,200,-521,-1.1447753906250001E-4,0,0,0,938831,57570,90430,16758216,22670,16746305,16747543,16356,Tag0,unknown
1605702839635,200,85,1.86767578125E-5,0,0,0,938831,57570,90430,16758216,22670,16746305,16747543,16356,Tag0,unknown
1605702839645,200,66,1.4501953125E-5,0,0,0,938831,57570,90430,16758216,22670,16746305,16747543,16356,Tag0,unknown
1605702839662,200,-377,-8.28369140625E-5,0,0,0,938831,57570,90430,16758216,22670,16746305,16747543,16356,Tag0,unknown
1605702839680,200,2,4.39453125E-7,0,0,0,938831,57570,90430,16758216,22670,16746305,16747543,16356,Tag0,unknown
1605702839698,200,-429,-9.42626953125E-5,0,0,0,938831,57570,90430,16758216,22670,16746305,16747543,16356,Tag0,unknown
1605702839708,200,-839,-1.843505859375E-4,0,0,0,938831,57570,90430,16758216,22670,16746305,16747543,16356,Tag0,unknown
1605702839718,200,-541,-1.1887207031250001E-4,0,0,0,938831,57570,90430,16758216,22670,16746305,16747543,16356,Tag0,unknown
1605702839734,200,-151,-3.31787109375E-5,0,0,0,938831,57570,90430,16758216,22670,16746305,16747543,16356,Tag0,unknown
1605702839747,200,-214,-4.7021484375E-5,0,0,0,938831,57570,90430,16758216,22670,16746305,16747543,16356,Tag0,unknown
1605702839767,200,-333,-7.316894531249999E-5,0,0,0,938831,57570,90430,16758216,22670,16746305,16747543,16356,Tag0,unknown
1605702839780,200,-579,-1.272216796875E-4,0,0,0,938831,57570,90430,16758216,22670,16746305,16747543,16356,Tag0,unknown
1605702839807,200,-86,-1.8896484375000003E-5,0,0,0,938831,57570,90430,16758216,22670,16746305,16747543,16356,Tag0,unknown
1605702839817,200,29,6.3720703125E-6,0,0,0,938831,57570,90430,16758216,22670,16746305,16747543,16356,Tag0,unknown
1605702839841,200,147,3.22998046875E-5,0,0,0,938831,57570,90430,16758216,22670,16746305,16747543,16356,Tag0,unknown
1605702839851,200,401,8.811035156250001E-5,0,0,0,938831,57570,90430,16758216,22670,16746305,16747543,16356,Tag0,unknown
1605702839861,200,55,1.20849609375E-5,0,0,0,938831,57570,90430,16758216,22670,16746305,16747543,16356,Tag0,unknown
1605702839881,200,-86,-1.8896484375000003E-5,0,0,0,938831,57570,90430,16758216,22670,16746305,16747543,16356,Tag0,unknown
1605702839899,200,-119,-2.6147460937500004E-5,0,0,0,938831,57570,90430,16758216,22670,16746305,16747543,16356,Tag0,unknown
1605702839918,200,-426,-9.3603515625E-5,0,0,0,938831,57570,90430,16758216,22670,16746305,16747543,16356,Tag0,unknown
1605702839933,200,-173,-3.80126953125E-5,0,0,0,938831,57570,90430,16758216,22670,16746305,16747543,16356,Tag0,unknown
1605702839943,200,-841,-1.847900390625E-4,0,0,0,938831,57570,90430,16758216,22670,16746305,16747543,16356,Tag0,unknown
1605702839955,200,-437,-9.602050781250001E-5,0,0,0,938831,57570,90430,16758216,22670,16746305,16747543,16356,Tag0,unknown
1605702839966,200,-598,-1.31396484375E-4,0,0,0,938831,57570,90430,16758216,22670,16746305,16747543,16356,Tag0,unknown
1605702839989,200,-883,-1.9401855468750002E-4,0,0,0,938831,57570,90430,16758216,22670,16746305,16747543,16356,Tag0,unknown
1605702839999,200,-841,-1.847900390625E-4,0,0,0,938831,57570,90430,16758216,22670,16746305,16747543,16356,Tag0,unknown
1605702840041,200,-857,-1.8830566406250002E-4,0,0,0,938831,57570,90430,16758216,22670,16746305,16747543,16356,Tag0,unknown
1605702840054,200,-803,-1.764404296875E-4,0,0,0,938831,57570,90430,16758216,22670,16746305,16747543,16356,Tag0,unknown
1605702840064,200,-347,-7.62451171875E-5,0,0,0,938831,57570,90430,16758216,22670,16746305,16747543,16356,Tag0,unknown
1605702840077,200,70,1.5380859375E-5,0,0,0,938831,57570,90430,16758216,22670,16746305,16747543,16356,Tag0,unknown
1605702840088,200,-211,-4.63623046875E-5,0,0,0,938831,57570,90430,16758216,22670,16746305,16747543,16356,Tag0,unknown
1605702840111,200,-122,-2.6806640625E-5,0,0,0,938831,57570,90430,16758216,22670,16746305,16747543,16356,Tag0,unknown
1605702840121,200,5,1.0986328125E-6,0,0,0,938831,57570,90430,16758216,22670,16746305,16747543,16356,Tag0,unknown
1605702840132,200,-100,-2.197265625E-5,0,0,0,938831,57570,90430,16758216,22670,16746305,16747543,16356,Tag0,unknown
1605702840154,200,55,1.20849609375E-5,0,0,0,938831,57570,90430,16758216,22670,16746305,16747543,16356,Tag0,unknown
1605702840166,200,25,5.4931640625E-6,0,0,0,938831,57570,90430,16758216,22670,16746305,16747543,16356,Tag0,unknown
1605702840176,200,-329,-7.229003906250001E-5,0,0,0,938831,57570,90430,16758216,22670,16746305,16747543,16356,Tag0,unknown
1605702840188,200,-349,-7.668457031250001E-5,0,0,0,938831,57570,90430,16758216,22670,16746305,16747543,16356,Tag0,unknown
1605702840204,200,-199,-4.3725585937499995E-5,0,0,0,938831,57570,90430,16758216,22670,16746305,16747543,16356,Tag0,unknown
1605702840231,200,-167,-3.6694335937500004E-5,0,0,0,938831,57570,90430,16758216,22670,16746305,16747543,16356,Tag0,unknown
1605702840247,200,-56,-1.23046875E-5,0,0,0,938831,57570,90430,16758216,22670,16746305,16747543,16356,Tag0,unknown
1605702840270,200,309,6.78955078125E-5,0,0,0,938831,57570,90430,16758216,22670,16746305,16747543,16356,Tag0,unknown
1605702840280,200,187,4.10888671875E-5,0,0,0,938831,57570,90430,16758216,22670,16746305,16747543,16356,Tag0,unknown
1605702840298,200,567,1.245849609375E-4,0,0,0,938831,57570,90430,16758216,22670,16746305,16747543,16356,Tag0,unknown
1605702840326,200,384,8.4375E-5,0,0,0,938831,57570,90430,16758216,22670,16746305,16747543,16356,Tag0,unknown
1605702840336,200,487,1.070068359375E-4,0,0,0,938831,57570,90430,16758216,22670,16746305,16747543,16356,Tag0,unknown
1605702840366,200,203,4.460449218750001E-5,0,0,0,938831,57570,90430,16758216,22670,16746305,16747543,16356,Tag0,unknown
1605702840385,200,-99,-2.1752929687500003E-5,0,0,0,938831,57570,90430,16758216,22670,16746305,16747543,16356,Tag0,unknown
1605702840403,200,-23,-5.0537109375E-6,0,0,0,938831,57570,90430,16758216,22670,16746305,16747543,16356,Tag0,unknown
1605702840413,200,-253,-5.55908203125E-5,0,0,0,938831,57570,90430,16758216,22670,16746305,16747543,16356,Tag0,unknown
1605702840423,200,-210,-4.6142578125E-5,0,0,0,938831,57570,90430,16758216,22670,16746305,16747543,16356,Tag0,unknown
1605702840442,200,-551,-1.210693359375E-4,0,0,0,938831,57570,90430,16758216,22670,16746305,16747543,16356,Tag0,unknown
1605702840452,200,-170,-3.7353515625E-5,0,0,0,938831,57570,90430,16758216,22670,16746305,16747543,16356,Tag0,unknown
1605702840476,200,-474,-1.0415039062500001E-4,0,0,0,938831,57570,90430,16758216,22670,16746305,16747543,16356,Tag0,unknown
1605702840486,200,-697,-1.5314941406250002E-4,0,0,0,938831,57570,90430,16758216,22670,16746305,16747543,16356,Tag0,unknown
1605702840513,200,-625,-1.373291015625E-4,0,0,0,938831,57570,90430,16758216,22670,16746305,16747543,16356,Tag0,unknown
1605702840523,200,45,9.8876953125E-6,0,0,0,938831,57570,90430,16758216,22670,16746305,16747543,16356,Tag0,unknown
1605702840540,200,608,1.3359375E-4,0,0,0,1953680,232035,94572,50907,223998,131805,16749664,13997,Tag0,unknown
1605702840555,200,512,1.125E-4,0,0,0,1953680,232035,94572,50907,223998,131805,16749664,13997,Tag0,unknown
1605702840567,200,153,3.3618164062500004E-5,0,0,0,1953680,232035,94572,50907,223998,131805,16749664,13997,Tag0,unknown
1605702840590,200,-425,-9.33837890625E-5,0,0,0,1953680,232035,94572,50907,223998,131805,16749664,13997,Tag0,unknown
1605702840601,200,-262,-5.7568359375E-5,0,0,0,1953680,232035,94572,50907,223998,131805,16749664,13997,Tag0,unknown
1605702840627,200,-226,-4.9658203125E-5,0,0,0,1953680,232035,94572,50907,223998,131805,16749664,13997,Tag0,unknown
1605702840637,200,-455,-9.99755859375E-5,0,0,0,1953680,232035,94572,50907,223998,131805,16749664,13997,Tag0,unknown
1605702840661,200,548,1.2041015624999999E-4,0,0,0,1953680,232035,94572,50907,223998,131805,16749664,13997,Tag0,unknown
1605702840671,200,-12,-2.63671875E-6,0,0,0,1953680,232035,94572,50907,223998,131805,16749664,13997,Tag0,unknown
1605702840702,200,-126,-2.7685546875E-5,0,0,0,1953680,232035,94572,50907,223998,131805,16749664,13997,Tag0,unknown
1605702840718,200,-204,-4.4824218749999996E-5,0,0,0,1953680,232035,94572,50907,223998,131805,16749664,13997,Tag0,unknown
1605702840728,200,-260,-5.712890625E-5,0,0,0,1953680,232035,94572,50907,223998,131805,16749664,13997,Tag0,unknown
1605702840741,200,-389,-8.54736328125E-5,0,0,0,1953680,232035,94572,50907,223998,131805,16749664,13997,Tag0,unknown
1605702840772,200,-173,-3.80126953125E-5,0,0,0,1953680,232035,94572,50907,223998,131805,16749664,13997,Tag0,unknown
1605702840785,200,-201,-4.41650390625E-5,0,0,0,1953680,232035,94572,50907,223998,131805,16749664,13997,Tag0,unknown
1605702840806,200,515,1.131591796875E-4,0,0,0,1953680,232035,94572,50907,223998,131805,16749664,13997,Tag0,unknown
1605702840820,200,725,1.593017578125E-4,0,0,0,1953680,232035,94572,50907,223998,131805,16749664,13997,Tag0,unknown
1605702840830,200,378,8.3056640625E-5,0,0,0,1953680,232035,94572,50907,223998,131805,16749664,13997,Tag0,unknown
1605702840847,200,328,7.207031249999999E-5,0,0,0,1953680,232035,94572,50907,223998,131805,16749664,13997,Tag0,unknown
1605702840864,200,304,6.6796875E-5,0,0,0,1953680,232035,94572,50907,223998,131805,16749664,13997,Tag0,unknown
1605702840881,200,-63,-1.38427734375E-5,0,0,0,1953680,232035,94572,50907,223998,131805,16749664,13997,Tag0,unknown
1605702840893,200,533,1.171142578125E-4,0,0,0,1953680,232035,94572,50907,223998,131805,16749664,13997,Tag0,unknown
1605702840905,200,-11,-2.4169921875E-6,0,0,0,1953680,232035,94572,50907,223998,131805,16749664,13997,Tag0,unknown
1605702840922,200,-321,-7.053222656250001E-5,0,0,0,1953680,232035,94572,50907,223998,131805,16749664,13997,Tag0,unknown
1605702840936,200,-587,-1.2897949218750003E-4,0,0,0,1953680,232035,94572,50907,223998,131805,16749664,13997,Tag0,unknown
1605702840959,200,-291,-6.39404296875E-5,0,0,0,1953680,232035,94572,50907,223998,131805,16749664,13997,Tag0,unknown
1605702840970,200,-1051,-2.309326171875E-4,0,0,0,1953680,232035,94572,50907,223998,131805,16749664,13997,Tag0,unknown
1605702840996,200,20,4.39453125E-6,0,0,0,1953680,232035,94572,50907,223998,131805,16749664,13997,Tag0,unknown
1605702841006,200,-311,-6.833496093750001E-5,0,0,0,1953680,232035,94572,50907,223998,131805,16749664,13997,Tag0,unknown
1605702841030,200,147,3.22998046875E-5,0,0,0,1953680,232035,94572,50907,223998,131805,16749664,13997,Tag0,unknown
1605702841041,200,-283,-6.218261718750001E-5,0,0,0,1953680,232035,94572,50907,223998,131805,16749664,13997,Tag0,unknown
1605702841051,200,45,9.8876953125E-6,0,0,0,1953680,232035,94572,50907,223998,131805,16749664,13997,Tag0,unknown
1605702841072,200,145,3.18603515625E-5,0,0,0,1953680,232035,94572,50907,223998,131805,16749664,13997,Tag0,unknown
1605702841087,200,805,1.768798828125E-4,0,0,0,1953680,232035,94572,50907,223998,131805,16749664,13997,Tag0,unknown
1605702841097,200,635,1.395263671875E-4,0,0,0,1953680,232035,94572,50907,223998,131805,16749664,13997,Tag0,unknown
1605702841109,200,180,3.955078125E-5,0,0,0,1953680,232035,94572,50907,223998,131805,16749664,13997,Tag0,unknown
1605702841121,200,1066,2.34228515625E-4,0,0,0,1953680,232035,94572,50907,223998,131805,16749664,13997,Tag0,unknown
1605702841144,200,151,3.31787109375E-5,0,0,0,1953680,232035,94572,50907,223998,131805,16749664,13997,Tag0,unknown
1605702841155,200,300,6.591796875E-5,0,0,0,1953680,232035,94572,50907,223998,131805,16749664,13997,Tag0,unknown
1605702841165,200,-562,-1.23486328125E-4,0,0,0,1953680,232035,94572,50907,223998,131805,16749664,13997,Tag0,unknown
1605702841184,200,-516,-1.1337890625000001E-4,0,0,0,1953680,232035,94572,50907,223998,131805,16749664,13997,Tag0,unknown
1605702841203,200,-571,-1.254638671875E-4,0,0,0,1953680,232035,94572,50907,223998,131805,16749664,13997,Tag0,unknown
1605702841220,200,-297,-6.525878906250001E-5,0,0,0,1953680,232035,94572,50907,223998,131805,16749664,13997,Tag0,unknown
1605702841237,200,554,1.2172851562500001E-4,0,0,0,1953680,232035,94572,50907,223998,131805,16749664,13997,Tag0,unknown
1605702841261,200,327,7.18505859375E-5,0,0,0,1953680,232035,94572,50907,223998,131805,16749664,13997,Tag0,unknown
1605702841271,200,69,1.51611328125E-5,0,0,0,1953680,232035,94572,50907,223998,131805,16749664,13997,Tag0,unknown
1605702841297,200,587,1.2897949218750003E-4,0,0,0,1953680,232035,94572,50907,223998,131805,16749664,13997,Tag0,unknown
1605702841307,200,314,6.8994140625E-5,0,0,0,1953680,232035,94572,50907,223998,131805,16749664,13997,Tag0,unknown
1605702841322,200,145,3.18603515625E-5,0,0,0,1953680,232035,94572,50907,223998,131805,16749664,13997,Tag0,unknown
1605702841344,200,-190,-4.1748046875E-5,0,0,0,1953680,232035,94572,50907,223998,131805,16749664,13997,Tag0,unknown
1605702841354,200,-57,-1.2524414062500001E-5,0,0,0,1953680,232035,94572,50907,223998,131805,16749664,13997,Tag0,unknown
1605702841364,200,-116,-2.548828125E-5,0,0,0,1953680,232035,94572,50907,223998,131805,16749664,13997,Tag0,unknown
1605702841392,200,-524,-1.1513671875E-4,0,0,0,1953680,232035,94572,50907,223998,131805,16749664,13997,Tag0,unknown
1605702841405,200,85,1.86767578125E-5,0,0,0,1953680,232035,94572,50907,223998,131805,16749664,13997,Tag0,unknown
1605702841415,200,-269,-5.9106445312499996E-5,0,0,0,1953680,232035,94572,50907,223998,131805,16749664,13997,Tag0,unknown
1605702841431,200,-209,-4.59228515625E-5,0,0,0,1953680,232035,94572,50907,223998,131805,16749664,13997,Tag0,unknown
1605702841441,200,84,1.8457031250000004E-5,0,0,0,1953680,232035,94572,50907,223998,131805,16749664,13997,Tag0,unknown
1605702841466,200,-340,-7.470703125E-5,0,0,0,1953680,232035,94572,50907,223998,131805,16749664,13997,Tag0,unknown
1605702841476,200,167,3.6694335937500004E-5,0,0,0,1953680,232035,94572,50907,223998,131805,16749664,13997,Tag0,unknown
1605702841504,200,551,1.210693359375E-4,0,0,0,1953680,232035,94572,50907,223998,131805,16749664,13997,Tag0,unknown
1605702841522,200,599,1.316162109375E-4,0,0,0,1953680,232035,94572,50907,223998,131805,16749664,13997,Tag0,unknown
1605702841549,200,852,1.8720703125E-4,0,0,0,144207,26073,10831,13055,10762,5045,3812,1961,Tag0,unknown
1605702841559,200,114,2.5048828125000003E-5,0,0,0,144207,26073,10831,13055,10762,5045,3812,1961,Tag0,unknown
1605702841579,200,234,5.1416015624999996E-5,0,0,0,144207,26073,10831,13055,10762,5045,3812,1961,Tag0,unknown
1605702841591,200,-262,-5.7568359375E-5,0,0,0,144207,26073,10831,13055,10762,5045,3812,1961,Tag0,unknown
1605702841601,200,105,2.30712890625E-5,0,0,0,144207,26073,10831,13055,10762,5045,3812,1961,Tag0,unknown
1605702841614,200,147,3.22998046875E-5,0,0,0,144207,26073,10831,13055,10762,5045,3812,1961,Tag0,unknown
1605702841624,200,105,2.30712890625E-5,0,0,0,144207,26073,10831,13055,10762,5045,3812,1961,Tag0,unknown
1605702841648,200,82,1.8017578124999998E-5,0,0,0,144207,26073,10831,13055,10762,5045,3812,1961,Tag0,unknown
1605702841658,200,84,1.8457031250000004E-5,0,0,0,144207,26073,10831,13055,10762,5045,3812,1961,Tag0,unknown
1605702841685,200,-197,-4.32861328125E-5,0,0,0,144207,26073,10831,13055,10762,5045,3812,1961,Tag0,unknown
1605702841695,200,-138,-3.0322265625E-5,0,0,0,144207,26073,10831,13055,10762,5045,3812,1961,Tag0,unknown
1605702841721,200,-520,-1.142578125E-4,0,0,0,144207,26073,10831,13055,10762,5045,3812,1961,Tag0,unknown
1605702841739,200,-74,-1.6259765625E-5,0,0,0,144207,26073,10831,13055,10762,5045,3812,1961,Tag0,unknown
1605702841749,200,20,4.39453125E-6,0,0,0,144207,26073,10831,13055,10762,5045,3812,1961,Tag0,unknown
1605702841759,200,-372,-8.173828125E-5,0,0,0,144207,26073,10831,13055,10762,5045,3812,1961,Tag0,unknown
1605702841774,200,-60,-1.318359375E-5,0,0,0,144207,26073,10831,13055,10762,5045,3812,1961,Tag0,unknown
1605702841794,200,-331,-7.272949218750001E-5,0,0,0,144207,26073,10831,13055,10762,5045,3812,1961,Tag0,unknown
1605702841808,200,-343,-7.53662109375E-5,0,0,0,144207,26073,10831,13055,10762,5045,3812,1961,Tag0,unknown
1605702841818,200,7,1.5380859375E-6,0,0,0,144207,26073,10831,13055,10762,5045,3812,1961,Tag0,unknown
1605702841831,200,217,4.76806640625E-5,0,0,0,144207,26073,10831,13055,10762,5045,3812,1961,Tag0,unknown
1605702841841,200,87,1.91162109375E-5,0,0,0,144207,26073,10831,13055,10762,5045,3812,1961,Tag0,unknown
1605702841864,200,52,1.142578125E-5,0,0,0,144207,26073,10831,13055,10762,5045,3812,1961,Tag0,unknown
1605702841876,200,-201,-4.41650390625E-5,0,0,0,144207,26073,10831,13055,10762,5045,3812,1961,Tag0,unknown
1605702841886,200,75,1.64794921875E-5,0,0,0,144207,26073,10831,13055,10762,5045,3812,1961,Tag0,unknown
1605702841905,200,146,3.2080078125000004E-5,0,0,0,144207,26073,10831,13055,10762,5045,3812,1961,Tag0,unknown
1605702841924,200,181,3.9770507812500004E-5,0,0,0,144207,26073,10831,13055,10762,5045,3812,1961,Tag0,unknown
1605702841941,200,131,2.87841796875E-5,0,0,0,144207,26073,10831,13055,10762,5045,3812,1961,Tag0,unknown
1605702841959,200,564,1.2392578125E-4,0,0,0,144207,26073,10831,13055,10762,5045,3812,1961,Tag0,unknown
1605702841981,200,375,8.23974609375E-5,0,0,0,144207,26073,10831,13055,10762,5045,3812,1961,Tag0,unknown
1605702841991,200,869,1.909423828125E-4,0,0,0,144207,26073,10831,13055,10762,5045,3812,1961,Tag0,unknown
1605702842015,200,150,3.2958984375E-5,0,0,0,144207,26073,10831,13055,10762,5045,3812,1961,Tag0,unknown
1605702842025,200,372,8.173828125E-5,0,0,0,144207,26073,10831,13055,10762,5045,3812,1961,Tag0,unknown
1605702842053,200,104,2.28515625E-5,0,0,0,144207,26073,10831,13055,10762,5045,3812,1961,Tag0,unknown
1605702842063,200,-133,-2.92236328125E-5,0,0,0,144207,26073,10831,13055,10762,5045,3812,1961,Tag0,unknown
1605702842087,200,64,1.40625E-5,0,0,0,144207,26073,10831,13055,10762,5045,3812,1961,Tag0,unknown
1605702842097,200,241,5.29541015625E-5,0,0,0,144207,26073,10831,13055,10762,5045,3812,1961,Tag0,unknown
1605702842108,200,325,7.14111328125E-5,0,0,0,144207,26073,10831,13055,10762,5045,3812,1961,Tag0,unknown
1605702842129,200,325,7.14111328125E-5,0,0,0,144207,26073,10831,13055,10762,5045,3812,1961,Tag0,unknown
1605702842161,200,328,7.207031249999999E-5,0,0,0,144207,26073,10831,13055,10762,5045,3812,1961,Tag0,unknown
1605702842176,200,-112,-2.4609375E-5,0,0,0,144207,26073,10831,13055,10762,5045,3812,1961,Tag0,unknown
1605702842186,200,-102,-2.2412109374999998E-5,0,0,0,144207,26073,10831,13055,10762,5045,3812,1961,Tag0,unknown
1605702842196,200,53,1.1645507812500002E-5,0,0,0,144207,26073,10831,13055,10762,5045,3812,1961,Tag0,unknown
1605702842206,200,-626,-1.37548828125E-4,0,0,0,144207,26073,10831,13055,10762,5045,3812,1961,Tag0,unknown
1605702842234,200,-199,-4.3725585937499995E-5,0,0,0,144207,26073,10831,13055,10762,5045,3812,1961,Tag0,unknown
1605702842244,200,-453,-9.95361328125E-5,0,0,0,144207,26073,10831,13055,10762,5045,3812,1961,Tag0,unknown
1605702842273,200,-10,-2.197265625E-6,0,0,0,144207,26073,10831,13055,10762,5045,3812,1961,Tag0,unknown
1605702842292,200,214,4.7021484375E-5,0,0,0,144207,26073,10831,13055,10762,5045,3812,1961,Tag0,unknown
1605702842310,200,-423,-9.29443359375E-5,0,0,0,144207,26073,10831,13055,10762,5045,3812,1961,Tag0,unknown
1605702842326,200,-10,-2.197265625E-6,0,0,0,144207,26073,10831,13055,10762,5045,3812,1961,Tag0,unknown
1605702842343,200,-268,-5.8886718750000006E-5,0,0,0,144207,26073,10831,13055,10762,5045,3812,1961,Tag0,unknown
1605702842360,200,-104,-2.28515625E-5,0,0,0,144207,26073,10831,13055,10762,5045,3812,1961,Tag0,unknown
1605702842379,200,69,1.51611328125E-5,0,0,0,144207,26073,10831,13055,10762,5045,3812,1961,Tag0,unknown
1605702842393,200,113,2.48291015625E-5,0,0,0,144207,26073,10831,13055,10762,5045,3812,1961,Tag0,unknown
1605702842417,200,345,7.58056640625E-5,0,0,0,144207,26073,10831,13055,10762,5045,3812,1961,Tag0,unknown
1605702842427,200,297,6.525878906250001E-5,0,0,0,144207,26073,10831,13055,10762,5045,3812,1961,Tag0,unknown
1605702842496,200,-52,-1.142578125E-5,0,0,0,144207,26073,10831,13055,10762,5045,3812,1961,Tag0,unknown
1605702842511,200,-302,-6.6357421875E-5,0,0,0,144207,26073,10831,13055,10762,5045,3812,1961,Tag0,unknown
1605702842565,200,277,6.0864257812500005E-5,0,0,0,144207,26073,10831,13055,10762,5045,3812,1961,Tag0,unknown
1605702842579,200,-131,-2.87841796875E-5,0,0,0,144207,26073,10831,13055,10762,5045,3812,1961,Tag0,unknown
1605702842631,200,-82,-1.8017578124999998E-5,0,0,0,144207,26073,10831,13055,10762,5045,3812,1961,Tag0,unknown
1605702842645,200,-161,-3.53759765625E-5,0,0,0,144207,26073,10831,13055,10762,5045,3812,1961,Tag0,unknown
1605702842698,200,19,4.1748046875E-6,0,0,0,144207,26073,10831,13055,10762,5045,3812,1961,Tag0,unknown
1605702842710,200,-96,-2.109375E-5,0,0,0,144207,26073,10831,13055,10762,5045,3812,1961,Tag0,unknown
1605702842767,200,-225,-4.94384765625E-5,0,0,0,41469,18552,6481,6773,5643,7318,1354,353,Tag0,unknown
1605702842780,200,105,2.30712890625E-5,0,0,0,41469,18552,6481,6773,5643,7318,1354,353,Tag0,unknown
1605702842790,200,-618,-1.35791015625E-4,0,0,0,41469,18552,6481,6773,5643,7318,1354,353,Tag0,unknown
1605702842834,200,-532,-1.1689453125E-4,0,0,0,41469,18552,6481,6773,5643,7318,1354,353,Tag0,unknown
1605702842846,200,-251,-5.5151367187500004E-5,0,0,0,41469,18552,6481,6773,5643,7318,1354,353,Tag0,unknown
1605702842976,200,-431,-9.47021484375E-5,0,0,0,41469,18552,6481,6773,5643,7318,1354,353,Tag0,unknown
1605702843008,200,106,2.3291015625000003E-5,0,0,0,41469,18552,6481,6773,5643,7318,1354,353,Tag0,unknown
1605702843018,200,280,6.15234375E-5,0,0,0,41469,18552,6481,6773,5643,7318,1354,353,Tag0,unknown
1605702843028,200,-11,-2.4169921875E-6,0,0,0,41469,18552,6481,6773,5643,7318,1354,353,Tag0,unknown
1605702843041,200,281,6.17431640625E-5,0,0,0,41469,18552,6481,6773,5643,7318,1354,353,Tag0,unknown
1605702843063,200,306,6.723632812500001E-5,0,0,0,41469,18552,6481,6773,5643,7318,1354,353,Tag0,unknown
1605702843073,200,-307,-6.74560546875E-5,0,0,0,41469,18552,6481,6773,5643,7318,1354,353,Tag0,unknown
1605702843084,200,195,4.28466796875E-5,0,0,0,41469,18552,6481,6773,5643,7318,1354,353,Tag0,unknown
1605702843094,200,275,6.04248046875E-5,0,0,0,41469,18552,6481,6773,5643,7318,1354,353,Tag0,unknown
1605702843104,200,951,2.089599609375E-4,0,0,0,41469,18552,6481,6773,5643,7318,1354,353,Tag0,unknown
1605702843114,200,504,1.107421875E-4,0,0,0,41469,18552,6481,6773,5643,7318,1354,353,Tag0,unknown
1605702843128,200,-9,-1.9775390625E-6,0,0,0,41469,18552,6481,6773,5643,7318,1354,353,Tag0,unknown
1605702843154,200,282,6.1962890625E-5,0,0,0,41469,18552,6481,6773,5643,7318,1354,353,Tag0,unknown
1605702843164,200,293,6.43798828125E-5,0,0,0,41469,18552,6481,6773,5643,7318,1354,353,Tag0,unknown
1605702843191,200,-810,-1.77978515625E-4,0,0,0,41469,18552,6481,6773,5643,7318,1354,353,Tag0,unknown
1605702843201,200,-69,-1.51611328125E-5,0,0,0,41469,18552,6481,6773,5643,7318,1354,353,Tag0,unknown
1605702843226,200,451,9.909667968750001E-5,0,0,0,41469,18552,6481,6773,5643,7318,1354,353,Tag0,unknown
1605702843248,200,-78,-1.7138671875E-5,0,0,0,41469,18552,6481,6773,5643,7318,1354,353,Tag0,unknown
1605702843258,200,844,1.8544921875E-4,0,0,0,41469,18552,6481,6773,5643,7318,1354,353,Tag0,unknown
1605702843275,200,708,1.5556640625000002E-4,0,0,0,41469,18552,6481,6773,5643,7318,1354,353,Tag0,unknown
1605702843302,200,896,1.96875E-4,0,0,0,41469,18552,6481,6773,5643,7318,1354,353,Tag0,unknown
1605702843316,200,432,9.492187500000001E-5,0,0,0,41469,18552,6481,6773,5643,7318,1354,353,Tag0,unknown
1605702843326,200,993,2.181884765625E-4,0,0,0,41469,18552,6481,6773,5643,7318,1354,353,Tag0,unknown
1605702843338,200,665,1.461181640625E-4,0,0,0,41469,18552,6481,6773,5643,7318,1354,353,Tag0,unknown
1605702843349,200,477,1.048095703125E-4,0,0,0,41469,18552,6481,6773,5643,7318,1354,353,Tag0,unknown
1605702843372,200,-149,-3.27392578125E-5,0,0,0,41469,18552,6481,6773,5643,7318,1354,353,Tag0,unknown
1605702843383,200,115,2.52685546875E-5,0,0,0,41469,18552,6481,6773,5643,7318,1354,353,Tag0,unknown
1605702843393,200,-103,-2.26318359375E-5,0,0,0,41469,18552,6481,6773,5643,7318,1354,353,Tag0,unknown
1605702843413,200,-531,-1.1667480468750001E-4,0,0,0,41469,18552,6481,6773,5643,7318,1354,353,Tag0,unknown
1605702843431,200,-29,-6.3720703125E-6,0,0,0,41469,18552,6481,6773,5643,7318,1354,353,Tag0,unknown
1605702843451,200,-422,-9.2724609375E-5,0,0,0,41469,18552,6481,6773,5643,7318,1354,353,Tag0,unknown
1605702843466,200,252,5.537109375E-5,0,0,0,41469,18552,6481,6773,5643,7318,1354,353,Tag0,unknown
1605702843476,200,-949,-2.085205078125E-4,0,0,0,41469,18552,6481,6773,5643,7318,1354,353,Tag0,unknown
1605702843487,200,-1304,-2.8652343750000005E-4,0,0,0,41469,18552,6481,6773,5643,7318,1354,353,Tag0,unknown
1605702843497,200,-493,-1.083251953125E-4,0,0,0,41469,18552,6481,6773,5643,7318,1354,353,Tag0,unknown
1605702843520,200,-361,-7.93212890625E-5,0,0,0,41469,18552,6481,6773,5643,7318,1354,353,Tag0,unknown
1605702843531,200,-842,-1.85009765625E-4,0,0,0,41469,18552,6481,6773,5643,7318,1354,353,Tag0,unknown
1605702843556,200,418,9.1845703125E-5,0,0,0,886667,358444,129904,199207,53978,80542,143447,21940,Tag0,unknown
1605702843566,200,-118,-2.5927734375E-5,0,0,0,886667,358444,129904,199207,53978,80542,143447,21940,Tag0,unknown
1605702843576,200,-614,-1.34912109375E-4,0,0,0,886667,358444,129904,199207,53978,80542,143447,21940,Tag0,unknown
1605702843597,200,567,1.245849609375E-4,0,0,0,886667,358444,129904,199207,53978,80542,143447,21940,Tag0,unknown
1605702843617,200,-132,-2.900390625E-5,0,0,0,886667,358444,129904,199207,53978,80542,143447,21940,Tag0,unknown
1605702843633,200,40,8.7890625E-6,0,0,0,886667,358444,129904,199207,53978,80542,143447,21940,Tag0,unknown
1605702843649,200,-273,-5.998535156250001E-5,0,0,0,886667,358444,129904,199207,53978,80542,143447,21940,Tag0,unknown
1605702843659,200,-235,-5.16357421875E-5,0,0,0,886667,358444,129904,199207,53978,80542,143447,21940,Tag0,unknown
1605702843673,200,-807,-1.7731933593750001E-4,0,0,0,886667,358444,129904,199207,53978,80542,143447,21940,Tag0,unknown
1605702843707,200,-581,-1.276611328125E-4,0,0,0,886667,358444,129904,199207,53978,80542,143447,21940,Tag0,unknown
1605702843717,200,-18,-3.955078125E-6,0,0,0,886667,358444,129904,199207,53978,80542,143447,21940,Tag0,unknown
1605702843745,200,-413,-9.07470703125E-5,0,0,0,886667,358444,129904,199207,53978,80542,143447,21940,Tag0,unknown
1605702843767,200,227,4.98779296875E-5,0,0,0,886667,358444,129904,199207,53978,80542,143447,21940,Tag0,unknown
1605702843785,200,323,7.09716796875E-5,0,0,0,886667,358444,129904,199207,53978,80542,143447,21940,Tag0,unknown
1605702843795,200,-278,-6.108398437500001E-5,0,0,0,886667,358444,129904,199207,53978,80542,143447,21940,Tag0,unknown
1605702843806,200,714,1.5688476562500001E-4,0,0,0,886667,358444,129904,199207,53978,80542,143447,21940,Tag0,unknown
1605702843832,200,322,7.0751953125E-5,0,0,0,886667,358444,129904,199207,53978,80542,143447,21940,Tag0,unknown
1605702843849,200,540,1.1865234375E-4,0,0,0,886667,358444,129904,199207,53978,80542,143447,21940,Tag0,unknown
1605702843867,200,90,1.9775390625E-5,0,0,0,886667,358444,129904,199207,53978,80542,143447,21940,Tag0,unknown
1605702843884,200,149,3.27392578125E-5,0,0,0,886667,358444,129904,199207,53978,80542,143447,21940,Tag0,unknown
1605702843920,200,72,1.58203125E-5,0,0,0,886667,358444,129904,199207,53978,80542,143447,21940,Tag0,unknown
1605702843933,200,-53,-1.1645507812500002E-5,0,0,0,886667,358444,129904,199207,53978,80542,143447,21940,Tag0,unknown
1605702843943,200,-44,-9.66796875E-6,0,0,0,886667,358444,129904,199207,53978,80542,143447,21940,Tag0,unknown
1605702843962,200,-887,-1.9489746093750003E-4,0,0,0,886667,358444,129904,199207,53978,80542,143447,21940,Tag0,unknown
1605702843972,200,-204,-4.4824218749999996E-5,0,0,0,886667,358444,129904,199207,53978,80542,143447,21940,Tag0,unknown
1605702843996,200,-638,-1.40185546875E-4,0,0,0,886667,358444,129904,199207,53978,80542,143447,21940,Tag0,unknown
1605702844016,200,-101,-2.2192382812500002E-5,0,0,0,886667,358444,129904,199207,53978,80542,143447,21940,Tag0,unknown
1605702844040,200,-819,-1.799560546875E-4,0,0,0,886667,358444,129904,199207,53978,80542,143447,21940,Tag0,unknown
1605702844052,200,98,2.1533203125E-5,0,0,0,886667,358444,129904,199207,53978,80542,143447,21940,Tag0,unknown
1605702844076,200,-523,-1.149169921875E-4,0,0,0,886667,358444,129904,199207,53978,80542,143447,21940,Tag0,unknown
1605702844086,200,203,4.460449218750001E-5,0,0,0,886667,358444,129904,199207,53978,80542,143447,21940,Tag0,unknown
1605702844096,200,-772,-1.6962890625000002E-4,0,0,0,886667,358444,129904,199207,53978,80542,143447,21940,Tag0,unknown
1605702844116,200,-59,-1.29638671875E-5,0,0,0,886667,358444,129904,199207,53978,80542,143447,21940,Tag0,unknown
1605702844126,200,290,6.3720703125E-5,0,0,0,886667,358444,129904,199207,53978,80542,143447,21940,Tag0,unknown
1605702844136,200,-41,-9.008789062499999E-6,0,0,0,886667,358444,129904,199207,53978,80542,143447,21940,Tag0,unknown
1605702844154,200,-43,-9.448242187500001E-6,0,0,0,886667,358444,129904,199207,53978,80542,143447,21940,Tag0,unknown
1605702844167,200,-260,-5.712890625E-5,0,0,0,886667,358444,129904,199207,53978,80542,143447,21940,Tag0,unknown
1605702844191,200,380,8.349609375E-5,0,0,0,886667,358444,129904,199207,53978,80542,143447,21940,Tag0,unknown
1605702844201,200,-225,-4.94384765625E-5,0,0,0,886667,358444,129904,199207,53978,80542,143447,21940,Tag0,unknown
1605702844229,200,56,1.23046875E-5,0,0,0,886667,358444,129904,199207,53978,80542,143447,21940,Tag0,unknown
1605702844239,200,169,3.7133789062499996E-5,0,0,0,886667,358444,129904,199207,53978,80542,143447,21940,Tag0,unknown
1605702844264,200,-611,-1.3425292968749999E-4,0,0,0,886667,358444,129904,199207,53978,80542,143447,21940,Tag0,unknown
1605702844284,200,-26,-5.712890625E-6,0,0,0,886667,358444,129904,199207,53978,80542,143447,21940,Tag0,unknown
1605702844294,200,-723,-1.5886230468750001E-4,0,0,0,886667,358444,129904,199207,53978,80542,143447,21940,Tag0,unknown
1605702844304,200,-16,-3.515625E-6,0,0,0,886667,358444,129904,199207,53978,80542,143447,21940,Tag0,unknown
1605702844319,200,-687,-1.5095214843750002E-4,0,0,0,886667,358444,129904,199207,53978,80542,143447,21940,Tag0,unknown
1605702844341,200,186,4.0869140625E-5,0,0,0,886667,358444,129904,199207,53978,80542,143447,21940,Tag0,unknown
1605702844357,200,-221,-4.85595703125E-5,0,0,0,886667,358444,129904,199207,53978,80542,143447,21940,Tag0,unknown
1605702844368,200,25,5.4931640625E-6,0,0,0,886667,358444,129904,199207,53978,80542,143447,21940,Tag0,unknown
1605702844385,200,-793,-1.742431640625E-4,0,0,0,886667,358444,129904,199207,53978,80542,143447,21940,Tag0,unknown
1605702844401,200,345,7.58056640625E-5,0,0,0,886667,358444,129904,199207,53978,80542,143447,21940,Tag0,unknown
1605702844411,200,518,1.13818359375E-4,0,0,0,886667,358444,129904,199207,53978,80542,143447,21940,Tag0,unknown
1605702844422,200,-295,-6.48193359375E-5,0,0,0,886667,358444,129904,199207,53978,80542,143447,21940,Tag0,unknown
1605702844436,200,-773,-1.6984863281250002E-4,0,0,0,886667,358444,129904,199207,53978,80542,143447,21940,Tag0,unknown
1605702844456,200,572,1.2568359375E-4,0,0,0,886667,358444,129904,199207,53978,80542,143447,21940,Tag0,unknown
1605702844468,200,-485,-1.065673828125E-4,0,0,0,886667,358444,129904,199207,53978,80542,143447,21940,Tag0,unknown
1605702844478,200,-593,-1.3029785156250002E-4,0,0,0,886667,358444,129904,199207,53978,80542,143447,21940,Tag0,unknown
1605702844495,200,119,2.6147460937500004E-5,0,0,0,886667,358444,129904,199207,53978,80542,143447,21940,Tag0,unknown
1605702844505,200,10,2.197265625E-6,0,0,0,886667,358444,129904,199207,53978,80542,143447,21940,Tag0,unknown
1605702844520,200,-615,-1.351318359375E-4,0,0,0,204578,8338,1835,3384,5139,3978,3310,1572,Tag0,unknown
1605702844540,200,-365,-8.02001953125E-5,0,0,0,204578,8338,1835,3384,5139,3978,3310,1572,Tag0,unknown
1605702844562,200,-697,-1.5314941406250002E-4,0,0,0,204578,8338,1835,3384,5139,3978,3310,1572,Tag0,unknown
1605702844572,200,-484,-1.0634765625000001E-4,0,0,0,204578,8338,1835,3384,5139,3978,3310,1572,Tag0,unknown
1605702844596,200,-595,-1.307373046875E-4,0,0,0,204578,8338,1835,3384,5139,3978,3310,1572,Tag0,unknown
1605702844606,200,-52,-1.142578125E-5,0,0,0,204578,8338,1835,3384,5139,3978,3310,1572,Tag0,unknown
1605702844632,200,-434,-9.5361328125E-5,0,0,0,204578,8338,1835,3384,5139,3978,3310,1572,Tag0,unknown
1605702844652,200,115,2.52685546875E-5,0,0,0,204578,8338,1835,3384,5139,3978,3310,1572,Tag0,unknown
1605702844670,200,-205,-4.50439453125E-5,0,0,0,204578,8338,1835,3384,5139,3978,3310,1572,Tag0,unknown
1605702844686,200,-263,-5.7788085937500005E-5,0,0,0,204578,8338,1835,3384,5139,3978,3310,1572,Tag0,unknown
1605702844707,200,289,6.35009765625E-5,0,0,0,204578,8338,1835,3384,5139,3978,3310,1572,Tag0,unknown
1605702844738,200,244,5.361328125E-5,0,0,0,204578,8338,1835,3384,5139,3978,3310,1572,Tag0,unknown
1605702844752,200,-806,-1.7709960937499998E-4,0,0,0,204578,8338,1835,3384,5139,3978,3310,1572,Tag0,unknown
1605702844762,200,311,6.833496093750001E-5,0,0,0,204578,8338,1835,3384,5139,3978,3310,1572,Tag0,unknown
1605702844778,200,227,4.98779296875E-5,0,0,0,204578,8338,1835,3384,5139,3978,3310,1572,Tag0,unknown
1605702844788,200,-84,-1.8457031250000004E-5,0,0,0,204578,8338,1835,3384,5139,3978,3310,1572,Tag0,unknown
1605702844813,200,-119,-2.6147460937500004E-5,0,0,0,204578,8338,1835,3384,5139,3978,3310,1572,Tag0,unknown
1605702844830,200,276,6.064453125E-5,0,0,0,204578,8338,1835,3384,5139,3978,3310,1572,Tag0,unknown
1605702844858,200,-375,-8.23974609375E-5,0,0,0,204578,8338,1835,3384,5139,3978,3310,1572,Tag0,unknown
1605702844870,200,176,3.8671875E-5,0,0,0,204578,8338,1835,3384,5139,3978,3310,1572,Tag0,unknown
1605702844902,200,-130,-2.8564453125E-5,0,0,0,204578,8338,1835,3384,5139,3978,3310,1572,Tag0,unknown
1605702844921,200,217,4.76806640625E-5,0,0,0,204578,8338,1835,3384,5139,3978,3310,1572,Tag0,unknown
1605702844940,200,-457,-1.004150390625E-4,0,0,0,204578,8338,1835,3384,5139,3978,3310,1572,Tag0,unknown
1605702844955,200,-644,-1.4150390625E-4,0,0,0,204578,8338,1835,3384,5139,3978,3310,1572,Tag0,unknown
1605702844965,200,150,3.2958984375E-5,0,0,0,204578,8338,1835,3384,5139,3978,3310,1572,Tag0,unknown
1605702844987,200,10,2.197265625E-6,0,0,0,204578,8338,1835,3384,5139,3978,3310,1572,Tag0,unknown
1605702845012,200,421,9.25048828125E-5,0,0,0,204578,8338,1835,3384,5139,3978,3310,1572,Tag0,unknown
1605702845022,200,573,1.259033203125E-4,0,0,0,204578,8338,1835,3384,5139,3978,3310,1572,Tag0,unknown
1605702845048,200,505,1.109619140625E-4,0,0,0,204578,8338,1835,3384,5139,3978,3310,1572,Tag0,unknown
1605702845063,200,-316,-6.943359375000001E-5,0,0,0,204578,8338,1835,3384,5139,3978,3310,1572,Tag0,unknown
1605702845082,200,485,1.065673828125E-4,0,0,0,204578,8338,1835,3384,5139,3978,3310,1572,Tag0,unknown
1605702845092,200,889,1.953369140625E-4,0,0,0,204578,8338,1835,3384,5139,3978,3310,1572,Tag0,unknown
1605702845123,200,544,1.1953125000000001E-4,0,0,0,204578,8338,1835,3384,5139,3978,3310,1572,Tag0,unknown
1605702845138,200,1065,2.340087890625E-4,0,0,0,204578,8338,1835,3384,5139,3978,3310,1572,Tag0,unknown
1605702845161,200,19,4.1748046875E-6,0,0,0,204578,8338,1835,3384,5139,3978,3310,1572,Tag0,unknown
1605702845173,200,731,1.6062011718749998E-4,0,0,0,204578,8338,1835,3384,5139,3978,3310,1572,Tag0,unknown
1605702845199,200,-627,-1.377685546875E-4,0,0,0,204578,8338,1835,3384,5139,3978,3310,1572,Tag0,unknown
1605702845209,200,-393,-8.63525390625E-5,0,0,0,204578,8338,1835,3384,5139,3978,3310,1572,Tag0,unknown
1605702845223,200,-546,-1.1997070312500001E-4,0,0,0,204578,8338,1835,3384,5139,3978,3310,1572,Tag0,unknown
1605702845240,200,-27,-5.9326171875000005E-6,0,0,0,204578,8338,1835,3384,5139,3978,3310,1572,Tag0,unknown
1605702845255,200,328,7.207031249999999E-5,0,0,0,204578,8338,1835,3384,5139,3978,3310,1572,Tag0,unknown
1605702845275,200,-75,-1.64794921875E-5,0,0,0,204578,8338,1835,3384,5139,3978,3310,1572,Tag0,unknown
1605702845293,200,1121,2.463134765625E-4,0,0,0,204578,8338,1835,3384,5139,3978,3310,1572,Tag0,unknown
1605702845313,200,406,8.920898437500001E-5,0,0,0,204578,8338,1835,3384,5139,3978,3310,1572,Tag0,unknown
1605702845323,200,834,1.83251953125E-4,0,0,0,204578,8338,1835,3384,5139,3978,3310,1572,Tag0,unknown
1605702845348,200,931,2.045654296875E-4,0,0,0,204578,8338,1835,3384,5139,3978,3310,1572,Tag0,unknown
1605702845358,200,275,6.04248046875E-5,0,0,0,204578,8338,1835,3384,5139,3978,3310,1572,Tag0,unknown
1605702845368,200,833,1.830322265625E-4,0,0,0,204578,8338,1835,3384,5139,3978,3310,1572,Tag0,unknown
1605702845386,200,-165,-3.62548828125E-5,0,0,0,204578,8338,1835,3384,5139,3978,3310,1572,Tag0,unknown
1605702845406,200,-812,-1.7841796875000003E-4,0,0,0,204578,8338,1835,3384,5139,3978,3310,1572,Tag0,unknown
1605702845422,200,-2048,-4.5E-4,0,0,0,204578,8338,1835,3384,5139,3978,3310,1572,Tag0,unknown
1605702845441,200,-2048,-4.5E-4,0,0,0,204578,8338,1835,3384,5139,3978,3310,1572,Tag0,unknown
1605702845462,200,322,7.0751953125E-5,0,0,0,204578,8338,1835,3384,5139,3978,3310,1572,Tag0,unknown
1605702845472,200,1093,2.401611328125E-4,0,0,0,204578,8338,1835,3384,5139,3978,3310,1572,Tag0,unknown
1605702845498,200,532,1.1689453125E-4,0,0,0,204578,8338,1835,3384,5139,3978,3310,1572,Tag0,unknown
1605702845508,200,-557,-1.223876953125E-4,0,0,0,204578,8338,1835,3384,5139,3978,3310,1572,Tag0,unknown
1605702845534,200,1791,3.935302734375E-4,0,0,0,2079656,466003,16766842,49595,16750656,16766772,16756569,17318,Tag0,unknown
1605702845544,200,1791,3.935302734375E-4,0,0,0,2079656,466003,16766842,49595,16750656,16766772,16756569,17318,Tag0,unknown
1605702845556,200,-599,-1.316162109375E-4,0,0,0,2079656,466003,16766842,49595,16750656,16766772,16756569,17318,Tag0,unknown
1605702845578,200,-2065,-4.537353515625E-4,0,0,0,2079656,466003,16766842,49595,16750656,16766772,16756569,17318,Tag0,unknown
1605702845590,200,-2048,-4.5E-4,0,0,0,2079656,466003,16766842,49595,16750656,16766772,16756569,17318,Tag0,unknown
1605702845613,200,-1387,-3.047607421875E-4,0,0,0,2079656,466003,16766842,49595,16750656,16766772,16756569,17318,Tag0,unknown
1605702845624,200,-1590,-3.49365234375E-4,0,0,0,2079656,466003,16766842,49595,16750656,16766772,16756569,17318,Tag0,unknown
1605702845634,200,-857,-1.8830566406250002E-4,0,0,0,2079656,466003,16766842,49595,16750656,16766772,16756569,17318,Tag0,unknown
1605702845649,200,-1377,-3.0256347656249996E-4,0,0,0,2079656,466003,16766842,49595,16750656,16766772,16756569,17318,Tag0,unknown
1605702845659,200,-2048,-4.5E-4,0,0,0,2079656,466003,16766842,49595,16750656,16766772,16756569,17318,Tag0,unknown
1605702845681,200,-1971,-4.330810546875E-4,0,0,0,2079656,466003,16766842,49595,16750656,16766772,16756569,17318,Tag0,unknown
1605702845691,200,-2097,-4.607666015625E-4,0,0,0,2079656,466003,16766842,49595,16750656,16766772,16756569,17318,Tag0,unknown
1605702845701,200,-1283,-2.819091796875E-4,0,0,0,2079656,466003,16766842,49595,16750656,16766772,16756569,17318,Tag0,unknown
1605702845728,200,-743,-1.6325683593750002E-4,0,0,0,2079656,466003,16766842,49595,16750656,16766772,16756569,17318,Tag0,unknown
1605702845741,200,-685,-1.505126953125E-4,0,0,0,2079656,466003,16766842,49595,16750656,16766772,16756569,17318,Tag0,unknown
1605702845759,200,-451,-9.909667968750001E-5,0,0,0,2079656,466003,16766842,49595,16750656,16766772,16756569,17318,Tag0,unknown
1605702845769,200,-557,-1.223876953125E-4,0,0,0,2079656,466003,16766842,49595,16750656,16766772,16756569,17318,Tag0,unknown
1605702845779,200,-152,-3.33984375E-5,0,0,0,2079656,466003,16766842,49595,16750656,16766772,16756569,17318,Tag0,unknown
1605702845801,200,11,2.4169921875E-6,0,0,0,2079656,466003,16766842,49595,16750656,16766772,16756569,17318,Tag0,unknown
1605702845811,200,823,1.808349609375E-4,0,0,0,2079656,466003,16766842,49595,16750656,16766772,16756569,17318,Tag0,unknown
1605702845840,200,469,1.0305175781250001E-4,0,0,0,2079656,466003,16766842,49595,16750656,16766772,16756569,17318,Tag0,unknown
1605702845857,200,405,8.89892578125E-5,0,0,0,2079656,466003,16766842,49595,16750656,16766772,16756569,17318,Tag0,unknown
1605702845875,200,483,1.061279296875E-4,0,0,0,2079656,466003,16766842,49595,16750656,16766772,16756569,17318,Tag0,unknown
1605702845891,200,-30,-6.591796875E-6,0,0,0,2079656,466003,16766842,49595,16750656,16766772,16756569,17318,Tag0,unknown
1605702845921,200,1309,2.8762207031250004E-4,0,0,0,2079656,466003,16766842,49595,16750656,16766772,16756569,17318,Tag0,unknown
1605702845931,200,1791,3.935302734375E-4,0,0,0,2079656,466003,16766842,49595,16750656,16766772,16756569,17318,Tag0,unknown
1605702845942,200,1791,3.935302734375E-4,0,0,0,2079656,466003,16766842,49595,16750656,16766772,16756569,17318,Tag0,unknown
1605702845965,200,1791,3.935302734375E-4,0,0,0,2079656,466003,16766842,49595,16750656,16766772,16756569,17318,Tag0,unknown
1605702845976,200,1633,3.588134765625E-4,0,0,0,2079656,466003,16766842,49595,16750656,16766772,16756569,17318,Tag0,unknown
1605702846000,200,1520,3.33984375E-4,0,0,0,2079656,466003,16766842,49595,16750656,16766772,16756569,17318,Tag0,unknown
1605702846010,200,1490,3.27392578125E-4,0,0,0,2079656,466003,16766842,49595,16750656,16766772,16756569,17318,Tag0,unknown
1605702846020,200,468,1.0283203124999999E-4,0,0,0,2079656,466003,16766842,49595,16750656,16766772,16756569,17318,Tag0,unknown
1605702846035,200,-375,-8.23974609375E-5,0,0,0,2079656,466003,16766842,49595,16750656,16766772,16756569,17318,Tag0,unknown
1605702846046,200,-265,-5.82275390625E-5,0,0,0,2079656,466003,16766842,49595,16750656,16766772,16756569,17318,Tag0,unknown
1605702846068,200,-743,-1.6325683593750002E-4,0,0,0,2079656,466003,16766842,49595,16750656,16766772,16756569,17318,Tag0,unknown
1605702846078,200,16,3.515625E-6,0,0,0,2079656,466003,16766842,49595,16750656,16766772,16756569,17318,Tag0,unknown
1605702846108,200,-626,-1.37548828125E-4,0,0,0,2079656,466003,16766842,49595,16750656,16766772,16756569,17318,Tag0,unknown
1605702846126,200,331,7.272949218750001E-5,0,0,0,2079656,466003,16766842,49595,16750656,16766772,16756569,17318,Tag0,unknown
1605702846143,200,-251,-5.5151367187500004E-5,0,0,0,2079656,466003,16766842,49595,16750656,16766772,16756569,17318,Tag0,unknown
1605702846160,200,-111,-2.43896484375E-5,0,0,0,2079656,466003,16766842,49595,16750656,16766772,16756569,17318,Tag0,unknown
1605702846170,200,-161,-3.53759765625E-5,0,0,0,2079656,466003,16766842,49595,16750656,16766772,16756569,17318,Tag0,unknown
1605702846180,200,-154,-3.3837890625E-5,0,0,0,2079656,466003,16766842,49595,16750656,16766772,16756569,17318,Tag0,unknown
1605702846194,200,-713,-1.566650390625E-4,0,0,0,2079656,466003,16766842,49595,16750656,16766772,16756569,17318,Tag0,unknown
1605702846215,200,39,8.5693359375E-6,0,0,0,2079656,466003,16766842,49595,16750656,16766772,16756569,17318,Tag0,unknown
1605702846227,200,-533,-1.171142578125E-4,0,0,0,2079656,466003,16766842,49595,16750656,16766772,16756569,17318,Tag0,unknown
1605702846237,200,-341,-7.492675781250002E-5,0,0,0,2079656,466003,16766842,49595,16750656,16766772,16756569,17318,Tag0,unknown
1605702846256,200,337,7.40478515625E-5,0,0,0,2079656,466003,16766842,49595,16750656,16766772,16756569,17318,Tag0,unknown
1605702846276,200,-141,-3.09814453125E-5,0,0,0,2079656,466003,16766842,49595,16750656,16766772,16756569,17318,Tag0,unknown
1605702846296,200,-232,-5.09765625E-5,0,0,0,2079656,466003,16766842,49595,16750656,16766772,16756569,17318,Tag0,unknown
1605702846307,200,535,1.175537109375E-4,0,0,0,2079656,466003,16766842,49595,16750656,16766772,16756569,17318,Tag0,unknown
1605702846318,200,581,1.276611328125E-4,0,0,0,2079656,466003,16766842,49595,16750656,16766772,16756569,17318,Tag0,unknown
1605702846333,200,-195,-4.28466796875E-5,0,0,0,2079656,466003,16766842,49595,16750656,16766772,16756569,17318,Tag0,unknown
1605702846361,200,23,5.0537109375E-6,0,0,0,2079656,466003,16766842,49595,16750656,16766772,16756569,17318,Tag0,unknown
1605702846377,200,380,8.349609375E-5,0,0,0,2079656,466003,16766842,49595,16750656,16766772,16756569,17318,Tag0,unknown
1605702846387,200,-157,-3.44970703125E-5,0,0,0,2079656,466003,16766842,49595,16750656,16766772,16756569,17318,Tag0,unknown
1605702846400,200,-612,-1.3447265625000002E-4,0,0,0,2079656,466003,16766842,49595,16750656,16766772,16756569,17318,Tag0,unknown
1605702846411,200,137,3.0102539062499998E-5,0,0,0,2079656,466003,16766842,49595,16750656,16766772,16756569,17318,Tag0,unknown
1605702846444,200,-105,-2.30712890625E-5,0,0,0,2079656,466003,16766842,49595,16750656,16766772,16756569,17318,Tag0,unknown
1605702846460,200,393,8.63525390625E-5,0,0,0,2079656,466003,16766842,49595,16750656,16766772,16756569,17318,Tag0,unknown
1605702846479,200,629,1.382080078125E-4,0,0,0,2079656,466003,16766842,49595,16750656,16766772,16756569,17318,Tag0,unknown
1605702846494,200,99,2.1752929687500003E-5,0,0,0,2079656,466003,16766842,49595,16750656,16766772,16756569,17318,Tag0,unknown
1605702846522,200,981,2.155517578125E-4,0,0,0,357383,136379,16750253,65823,92259,16771327,76293,16749109,Tag0,unknown
1605702846532,200,323,7.09716796875E-5,0,0,0,357383,136379,16750253,65823,92259,16771327,76293,16749109,Tag0,unknown
1605702846544,200,41,9.008789062499999E-6,0,0,0,357383,136379,16750253,65823,92259,16771327,76293,16749109,Tag0,unknown
1605702846561,200,865,1.900634765625E-4,0,0,0,357383,136379,16750253,65823,92259,16771327,76293,16749109,Tag0,unknown
1605702846577,200,-43,-9.448242187500001E-6,0,0,0,357383,136379,16750253,65823,92259,16771327,76293,16749109,Tag0,unknown
1605702846601,200,-564,-1.2392578125E-4,0,0,0,357383,136379,16750253,65823,92259,16771327,76293,16749109,Tag0,unknown
1605702846611,200,-1111,-2.441162109375E-4,0,0,0,357383,136379,16750253,65823,92259,16771327,76293,16749109,Tag0,unknown
1605702846633,200,-977,-2.1467285156250002E-4,0,0,0,357383,136379,16750253,65823,92259,16771327,76293,16749109,Tag0,unknown
1605702846645,200,-212,-4.6582031250000006E-5,0,0,0,357383,136379,16750253,65823,92259,16771327,76293,16749109,Tag0,unknown
1605702846667,200,-321,-7.053222656250001E-5,0,0,0,357383,136379,16750253,65823,92259,16771327,76293,16749109,Tag0,unknown
1605702846678,200,1074,2.35986328125E-4,0,0,0,357383,136379,16750253,65823,92259,16771327,76293,16749109,Tag0,unknown
1605702846688,200,-116,-2.548828125E-5,0,0,0,357383,136379,16750253,65823,92259,16771327,76293,16749109,Tag0,unknown
1605702846707,200,-503,-1.105224609375E-4,0,0,0,357383,136379,16750253,65823,92259,16771327,76293,16749109,Tag0,unknown
1605702846717,200,9,1.9775390625E-6,0,0,0,357383,136379,16750253,65823,92259,16771327,76293,16749109,Tag0,unknown
1605702846742,200,-413,-9.07470703125E-5,0,0,0,357383,136379,16750253,65823,92259,16771327,76293,16749109,Tag0,unknown
1605702846764,200,-615,-1.351318359375E-4,0,0,0,357383,136379,16750253,65823,92259,16771327,76293,16749109,Tag0,unknown
1605702846774,200,848,1.8632812500000002E-4,0,0,0,357383,136379,16750253,65823,92259,16771327,76293,16749109,Tag0,unknown
1605702846788,200,-750,-1.64794921875E-4,0,0,0,357383,136379,16750253,65823,92259,16771327,76293,16749109,Tag0,unknown
1605702846798,200,-1771,-3.891357421875E-4,0,0,0,357383,136379,16750253,65823,92259,16771327,76293,16749109,Tag0,unknown
1605702846816,200,-2048,-4.5E-4,0,0,0,357383,136379,16750253,65823,92259,16771327,76293,16749109,Tag0,unknown
1605702846828,200,-2048,-4.5E-4,0,0,0,357383,136379,16750253,65823,92259,16771327,76293,16749109,Tag0,unknown
1605702846838,200,-1013,-2.2258300781250002E-4,0,0,0,357383,136379,16750253,65823,92259,16771327,76293,16749109,Tag0,unknown
1605702846852,200,-887,-1.9489746093750003E-4,0,0,0,357383,136379,16750253,65823,92259,16771327,76293,16749109,Tag0,unknown
1605702846862,200,-738,-1.62158203125E-4,0,0,0,357383,136379,16750253,65823,92259,16771327,76293,16749109,Tag0,unknown
1605702846886,200,-9,-1.9775390625E-6,0,0,0,357383,136379,16750253,65823,92259,16771327,76293,16749109,Tag0,unknown
1605702846896,200,-278,-6.108398437500001E-5,0,0,0,357383,136379,16750253,65823,92259,16771327,76293,16749109,Tag0,unknown
1605702846928,200,-519,-1.140380859375E-4,0,0,0,357383,136379,16750253,65823,92259,16771327,76293,16749109,Tag0,unknown
1605702846945,200,503,1.105224609375E-4,0,0,0,357383,136379,16750253,65823,92259,16771327,76293,16749109,Tag0,unknown
1605702846964,200,-315,-6.92138671875E-5,0,0,0,357383,136379,16750253,65823,92259,16771327,76293,16749109,Tag0,unknown
1605702846980,200,-235,-5.16357421875E-5,0,0,0,357383,136379,16750253,65823,92259,16771327,76293,16749109,Tag0,unknown
1605702846990,200,-530,-1.16455078125E-4,0,0,0,357383,136379,16750253,65823,92259,16771327,76293,16749109,Tag0,unknown
1605702847002,200,-388,-8.525390625E-5,0,0,0,357383,136379,16750253,65823,92259,16771327,76293,16749109,Tag0,unknown
1605702847016,200,1125,2.471923828125E-4,0,0,0,357383,136379,16750253,65823,92259,16771327,76293,16749109,Tag0,unknown
1605702847035,200,492,1.0810546875E-4,0,0,0,357383,136379,16750253,65823,92259,16771327,76293,16749109,Tag0,unknown
1605702847046,200,411,9.03076171875E-5,0,0,0,357383,136379,16750253,65823,92259,16771327,76293,16749109,Tag0,unknown
1605702847074,200,844,1.8544921875E-4,0,0,0,357383,136379,16750253,65823,92259,16771327,76293,16749109,Tag0,unknown
1605702847084,200,708,1.5556640625000002E-4,0,0,0,357383,136379,16750253,65823,92259,16771327,76293,16749109,Tag0,unknown
1605702847108,200,1703,3.741943359375E-4,0,0,0,357383,136379,16750253,65823,92259,16771327,76293,16749109,Tag0,unknown
1605702847118,200,1791,3.935302734375E-4,0,0,0,357383,136379,16750253,65823,92259,16771327,76293,16749109,Tag0,unknown
1605702847145,200,1137,2.498291015625E-4,0,0,0,357383,136379,16750253,65823,92259,16771327,76293,16749109,Tag0,unknown
1605702847163,200,268,5.8886718750000006E-5,0,0,0,357383,136379,16750253,65823,92259,16771327,76293,16749109,Tag0,unknown
1605702847179,200,1076,2.3642578124999998E-4,0,0,0,357383,136379,16750253,65823,92259,16771327,76293,16749109,Tag0,unknown
1605702847197,200,956,2.1005859374999999E-4,0,0,0,357383,136379,16750253,65823,92259,16771327,76293,16749109,Tag0,unknown
1605702847217,200,604,1.3271484375E-4,0,0,0,357383,136379,16750253,65823,92259,16771327,76293,16749109,Tag0,unknown
1605702847227,200,-1506,-3.3090820312500004E-4,0,0,0,357383,136379,16750253,65823,92259,16771327,76293,16749109,Tag0,unknown
1605702847248,200,-1045,-2.296142578125E-4,0,0,0,357383,136379,16750253,65823,92259,16771327,76293,16749109,Tag0,unknown
1605702847263,200,-102,-2.2412109374999998E-5,0,0,0,357383,136379,16750253,65823,92259,16771327,76293,16749109,Tag0,unknown
1605702847290,200,-859,-1.887451171875E-4,0,0,0,357383,136379,16750253,65823,92259,16771327,76293,16749109,Tag0,unknown
1605702847300,200,-149,-3.27392578125E-5,0,0,0,357383,136379,16750253,65823,92259,16771327,76293,16749109,Tag0,unknown
1605702847329,200,-407,-8.94287109375E-5,0,0,0,357383,136379,16750253,65823,92259,16771327,76293,16749109,Tag0,unknown
1605702847348,200,-620,-1.3623046875E-4,0,0,0,357383,136379,16750253,65823,92259,16771327,76293,16749109,Tag0,unknown
1605702847358,200,172,3.7792968750000005E-5,0,0,0,357383,136379,16750253,65823,92259,16771327,76293,16749109,Tag0,unknown
1605702847378,200,428,9.404296875E-5,0,0,0,357383,136379,16750253,65823,92259,16771327,76293,16749109,Tag0,unknown
1605702847398,200,329,7.229003906250001E-5,0,0,0,357383,136379,16750253,65823,92259,16771327,76293,16749109,Tag0,unknown
1605702847408,200,-332,-7.294921875E-5,0,0,0,357383,136379,16750253,65823,92259,16771327,76293,16749109,Tag0,unknown
1605702847437,200,115,2.52685546875E-5,0,0,0,357383,136379,16750253,65823,92259,16771327,76293,16749109,Tag0,unknown
1605702847448,200,-429,-9.42626953125E-5,0,0,0,357383,136379,16750253,65823,92259,16771327,76293,16749109,Tag0,unknown
1605702847504,200,99,2.1752929687500003E-5,0,0,0,357383,136379,16750253,65823,92259,16771327,76293,16749109,Tag0,unknown
1605702847515,200,-1096,-2.4082031249999999E-4,0,0,0,357383,136379,16750253,65823,92259,16771327,76293,16749109,Tag0,unknown
1605702847579,200,-165,-3.62548828125E-5,0,0,0,357383,136379,16750253,65823,92259,16771327,76293,16749109,Tag0,unknown
1605702847599,200,-865,-1.900634765625E-4,0,0,0,357383,136379,16750253,65823,92259,16771327,76293,16749109,Tag0,unknown
1605702847610,200,-749,-1.645751953125E-4,0,0,0,357383,136379,16750253,65823,92259,16771327,76293,16749109,Tag0,unknown
1605702847713,200,-1105,-2.427978515625E-4,0,0,0,357383,136379,16750253,65823,92259,16771327,76293,16749109,Tag0,unknown
1605702847731,200,-1626,-3.57275390625E-4,0,0,0,357383,136379,16750253,65823,92259,16771327,76293,16749109,Tag0,unknown
1605702847805,200,-1401,-3.0783691406250003E-4,0,0,0,713374,16773420,16745436,72947,69693,30065,24632,11702,Tag0,unknown
1605702847849,200,-683,-1.500732421875E-4,0,0,0,713374,16773420,16745436,72947,69693,30065,24632,11702,Tag0,unknown
1605702847867,200,283,6.218261718750001E-5,0,0,0,713374,16773420,16745436,72947,69693,30065,24632,11702,Tag0,unknown
1605702847916,200,1683,3.697998046875E-4,0,0,0,713374,16773420,16745436,72947,69693,30065,24632,11702,Tag0,unknown
1605702847932,200,1757,3.860595703125E-4,0,0,0,713374,16773420,16745436,72947,69693,30065,24632,11702,Tag0,unknown
1605702847984,200,1291,2.8366699218750004E-4,0,0,0,713374,16773420,16745436,72947,69693,30065,24632,11702,Tag0,unknown
1605702848000,200,1813,3.9836425781250004E-4,0,0,0,713374,16773420,16745436,72947,69693,30065,24632,11702,Tag0,unknown
1605702848051,200,442,9.7119140625E-5,0,0,0,713374,16773420,16745436,72947,69693,30065,24632,11702,Tag0,unknown
1605702848068,200,1104,2.42578125E-4,0,0,0,713374,16773420,16745436,72947,69693,30065,24632,11702,Tag0,unknown
1605702848078,200,81,1.77978515625E-5,0,0,0,713374,16773420,16745436,72947,69693,30065,24632,11702,Tag0,unknown
1605702848090,200,-529,-1.162353515625E-4,0,0,0,713374,16773420,16745436,72947,69693,30065,24632,11702,Tag0,unknown
1605702848100,200,-811,-1.781982421875E-4,0,0,0,713374,16773420,16745436,72947,69693,30065,24632,11702,Tag0,unknown
1605702848110,200,-62,-1.3623046875E-5,0,0,0,713374,16773420,16745436,72947,69693,30065,24632,11702,Tag0,unknown
1605702848120,200,144,3.1640625E-5,0,0,0,713374,16773420,16745436,72947,69693,30065,24632,11702,Tag0,unknown
1605702848130,200,-1339,-2.942138671875E-4,0,0,0,713374,16773420,16745436,72947,69693,30065,24632,11702,Tag0,unknown
1605702848140,200,389,8.54736328125E-5,0,0,0,713374,16773420,16745436,72947,69693,30065,24632,11702,Tag0,unknown
1605702848164,200,-1486,-3.2651367187500004E-4,0,0,0,713374,16773420,16745436,72947,69693,30065,24632,11702,Tag0,unknown
1605702848181,200,-2104,-4.6230468750000004E-4,0,0,0,713374,16773420,16745436,72947,69693,30065,24632,11702,Tag0,unknown
1605702848203,200,-1274,-2.79931640625E-4,0,0,0,713374,16773420,16745436,72947,69693,30065,24632,11702,Tag0,unknown
1605702848216,200,-966,-2.12255859375E-4,0,0,0,713374,16773420,16745436,72947,69693,30065,24632,11702,Tag0,unknown
1605702848227,200,-501,-1.100830078125E-4,0,0,0,713374,16773420,16745436,72947,69693,30065,24632,11702,Tag0,unknown
1605702848241,200,-152,-3.33984375E-5,0,0,0,713374,16773420,16745436,72947,69693,30065,24632,11702,Tag0,unknown
1605702848281,200,89,1.95556640625E-5,0,0,0,713374,16773420,16745436,72947,69693,30065,24632,11702,Tag0,unknown
1605702848301,200,33,7.2509765625E-6,0,0,0,713374,16773420,16745436,72947,69693,30065,24632,11702,Tag0,unknown
1605702848311,200,-456,-1.0019531250000001E-4,0,0,0,713374,16773420,16745436,72947,69693,30065,24632,11702,Tag0,unknown
1605702848324,200,-546,-1.1997070312500001E-4,0,0,0,713374,16773420,16745436,72947,69693,30065,24632,11702,Tag0,unknown
1605702848335,200,-521,-1.1447753906250001E-4,0,0,0,713374,16773420,16745436,72947,69693,30065,24632,11702,Tag0,unknown
1605702848345,200,1791,3.935302734375E-4,0,0,0,713374,16773420,16745436,72947,69693,30065,24632,11702,Tag0,unknown
1605702848355,200,1791,3.935302734375E-4,0,0,0,713374,16773420,16745436,72947,69693,30065,24632,11702,Tag0,unknown
1605702848391,200,1734,3.8100585937500005E-4,0,0,0,713374,16773420,16745436,72947,69693,30065,24632,11702,Tag0,unknown
1605702848401,200,1473,3.236572265625E-4,0,0,0,713374,16773420,16745436,72947,69693,30065,24632,11702,Tag0,unknown
1605702848431,200,827,1.8171386718750002E-4,0,0,0,713374,16773420,16745436,72947,69693,30065,24632,11702,Tag0,unknown
1605702848449,200,774,1.70068359375E-4,0,0,0,713374,16773420,16745436,72947,69693,30065,24632,11702,Tag0,unknown
1605702848467,200,553,1.215087890625E-4,0,0,0,713374,16773420,16745436,72947,69693,30065,24632,11702,Tag0,unknown
1605702848484,200,514,1.12939453125E-4,0,0,0,713374,16773420,16745436,72947,69693,30065,24632,11702,Tag0,unknown
1605702848494,200,-125,-2.74658203125E-5,0,0,0,713374,16773420,16745436,72947,69693,30065,24632,11702,Tag0,unknown
1605702848523,200,-301,-6.613769531250001E-5,0,0,0,1580346,185587,84196,50217,217464,70959,16746196,17125,Tag0,unknown
1605702848533,200,-403,-8.854980468749999E-5,0,0,0,1580346,185587,84196,50217,217464,70959,16746196,17125,Tag0,unknown
1605702848547,200,-522,-1.14697265625E-4,0,0,0,1580346,185587,84196,50217,217464,70959,16746196,17125,Tag0,unknown
1605702848567,200,-565,-1.241455078125E-4,0,0,0,1580346,185587,84196,50217,217464,70959,16746196,17125,Tag0,unknown
1605702848586,200,-618,-1.35791015625E-4,0,0,0,1580346,185587,84196,50217,217464,70959,16746196,17125,Tag0,unknown
1605702848601,200,-524,-1.1513671875E-4,0,0,0,1580346,185587,84196,50217,217464,70959,16746196,17125,Tag0,unknown
1605702848611,200,-187,-4.10888671875E-5,0,0,0,1580346,185587,84196,50217,217464,70959,16746196,17125,Tag0,unknown
1605702848625,200,-188,-4.1308593750000004E-5,0,0,0,1580346,185587,84196,50217,217464,70959,16746196,17125,Tag0,unknown
1605702848635,200,-228,-5.0097656250000005E-5,0,0,0,1580346,185587,84196,50217,217464,70959,16746196,17125,Tag0,unknown
1605702848651,200,106,2.3291015625000003E-5,0,0,0,1580346,185587,84196,50217,217464,70959,16746196,17125,Tag0,unknown
1605702848674,200,59,1.29638671875E-5,0,0,0,1580346,185587,84196,50217,217464,70959,16746196,17125,Tag0,unknown
1605702848684,200,71,1.56005859375E-5,0,0,0,1580346,185587,84196,50217,217464,70959,16746196,17125,Tag0,unknown
1605702848700,200,-338,-7.426757812499999E-5,0,0,0,1580346,185587,84196,50217,217464,70959,16746196,17125,Tag0,unknown
1605702848735,200,-93,-2.04345703125E-5,0,0,0,1580346,185587,84196,50217,217464,70959,16746196,17125,Tag0,unknown
1605702848750,200,105,2.30712890625E-5,0,0,0,1580346,185587,84196,50217,217464,70959,16746196,17125,Tag0,unknown
1605702848770,200,320,7.03125E-5,0,0,0,1580346,185587,84196,50217,217464,70959,16746196,17125,Tag0,unknown
1605702848785,200,290,6.3720703125E-5,0,0,0,1580346,185587,84196,50217,217464,70959,16746196,17125,Tag0,unknown
1605702848803,200,-47,-1.0327148437500001E-5,0,0,0,1580346,185587,84196,50217,217464,70959,16746196,17125,Tag0,unknown
1605702848819,200,74,1.6259765625E-5,0,0,0,1580346,185587,84196,50217,217464,70959,16746196,17125,Tag0,unknown
1605702848829,200,-335,-7.36083984375E-5,0,0,0,1580346,185587,84196,50217,217464,70959,16746196,17125,Tag0,unknown
1605702848844,200,-108,-2.3730468750000002E-5,0,0,0,1580346,185587,84196,50217,217464,70959,16746196,17125,Tag0,unknown
1605702848854,200,76,1.669921875E-5,0,0,0,1580346,185587,84196,50217,217464,70959,16746196,17125,Tag0,unknown
1605702848877,200,23,5.0537109375E-6,0,0,0,1580346,185587,84196,50217,217464,70959,16746196,17125,Tag0,unknown
1605702848887,200,-610,-1.34033203125E-4,0,0,0,1580346,185587,84196,50217,217464,70959,16746196,17125,Tag0,unknown
1605702848914,200,-685,-1.505126953125E-4,0,0,0,1580346,185587,84196,50217,217464,70959,16746196,17125,Tag0,unknown
1605702848934,200,-419,-9.206542968750001E-5,0,0,0,1580346,185587,84196,50217,217464,70959,16746196,17125,Tag0,unknown
1605702848952,200,544,1.1953125000000001E-4,0,0,0,1580346,185587,84196,50217,217464,70959,16746196,17125,Tag0,unknown
1605702848962,200,-1043,-2.2917480468750002E-4,0,0,0,1580346,185587,84196,50217,217464,70959,16746196,17125,Tag0,unknown
1605702848972,200,-234,-5.1416015624999996E-5,0,0,0,1580346,185587,84196,50217,217464,70959,16746196,17125,Tag0,unknown
1605702849003,200,96,2.109375E-5,0,0,0,1580346,185587,84196,50217,217464,70959,16746196,17125,Tag0,unknown
1605702849017,200,214,4.7021484375E-5,0,0,0,1580346,185587,84196,50217,217464,70959,16746196,17125,Tag0,unknown
1605702849037,200,-317,-6.96533203125E-5,0,0,0,1580346,185587,84196,50217,217464,70959,16746196,17125,Tag0,unknown
1605702849051,200,-101,-2.2192382812500002E-5,0,0,0,1580346,185587,84196,50217,217464,70959,16746196,17125,Tag0,unknown
1605702849078,200,97,2.13134765625E-5,0,0,0,1580346,185587,84196,50217,217464,70959,16746196,17125,Tag0,unknown
1605702849088,200,-1605,-3.526611328125E-4,0,0,0,1580346,185587,84196,50217,217464,70959,16746196,17125,Tag0,unknown
1605702849112,200,-2053,-4.5109863281250003E-4,0,0,0,1580346,185587,84196,50217,217464,70959,16746196,17125,Tag0,unknown
1605702849122,200,-1771,-3.891357421875E-4,0,0,0,1580346,185587,84196,50217,217464,70959,16746196,17125,Tag0,unknown
1605702849134,200,-2048,-4.5E-4,0,0,0,1580346,185587,84196,50217,217464,70959,16746196,17125,Tag0,unknown
1605702849155,200,-1685,-3.702392578125E-4,0,0,0,1580346,185587,84196,50217,217464,70959,16746196,17125,Tag0,unknown
1605702849187,200,-1013,-2.2258300781250002E-4,0,0,0,1580346,185587,84196,50217,217464,70959,16746196,17125,Tag0,unknown
1605702849202,200,-936,-2.0566406249999998E-4,0,0,0,1580346,185587,84196,50217,217464,70959,16746196,17125,Tag0,unknown
1605702849212,200,-425,-9.33837890625E-5,0,0,0,1580346,185587,84196,50217,217464,70959,16746196,17125,Tag0,unknown
1605702849225,200,-614,-1.34912109375E-4,0,0,0,1580346,185587,84196,50217,217464,70959,16746196,17125,Tag0,unknown
1605702849236,200,-598,-1.31396484375E-4,0,0,0,1580346,185587,84196,50217,217464,70959,16746196,17125,Tag0,unknown
1605702849258,200,-203,-4.460449218750001E-5,0,0,0,1580346,185587,84196,50217,217464,70959,16746196,17125,Tag0,unknown
1605702849269,200,-185,-4.06494140625E-5,0,0,0,1580346,185587,84196,50217,217464,70959,16746196,17125,Tag0,unknown
1605702849289,200,-355,-7.80029296875E-5,0,0,0,1580346,185587,84196,50217,217464,70959,16746196,17125,Tag0,unknown
1605702849308,200,150,3.2958984375E-5,0,0,0,1580346,185587,84196,50217,217464,70959,16746196,17125,Tag0,unknown
1605702849323,200,448,9.84375E-5,0,0,0,1580346,185587,84196,50217,217464,70959,16746196,17125,Tag0,unknown
1605702849357,200,1791,3.935302734375E-4,0,0,0,1580346,185587,84196,50217,217464,70959,16746196,17125,Tag0,unknown
1605702849368,200,1791,3.935302734375E-4,0,0,0,1580346,185587,84196,50217,217464,70959,16746196,17125,Tag0,unknown
1605702849395,200,992,2.1796875E-4,0,0,0,1580346,185587,84196,50217,217464,70959,16746196,17125,Tag0,unknown
1605702849405,200,1122,2.46533203125E-4,0,0,0,1580346,185587,84196,50217,217464,70959,16746196,17125,Tag0,unknown
1605702849428,200,792,1.7402343750000002E-4,0,0,0,1580346,185587,84196,50217,217464,70959,16746196,17125,Tag0,unknown
1605702849438,200,437,9.602050781250001E-5,0,0,0,1580346,185587,84196,50217,217464,70959,16746196,17125,Tag0,unknown
1605702849453,200,531,1.1667480468750001E-4,0,0,0,1580346,185587,84196,50217,217464,70959,16746196,17125,Tag0,unknown
1605702849476,200,352,7.734375E-5,0,0,0,1580346,185587,84196,50217,217464,70959,16746196,17125,Tag0,unknown
1605702849486,200,331,7.272949218750001E-5,0,0,0,1580346,185587,84196,50217,217464,70959,16746196,17125,Tag0,unknown
1605702849514,200,-55,-1.20849609375E-5,0,0,0,891694,16769654,70697,16748233,79193,23655,25387,13676,Tag0,unknown
1605702849524,200,-91,-1.99951171875E-5,0,0,0,891694,16769654,70697,16748233,79193,23655,25387,13676,Tag0,unknown
1605702849551,200,-107,-2.35107421875E-5,0,0,0,891694,16769654,70697,16748233,79193,23655,25387,13676,Tag0,unknown
1605702849569,200,-112,-2.4609375E-5,0,0,0,891694,16769654,70697,16748233,79193,23655,25387,13676,Tag0,unknown
1605702849579,200,87,1.91162109375E-5,0,0,0,891694,16769654,70697,16748233,79193,23655,25387,13676,Tag0,unknown
1605702849590,200,-249,-5.47119140625E-5,0,0,0,891694,16769654,70697,16748233,79193,23655,25387,13676,Tag0,unknown
1605702849603,200,-529,-1.162353515625E-4,0,0,0,891694,16769654,70697,16748233,79193,23655,25387,13676,Tag0,unknown
1605702849613,200,-485,-1.065673828125E-4,0,0,0,891694,16769654,70697,16748233,79193,23655,25387,13676,Tag0,unknown
1605702849636,200,-1045,-2.296142578125E-4,0,0,0,891694,16769654,70697,16748233,79193,23655,25387,13676,Tag0,unknown
1605702849653,200,-844,-1.8544921875E-4,0,0,0,891694,16769654,70697,16748233,79193,23655,25387,13676,Tag0,unknown
1605702849672,200,-273,-5.998535156250001E-5,0,0,0,891694,16769654,70697,16748233,79193,23655,25387,13676,Tag0,unknown
1605702849682,200,-625,-1.373291015625E-4,0,0,0,891694,16769654,70697,16748233,79193,23655,25387,13676,Tag0,unknown
1605702849696,200,-506,-1.11181640625E-4,0,0,0,891694,16769654,70697,16748233,79193,23655,25387,13676,Tag0,unknown
1605702849708,200,39,8.5693359375E-6,0,0,0,891694,16769654,70697,16748233,79193,23655,25387,13676,Tag0,unknown
1605702849742,200,279,6.13037109375E-5,0,0,0,891694,16769654,70697,16748233,79193,23655,25387,13676,Tag0,unknown
1605702849752,200,-165,-3.62548828125E-5,0,0,0,891694,16769654,70697,16748233,79193,23655,25387,13676,Tag0,unknown
1605702849781,200,99,2.1752929687500003E-5,0,0,0,891694,16769654,70697,16748233,79193,23655,25387,13676,Tag0,unknown
1605702849791,200,18,3.955078125E-6,0,0,0,891694,16769654,70697,16748233,79193,23655,25387,13676,Tag0,unknown
1605702849815,200,-305,-6.70166015625E-5,0,0,0,891694,16769654,70697,16748233,79193,23655,25387,13676,Tag0,unknown
1605702849825,200,-92,-2.021484375E-5,0,0,0,891694,16769654,70697,16748233,79193,23655,25387,13676,Tag0,unknown
1605702849851,200,-1044,-2.2939453125E-4,0,0,0,891694,16769654,70697,16748233,79193,23655,25387,13676,Tag0,unknown
1605702849870,200,-791,-1.738037109375E-4,0,0,0,891694,16769654,70697,16748233,79193,23655,25387,13676,Tag0,unknown
1605702849887,200,-1624,-3.5683593750000006E-4,0,0,0,891694,16769654,70697,16748233,79193,23655,25387,13676,Tag0,unknown
1605702849906,200,-388,-8.525390625E-5,0,0,0,891694,16769654,70697,16748233,79193,23655,25387,13676,Tag0,unknown
1605702849926,200,-35,-7.6904296875E-6,0,0,0,891694,16769654,70697,16748233,79193,23655,25387,13676,Tag0,unknown
1605702849936,200,156,3.427734375E-5,0,0,0,891694,16769654,70697,16748233,79193,23655,25387,13676,Tag0,unknown
1605702849957,200,372,8.173828125E-5,0,0,0,891694,16769654,70697,16748233,79193,23655,25387,13676,Tag0,unknown
1605702849972,200,-29,-6.3720703125E-6,0,0,0,891694,16769654,70697,16748233,79193,23655,25387,13676,Tag0,unknown
1605702849982,200,-229,-5.03173828125E-5,0,0,0,891694,16769654,70697,16748233,79193,23655,25387,13676,Tag0,unknown
1605702849995,200,2,4.39453125E-7,0,0,0,891694,16769654,70697,16748233,79193,23655,25387,13676,Tag0,unknown
1605702850005,200,-471,-1.0349121093750001E-4,0,0,0,891694,16769654,70697,16748233,79193,23655,25387,13676,Tag0,unknown
1605702850028,200,-357,-7.844238281250001E-5,0,0,0,891694,16769654,70697,16748233,79193,23655,25387,13676,Tag0,unknown
1605702850045,200,-426,-9.3603515625E-5,0,0,0,891694,16769654,70697,16748233,79193,23655,25387,13676,Tag0,unknown
1605702850055,200,-71,-1.56005859375E-5,0,0,0,891694,16769654,70697,16748233,79193,23655,25387,13676,Tag0,unknown
1605702850067,200,-103,-2.26318359375E-5,0,0,0,891694,16769654,70697,16748233,79193,23655,25387,13676,Tag0,unknown
1605702850087,200,27,5.9326171875000005E-6,0,0,0,891694,16769654,70697,16748233,79193,23655,25387,13676,Tag0,unknown
1605702850105,200,-379,-8.32763671875E-5,0,0,0,891694,16769654,70697,16748233,79193,23655,25387,13676,Tag0,unknown
1605702850121,200,-270,-5.9326171875E-5,0,0,0,891694,16769654,70697,16748233,79193,23655,25387,13676,Tag0,unknown
1605702850145,200,-243,-5.33935546875E-5,0,0,0,891694,16769654,70697,16748233,79193,23655,25387,13676,Tag0,unknown
1605702850181,200,-148,-3.251953125E-5,0,0,0,891694,16769654,70697,16748233,79193,23655,25387,13676,Tag0,unknown
1605702850191,200,-280,-6.15234375E-5,0,0,0,891694,16769654,70697,16748233,79193,23655,25387,13676,Tag0,unknown
1605702850217,200,-92,-2.021484375E-5,0,0,0,891694,16769654,70697,16748233,79193,23655,25387,13676,Tag0,unknown
1605702850227,200,519,1.140380859375E-4,0,0,0,891694,16769654,70697,16748233,79193,23655,25387,13676,Tag0,unknown
1605702850251,200,333,7.316894531249999E-5,0,0,0,891694,16769654,70697,16748233,79193,23655,25387,13676,Tag0,unknown
1605702850270,200,23,5.0537109375E-6,0,0,0,891694,16769654,70697,16748233,79193,23655,25387,13676,Tag0,unknown
1605702850288,200,166,3.6474609375E-5,0,0,0,891694,16769654,70697,16748233,79193,23655,25387,13676,Tag0,unknown
1605702850315,200,-45,-9.8876953125E-6,0,0,0,891694,16769654,70697,16748233,79193,23655,25387,13676,Tag0,unknown
1605702850325,200,-347,-7.62451171875E-5,0,0,0,891694,16769654,70697,16748233,79193,23655,25387,13676,Tag0,unknown
1605702850352,200,-529,-1.162353515625E-4,0,0,0,891694,16769654,70697,16748233,79193,23655,25387,13676,Tag0,unknown
1605702850372,200,-179,-3.93310546875E-5,0,0,0,891694,16769654,70697,16748233,79193,23655,25387,13676,Tag0,unknown
1605702850382,200,-247,-5.42724609375E-5,0,0,0,891694,16769654,70697,16748233,79193,23655,25387,13676,Tag0,unknown
1605702850397,200,-312,-6.85546875E-5,0,0,0,891694,16769654,70697,16748233,79193,23655,25387,13676,Tag0,unknown
1605702850407,200,-169,-3.7133789062499996E-5,0,0,0,891694,16769654,70697,16748233,79193,23655,25387,13676,Tag0,unknown
1605702850424,200,-295,-6.48193359375E-5,0,0,0,891694,16769654,70697,16748233,79193,23655,25387,13676,Tag0,unknown
1605702850438,200,-609,-1.338134765625E-4,0,0,0,891694,16769654,70697,16748233,79193,23655,25387,13676,Tag0,unknown
1605702850462,200,-245,-5.38330078125E-5,0,0,0,891694,16769654,70697,16748233,79193,23655,25387,13676,Tag0,unknown
1605702850472,200,283,6.218261718750001E-5,0,0,0,891694,16769654,70697,16748233,79193,23655,25387,13676,Tag0,unknown
1605702850482,200,21,4.614257812500001E-6,0,0,0,891694,16769654,70697,16748233,79193,23655,25387,13676,Tag0,unknown
1605702850503,200,103,2.26318359375E-5,0,0,0,1868430,406544,16756706,118663,16768674,150293,21462,8701,Tag0,unknown
1605702850521,200,-289,-6.35009765625E-5,0,0,0,1868430,406544,16756706,118663,16768674,150293,21462,8701,Tag0,unknown
1605702850538,200,-80,-1.7578125E-5,0,0,0,1868430,406544,16756706,118663,16768674,150293,21462,8701,Tag0,unknown
1605702850555,200,-100,-2.197265625E-5,0,0,0,1868430,406544,16756706,118663,16768674,150293,21462,8701,Tag0,unknown
1605702850565,200,97,2.13134765625E-5,0,0,0,1868430,406544,16756706,118663,16768674,150293,21462,8701,Tag0,unknown
1605702850580,200,280,6.15234375E-5,0,0,0,1868430,406544,16756706,118663,16768674,150293,21462,8701,Tag0,unknown
1605702850590,200,-345,-7.58056640625E-5,0,0,0,1868430,406544,16756706,118663,16768674,150293,21462,8701,Tag0,unknown
1605702850604,200,106,2.3291015625000003E-5,0,0,0,1868430,406544,16756706,118663,16768674,150293,21462,8701,Tag0,unknown
1605702850621,200,299,6.56982421875E-5,0,0,0,1868430,406544,16756706,118663,16768674,150293,21462,8701,Tag0,unknown
1605702850653,200,121,2.6586914062500003E-5,0,0,0,1868430,406544,16756706,118663,16768674,150293,21462,8701,Tag0,unknown
1605702850671,200,192,4.21875E-5,0,0,0,1868430,406544,16756706,118663,16768674,150293,21462,8701,Tag0,unknown
1605702850694,200,-53,-1.1645507812500002E-5,0,0,0,1868430,406544,16756706,118663,16768674,150293,21462,8701,Tag0,unknown
1605702850710,200,251,5.5151367187500004E-5,0,0,0,1868430,406544,16756706,118663,16768674,150293,21462,8701,Tag0,unknown
1605702850720,200,-90,-1.9775390625E-5,0,0,0,1868430,406544,16756706,118663,16768674,150293,21462,8701,Tag0,unknown
1605702850731,200,-244,-5.361328125E-5,0,0,0,1868430,406544,16756706,118663,16768674,150293,21462,8701,Tag0,unknown
1605702850741,200,-134,-2.9443359375000003E-5,0,0,0,1868430,406544,16756706,118663,16768674,150293,21462,8701,Tag0,unknown
1605702850765,200,-337,-7.40478515625E-5,0,0,0,1868430,406544,16756706,118663,16768674,150293,21462,8701,Tag0,unknown
1605702850775,200,315,6.92138671875E-5,0,0,0,1868430,406544,16756706,118663,16768674,150293,21462,8701,Tag0,unknown
1605702850801,200,74,1.6259765625E-5,0,0,0,1868430,406544,16756706,118663,16768674,150293,21462,8701,Tag0,unknown
1605702850811,200,-317,-6.96533203125E-5,0,0,0,1868430,406544,16756706,118663,16768674,150293,21462,8701,Tag0,unknown
1605702850841,200,-45,-9.8876953125E-6,0,0,0,1868430,406544,16756706,118663,16768674,150293,21462,8701,Tag0,unknown
1605702850857,200,-348,-7.646484375E-5,0,0,0,1868430,406544,16756706,118663,16768674,150293,21462,8701,Tag0,unknown
1605702850880,200,341,7.492675781250002E-5,0,0,0,1868430,406544,16756706,118663,16768674,150293,21462,8701,Tag0,unknown
1605702850890,200,-168,-3.691406250000001E-5,0,0,0,1868430,406544,16756706,118663,16768674,150293,21462,8701,Tag0,unknown
1605702850915,200,146,3.2080078125000004E-5,0,0,0,1868430,406544,16756706,118663,16768674,150293,21462,8701,Tag0,unknown
1605702850925,200,10,2.197265625E-6,0,0,0,1868430,406544,16756706,118663,16768674,150293,21462,8701,Tag0,unknown
1605702850948,200,-263,-5.7788085937500005E-5,0,0,0,1868430,406544,16756706,118663,16768674,150293,21462,8701,Tag0,unknown
1605702850958,200,-290,-6.3720703125E-5,0,0,0,1868430,406544,16756706,118663,16768674,150293,21462,8701,Tag0,unknown
1605702850968,200,-294,-6.4599609375E-5,0,0,0,1868430,406544,16756706,118663,16768674,150293,21462,8701,Tag0,unknown
1605702850984,200,-120,-2.63671875E-5,0,0,0,1868430,406544,16756706,118663,16768674,150293,21462,8701,Tag0,unknown
1605702850994,200,-10,-2.197265625E-6,0,0,0,1868430,406544,16756706,118663,16768674,150293,21462,8701,Tag0,unknown
1605702851018,200,-37,-8.1298828125E-6,0,0,0,1868430,406544,16756706,118663,16768674,150293,21462,8701,Tag0,unknown
1605702851028,200,474,1.0415039062500001E-4,0,0,0,1868430,406544,16756706,118663,16768674,150293,21462,8701,Tag0,unknown
1605702851057,200,342,7.5146484375E-5,0,0,0,1868430,406544,16756706,118663,16768674,150293,21462,8701,Tag0,unknown
1605702851073,200,829,1.821533203125E-4,0,0,0,1868430,406544,16756706,118663,16768674,150293,21462,8701,Tag0,unknown
1605702851092,200,-48,-1.0546875E-5,0,0,0,1868430,406544,16756706,118663,16768674,150293,21462,8701,Tag0,unknown
1605702851108,200,233,5.1196289062500006E-5,0,0,0,1868430,406544,16756706,118663,16768674,150293,21462,8701,Tag0,unknown
1605702851118,200,996,2.1884765625E-4,0,0,0,1868430,406544,16756706,118663,16768674,150293,21462,8701,Tag0,unknown
1605702851131,200,768,1.6875E-4,0,0,0,1868430,406544,16756706,118663,16768674,150293,21462,8701,Tag0,unknown
1605702851141,200,555,1.219482421875E-4,0,0,0,1868430,406544,16756706,118663,16768674,150293,21462,8701,Tag0,unknown
1605702851165,200,471,1.0349121093750001E-4,0,0,0,1868430,406544,16756706,118663,16768674,150293,21462,8701,Tag0,unknown
1605702851175,200,440,9.66796875E-5,0,0,0,1868430,406544,16756706,118663,16768674,150293,21462,8701,Tag0,unknown
1605702851204,200,245,5.38330078125E-5,0,0,0,1868430,406544,16756706,118663,16768674,150293,21462,8701,Tag0,unknown
1605702851237,200,-71,-1.56005859375E-5,0,0,0,1868430,406544,16756706,118663,16768674,150293,21462,8701,Tag0,unknown
1605702851247,200,14,3.076171875E-6,0,0,0,1868430,406544,16756706,118663,16768674,150293,21462,8701,Tag0,unknown
1605702851275,200,-57,-1.2524414062500001E-5,0,0,0,1868430,406544,16756706,118663,16768674,150293,21462,8701,Tag0,unknown
1605702851290,200,313,6.87744140625E-5,0,0,0,1868430,406544,16756706,118663,16768674,150293,21462,8701,Tag0,unknown
1605702851308,200,109,2.39501953125E-5,0,0,0,1868430,406544,16756706,118663,16768674,150293,21462,8701,Tag0,unknown
1605702851324,200,80,1.7578125E-5,0,0,0,1868430,406544,16756706,118663,16768674,150293,21462,8701,Tag0,unknown
1605702851334,200,-297,-6.525878906250001E-5,0,0,0,1868430,406544,16756706,118663,16768674,150293,21462,8701,Tag0,unknown
1605702851351,200,-225,-4.94384765625E-5,0,0,0,1868430,406544,16756706,118663,16768674,150293,21462,8701,Tag0,unknown
1605702851361,200,59,1.29638671875E-5,0,0,0,1868430,406544,16756706,118663,16768674,150293,21462,8701,Tag0,unknown
1605702851387,200,-619,-1.360107421875E-4,0,0,0,1868430,406544,16756706,118663,16768674,150293,21462,8701,Tag0,unknown
1605702851397,200,-427,-9.382324218750001E-5,0,0,0,1868430,406544,16756706,118663,16768674,150293,21462,8701,Tag0,unknown
1605702851407,200,-603,-1.3249511718750002E-4,0,0,0,1868430,406544,16756706,118663,16768674,150293,21462,8701,Tag0,unknown
1605702851436,200,-577,-1.2678222656250002E-4,0,0,0,1868430,406544,16756706,118663,16768674,150293,21462,8701,Tag0,unknown
1605702851446,200,-1116,-2.4521484375E-4,0,0,0,1868430,406544,16756706,118663,16768674,150293,21462,8701,Tag0,unknown
1605702851475,200,-354,-7.778320312500001E-5,0,0,0,1868430,406544,16756706,118663,16768674,150293,21462,8701,Tag0,unknown
1605702851494,200,-839,-1.843505859375E-4,0,0,0,1868430,406544,16756706,118663,16768674,150293,21462,8701,Tag0,unknown
1605702851504,200,-1275,-2.801513671875E-4,0,0,0,478230,13035,1933,16473,5524,5139,2932,1113,Tag0,unknown
1605702851519,200,-1175,-2.581787109375E-4,0,0,0,478230,13035,1933,16473,5524,5139,2932,1113,Tag0,unknown
1605702851561,200,-1864,-4.0957031250000005E-4,0,0,0,478230,13035,1933,16473,5524,5139,2932,1113,Tag0,unknown
1605702851576,200,-1522,-3.34423828125E-4,0,0,0,478230,13035,1933,16473,5524,5139,2932,1113,Tag0,unknown
1605702851607,200,-1221,-2.682861328125E-4,0,0,0,478230,13035,1933,16473,5524,5139,2932,1113,Tag0,unknown
1605702851626,200,-1384,-3.041015625E-4,0,0,0,478230,13035,1933,16473,5524,5139,2932,1113,Tag0,unknown
1605702851643,200,-726,-1.59521484375E-4,0,0,0,478230,13035,1933,16473,5524,5139,2932,1113,Tag0,unknown
1605702851660,200,-439,-9.64599609375E-5,0,0,0,478230,13035,1933,16473,5524,5139,2932,1113,Tag0,unknown
1605702851670,200,1382,3.03662109375E-4,0,0,0,478230,13035,1933,16473,5524,5139,2932,1113,Tag0,unknown
1605702851688,200,1791,3.935302734375E-4,0,0,0,478230,13035,1933,16473,5524,5139,2932,1113,Tag0,unknown
1605702851698,200,1791,3.935302734375E-4,0,0,0,478230,13035,1933,16473,5524,5139,2932,1113,Tag0,unknown
1605702851729,200,-1963,-4.313232421875E-4,0,0,0,478230,13035,1933,16473,5524,5139,2932,1113,Tag0,unknown
1605702851743,200,-2073,-4.5549316406250003E-4,0,0,0,478230,13035,1933,16473,5524,5139,2932,1113,Tag0,unknown
1605702851764,200,-1187,-2.608154296875E-4,0,0,0,478230,13035,1933,16473,5524,5139,2932,1113,Tag0,unknown
1605702851779,200,-973,-2.137939453125E-4,0,0,0,478230,13035,1933,16473,5524,5139,2932,1113,Tag0,unknown
1605702851789,200,-805,-1.768798828125E-4,0,0,0,478230,13035,1933,16473,5524,5139,2932,1113,Tag0,unknown
1605702851802,200,-195,-4.28466796875E-5,0,0,0,478230,13035,1933,16473,5524,5139,2932,1113,Tag0,unknown
1605702851812,200,-344,-7.558593750000001E-5,0,0,0,478230,13035,1933,16473,5524,5139,2932,1113,Tag0,unknown
1605702851836,200,1791,3.935302734375E-4,0,0,0,478230,13035,1933,16473,5524,5139,2932,1113,Tag0,unknown
1605702851846,200,1791,3.935302734375E-4,0,0,0,478230,13035,1933,16473,5524,5139,2932,1113,Tag0,unknown
1605702851861,200,1791,3.935302734375E-4,0,0,0,478230,13035,1933,16473,5524,5139,2932,1113,Tag0,unknown
1605702851877,200,1780,3.9111328125E-4,0,0,0,478230,13035,1933,16473,5524,5139,2932,1113,Tag0,unknown
1605702851909,200,1285,2.823486328125E-4,0,0,0,478230,13035,1933,16473,5524,5139,2932,1113,Tag0,unknown
1605702851927,200,940,2.0654296875E-4,0,0,0,478230,13035,1933,16473,5524,5139,2932,1113,Tag0,unknown
1605702851937,200,387,8.50341796875E-5,0,0,0,478230,13035,1933,16473,5524,5139,2932,1113,Tag0,unknown
1605702851951,200,545,1.197509765625E-4,0,0,0,478230,13035,1933,16473,5524,5139,2932,1113,Tag0,unknown
1605702851962,200,253,5.55908203125E-5,0,0,0,478230,13035,1933,16473,5524,5139,2932,1113,Tag0,unknown
1605702851985,200,371,8.151855468750001E-5,0,0,0,478230,13035,1933,16473,5524,5139,2932,1113,Tag0,unknown
1605702851995,200,347,7.62451171875E-5,0,0,0,478230,13035,1933,16473,5524,5139,2932,1113,Tag0,unknown
1605702852023,200,-2048,-4.5E-4,0,0,0,478230,13035,1933,16473,5524,5139,2932,1113,Tag0,unknown
1605702852033,200,-1752,-3.849609375E-4,0,0,0,478230,13035,1933,16473,5524,5139,2932,1113,Tag0,unknown
1605702852057,200,-659,-1.4479980468750002E-4,0,0,0,478230,13035,1933,16473,5524,5139,2932,1113,Tag0,unknown
1605702852078,200,-565,-1.241455078125E-4,0,0,0,478230,13035,1933,16473,5524,5139,2932,1113,Tag0,unknown
1605702852088,200,-1549,-3.4035644531250003E-4,0,0,0,478230,13035,1933,16473,5524,5139,2932,1113,Tag0,unknown
1605702852102,200,-1125,-2.471923828125E-4,0,0,0,478230,13035,1933,16473,5524,5139,2932,1113,Tag0,unknown
1605702852127,200,-505,-1.109619140625E-4,0,0,0,478230,13035,1933,16473,5524,5139,2932,1113,Tag0,unknown
1605702852146,200,-475,-1.043701171875E-4,0,0,0,478230,13035,1933,16473,5524,5139,2932,1113,Tag0,unknown
1605702852156,200,-227,-4.98779296875E-5,0,0,0,478230,13035,1933,16473,5524,5139,2932,1113,Tag0,unknown
1605702852169,200,-165,-3.62548828125E-5,0,0,0,478230,13035,1933,16473,5524,5139,2932,1113,Tag0,unknown
1605702852179,200,-149,-3.27392578125E-5,0,0,0,478230,13035,1933,16473,5524,5139,2932,1113,Tag0,unknown
1605702852202,200,-318,-6.9873046875E-5,0,0,0,478230,13035,1933,16473,5524,5139,2932,1113,Tag0,unknown
1605702852212,200,56,1.23046875E-5,0,0,0,478230,13035,1933,16473,5524,5139,2932,1113,Tag0,unknown
1605702852240,200,804,1.7666015625E-4,0,0,0,478230,13035,1933,16473,5524,5139,2932,1113,Tag0,unknown
1605702852250,200,812,1.7841796875000003E-4,0,0,0,478230,13035,1933,16473,5524,5139,2932,1113,Tag0,unknown
1605702852274,200,1251,2.7487792968750003E-4,0,0,0,478230,13035,1933,16473,5524,5139,2932,1113,Tag0,unknown
1605702852285,200,1245,2.735595703125E-4,0,0,0,478230,13035,1933,16473,5524,5139,2932,1113,Tag0,unknown
1605702852295,200,1296,2.84765625E-4,0,0,0,478230,13035,1933,16473,5524,5139,2932,1113,Tag0,unknown
1605702852316,200,1003,2.2038574218750001E-4,0,0,0,478230,13035,1933,16473,5524,5139,2932,1113,Tag0,unknown
1605702852329,200,759,1.667724609375E-4,0,0,0,478230,13035,1933,16473,5524,5139,2932,1113,Tag0,unknown
1605702852372,200,640,1.40625E-4,0,0,0,478230,13035,1933,16473,5524,5139,2932,1113,Tag0,unknown
1605702852382,200,364,7.998046875E-5,0,0,0,478230,13035,1933,16473,5524,5139,2932,1113,Tag0,unknown
1605702852397,200,619,1.360107421875E-4,0,0,0,478230,13035,1933,16473,5524,5139,2932,1113,Tag0,unknown
1605702852422,200,373,8.19580078125E-5,0,0,0,478230,13035,1933,16473,5524,5139,2932,1113,Tag0,unknown
1605702852434,200,-44,-9.66796875E-6,0,0,0,478230,13035,1933,16473,5524,5139,2932,1113,Tag0,unknown
1605702852444,200,-371,-8.151855468750001E-5,0,0,0,478230,13035,1933,16473,5524,5139,2932,1113,Tag0,unknown
1605702852502,200,-154,-3.3837890625E-5,0,0,0,478230,13035,1933,16473,5524,5139,2932,1113,Tag0,unknown
1605702852516,200,83,1.82373046875E-5,0,0,0,478230,13035,1933,16473,5524,5139,2932,1113,Tag0,unknown
1605702852526,200,-273,-5.998535156250001E-5,0,0,0,478230,13035,1933,16473,5524,5139,2932,1113,Tag0,unknown
1605702852642,200,-127,-2.79052734375E-5,0,0,0,478230,13035,1933,16473,5524,5139,2932,1113,Tag0,unknown
1605702852657,200,72,1.58203125E-5,0,0,0,478230,13035,1933,16473,5524,5139,2932,1113,Tag0,unknown
1605702852667,200,21,4.614257812500001E-6,0,0,0,239327,77585,70491,30885,31221,16776734,16769678,29509,Tag0,unknown
1605702852707,200,-325,-7.14111328125E-5,0,0,0,239327,77585,70491,30885,31221,16776734,16769678,29509,Tag0,unknown
1605702852717,200,103,2.26318359375E-5,0,0,0,239327,77585,70491,30885,31221,16776734,16769678,29509,Tag0,unknown
1605702852777,200,-344,-7.558593750000001E-5,0,0,0,239327,77585,70491,30885,31221,16776734,16769678,29509,Tag0,unknown
1605702852806,200,-267,-5.86669921875E-5,0,0,0,239327,77585,70491,30885,31221,16776734,16769678,29509,Tag0,unknown
1605702852816,200,-107,-2.35107421875E-5,0,0,0,239327,77585,70491,30885,31221,16776734,16769678,29509,Tag0,unknown
1605702852846,200,42,9.228515625000002E-6,0,0,0,239327,77585,70491,30885,31221,16776734,16769678,29509,Tag0,unknown
1605702852866,200,21,4.614257812500001E-6,0,0,0,239327,77585,70491,30885,31221,16776734,16769678,29509,Tag0,unknown
1605702852913,200,19,4.1748046875E-6,0,0,0,239327,77585,70491,30885,31221,16776734,16769678,29509,Tag0,unknown
1605702852933,200,97,2.13134765625E-5,0,0,0,239327,77585,70491,30885,31221,16776734,16769678,29509,Tag0,unknown
1605702852980,200,91,1.99951171875E-5,0,0,0,239327,77585,70491,30885,31221,16776734,16769678,29509,Tag0,unknown
1605702853000,200,-170,-3.7353515625E-5,0,0,0,239327,77585,70491,30885,31221,16776734,16769678,29509,Tag0,unknown
1605702853048,200,-73,-1.6040039062500002E-5,0,0,0,239327,77585,70491,30885,31221,16776734,16769678,29509,Tag0,unknown
1605702853067,200,75,1.64794921875E-5,0,0,0,239327,77585,70491,30885,31221,16776734,16769678,29509,Tag0,unknown
1605702853077,200,41,9.008789062499999E-6,0,0,0,239327,77585,70491,30885,31221,16776734,16769678,29509,Tag0,unknown
1605702853087,200,288,6.328125E-5,0,0,0,239327,77585,70491,30885,31221,16776734,16769678,29509,Tag0,unknown
1605702853097,200,-41,-9.008789062499999E-6,0,0,0,239327,77585,70491,30885,31221,16776734,16769678,29509,Tag0,unknown
1605702853107,200,277,6.0864257812500005E-5,0,0,0,239327,77585,70491,30885,31221,16776734,16769678,29509,Tag0,unknown
1605702853117,200,547,1.201904296875E-4,0,0,0,239327,77585,70491,30885,31221,16776734,16769678,29509,Tag0,unknown
1605702853132,200,603,1.3249511718750002E-4,0,0,0,239327,77585,70491,30885,31221,16776734,16769678,29509,Tag0,unknown
1605702853165,200,576,1.265625E-4,0,0,0,239327,77585,70491,30885,31221,16776734,16769678,29509,Tag0,unknown
1605702853183,200,268,5.8886718750000006E-5,0,0,0,239327,77585,70491,30885,31221,16776734,16769678,29509,Tag0,unknown
1605702853201,200,429,9.42626953125E-5,0,0,0,239327,77585,70491,30885,31221,16776734,16769678,29509,Tag0,unknown
1605702853218,200,785,1.724853515625E-4,0,0,0,239327,77585,70491,30885,31221,16776734,16769678,29509,Tag0,unknown
1605702853237,200,150,3.2958984375E-5,0,0,0,239327,77585,70491,30885,31221,16776734,16769678,29509,Tag0,unknown
1605702853250,200,-21,-4.614257812500001E-6,0,0,0,239327,77585,70491,30885,31221,16776734,16769678,29509,Tag0,unknown
1605702853271,200,-110,-2.4169921875E-5,0,0,0,239327,77585,70491,30885,31221,16776734,16769678,29509,Tag0,unknown
1605702853286,200,120,2.63671875E-5,0,0,0,239327,77585,70491,30885,31221,16776734,16769678,29509,Tag0,unknown
1605702853296,200,-171,-3.75732421875E-5,0,0,0,239327,77585,70491,30885,31221,16776734,16769678,29509,Tag0,unknown
1605702853315,200,-358,-7.8662109375E-5,0,0,0,239327,77585,70491,30885,31221,16776734,16769678,29509,Tag0,unknown
1605702853334,200,-92,-2.021484375E-5,0,0,0,239327,77585,70491,30885,31221,16776734,16769678,29509,Tag0,unknown
1605702853344,200,-631,-1.386474609375E-4,0,0,0,239327,77585,70491,30885,31221,16776734,16769678,29509,Tag0,unknown
1605702853355,200,-413,-9.07470703125E-5,0,0,0,239327,77585,70491,30885,31221,16776734,16769678,29509,Tag0,unknown
1605702853368,200,-221,-4.85595703125E-5,0,0,0,239327,77585,70491,30885,31221,16776734,16769678,29509,Tag0,unknown
1605702853389,200,-372,-8.173828125E-5,0,0,0,239327,77585,70491,30885,31221,16776734,16769678,29509,Tag0,unknown
1605702853401,200,-121,-2.6586914062500003E-5,0,0,0,239327,77585,70491,30885,31221,16776734,16769678,29509,Tag0,unknown
1605702853411,200,199,4.3725585937499995E-5,0,0,0,239327,77585,70491,30885,31221,16776734,16769678,29509,Tag0,unknown
1605702853421,200,203,4.460449218750001E-5,0,0,0,239327,77585,70491,30885,31221,16776734,16769678,29509,Tag0,unknown
1605702853434,200,-125,-2.74658203125E-5,0,0,0,239327,77585,70491,30885,31221,16776734,16769678,29509,Tag0,unknown
1605702853451,200,-377,-8.28369140625E-5,0,0,0,239327,77585,70491,30885,31221,16776734,16769678,29509,Tag0,unknown
1605702853474,200,-252,-5.537109375E-5,0,0,0,239327,77585,70491,30885,31221,16776734,16769678,29509,Tag0,unknown
1605702853485,200,-572,-1.2568359375E-4,0,0,0,239327,77585,70491,30885,31221,16776734,16769678,29509,Tag0,unknown
1605702853495,200,2,4.39453125E-7,0,0,0,239327,77585,70491,30885,31221,16776734,16769678,29509,Tag0,unknown
1605702853510,200,-353,-7.75634765625E-5,0,0,0,1059850,90015,16752918,20818,25125,21572,5959,3440,Tag0,unknown
1605702853520,200,-341,-7.492675781250002E-5,0,0,0,1059850,90015,16752918,20818,25125,21572,5959,3440,Tag0,unknown
1605702853550,200,-597,-1.3117675781250003E-4,0,0,0,1059850,90015,16752918,20818,25125,21572,5959,3440,Tag0,unknown
1605702853567,200,-249,-5.47119140625E-5,0,0,0,1059850,90015,16752918,20818,25125,21572,5959,3440,Tag0,unknown
1605702853577,200,-86,-1.8896484375000003E-5,0,0,0,1059850,90015,16752918,20818,25125,21572,5959,3440,Tag0,unknown
1605702853591,200,-372,-8.173828125E-5,0,0,0,1059850,90015,16752918,20818,25125,21572,5959,3440,Tag0,unknown
1605702853603,200,-69,-1.51611328125E-5,0,0,0,1059850,90015,16752918,20818,25125,21572,5959,3440,Tag0,unknown
1605702853624,200,-311,-6.833496093750001E-5,0,0,0,1059850,90015,16752918,20818,25125,21572,5959,3440,Tag0,unknown
1605702853636,200,-70,-1.5380859375E-5,0,0,0,1059850,90015,16752918,20818,25125,21572,5959,3440,Tag0,unknown
1605702853646,200,-289,-6.35009765625E-5,0,0,0,1059850,90015,16752918,20818,25125,21572,5959,3440,Tag0,unknown
1605702853672,200,20,4.39453125E-6,0,0,0,1059850,90015,16752918,20818,25125,21572,5959,3440,Tag0,unknown
1605702853685,200,85,1.86767578125E-5,0,0,0,1059850,90015,16752918,20818,25125,21572,5959,3440,Tag0,unknown
1605702853703,200,-556,-1.2216796875000002E-4,0,0,0,1059850,90015,16752918,20818,25125,21572,5959,3440,Tag0,unknown
1605702853720,200,-785,-1.724853515625E-4,0,0,0,1059850,90015,16752918,20818,25125,21572,5959,3440,Tag0,unknown
1605702853730,200,-811,-1.781982421875E-4,0,0,0,1059850,90015,16752918,20818,25125,21572,5959,3440,Tag0,unknown
1605702853740,200,-414,-9.096679687500001E-5,0,0,0,1059850,90015,16752918,20818,25125,21572,5959,3440,Tag0,unknown
1605702853769,200,211,4.63623046875E-5,0,0,0,1059850,90015,16752918,20818,25125,21572,5959,3440,Tag0,unknown
1605702853786,200,299,6.56982421875E-5,0,0,0,1059850,90015,16752918,20818,25125,21572,5959,3440,Tag0,unknown
1605702853808,200,-580,-1.2744140625E-4,0,0,0,1059850,90015,16752918,20818,25125,21572,5959,3440,Tag0,unknown
1605702853819,200,-180,-3.955078125E-5,0,0,0,1059850,90015,16752918,20818,25125,21572,5959,3440,Tag0,unknown
1605702853846,200,-419,-9.206542968750001E-5,0,0,0,1059850,90015,16752918,20818,25125,21572,5959,3440,Tag0,unknown
1605702853856,200,-395,-8.67919921875E-5,0,0,0,1059850,90015,16752918,20818,25125,21572,5959,3440,Tag0,unknown
1605702853866,200,-361,-7.93212890625E-5,0,0,0,1059850,90015,16752918,20818,25125,21572,5959,3440,Tag0,unknown
1605702853882,200,-186,-4.0869140625E-5,0,0,0,1059850,90015,16752918,20818,25125,21572,5959,3440,Tag0,unknown
1605702853902,200,50,1.0986328125E-5,0,0,0,1059850,90015,16752918,20818,25125,21572,5959,3440,Tag0,unknown
1605702853920,200,-417,-9.16259765625E-5,0,0,0,1059850,90015,16752918,20818,25125,21572,5959,3440,Tag0,unknown
1605702853938,200,-198,-4.3505859375000006E-5,0,0,0,1059850,90015,16752918,20818,25125,21572,5959,3440,Tag0,unknown
1605702853948,200,-131,-2.87841796875E-5,0,0,0,1059850,90015,16752918,20818,25125,21572,5959,3440,Tag0,unknown
1605702853960,200,-615,-1.351318359375E-4,0,0,0,1059850,90015,16752918,20818,25125,21572,5959,3440,Tag0,unknown
1605702853971,200,-189,-4.15283203125E-5,0,0,0,1059850,90015,16752918,20818,25125,21572,5959,3440,Tag0,unknown
1605702853993,200,-844,-1.8544921875E-4,0,0,0,1059850,90015,16752918,20818,25125,21572,5959,3440,Tag0,unknown
1605702854006,200,-353,-7.75634765625E-5,0,0,0,1059850,90015,16752918,20818,25125,21572,5959,3440,Tag0,unknown
1605702854017,200,1059,2.3269042968750001E-4,0,0,0,1059850,90015,16752918,20818,25125,21572,5959,3440,Tag0,unknown
1605702854042,200,716,1.5732421875E-4,0,0,0,1059850,90015,16752918,20818,25125,21572,5959,3440,Tag0,unknown
1605702854053,200,409,8.986816406250001E-5,0,0,0,1059850,90015,16752918,20818,25125,21572,5959,3440,Tag0,unknown
1605702854077,200,585,1.285400390625E-4,0,0,0,1059850,90015,16752918,20818,25125,21572,5959,3440,Tag0,unknown
1605702854087,200,68,1.4941406250000001E-5,0,0,0,1059850,90015,16752918,20818,25125,21572,5959,3440,Tag0,unknown
1605702854121,200,-1271,-2.7927246093750003E-4,0,0,0,1059850,90015,16752918,20818,25125,21572,5959,3440,Tag0,unknown
1605702854139,200,-1745,-3.834228515625E-4,0,0,0,1059850,90015,16752918,20818,25125,21572,5959,3440,Tag0,unknown
1605702854149,200,-1511,-3.320068359375E-4,0,0,0,1059850,90015,16752918,20818,25125,21572,5959,3440,Tag0,unknown
1605702854165,200,-1371,-3.012451171875E-4,0,0,0,1059850,90015,16752918,20818,25125,21572,5959,3440,Tag0,unknown
1605702854175,200,-1133,-2.489501953125E-4,0,0,0,1059850,90015,16752918,20818,25125,21572,5959,3440,Tag0,unknown
1605702854200,200,-537,-1.179931640625E-4,0,0,0,1059850,90015,16752918,20818,25125,21572,5959,3440,Tag0,unknown
1605702854210,200,-587,-1.2897949218750003E-4,0,0,0,1059850,90015,16752918,20818,25125,21572,5959,3440,Tag0,unknown
1605702854234,200,-165,-3.62548828125E-5,0,0,0,1059850,90015,16752918,20818,25125,21572,5959,3440,Tag0,unknown
1605702854254,200,-120,-2.63671875E-5,0,0,0,1059850,90015,16752918,20818,25125,21572,5959,3440,Tag0,unknown
1605702854264,200,-116,-2.548828125E-5,0,0,0,1059850,90015,16752918,20818,25125,21572,5959,3440,Tag0,unknown
1605702854274,200,-127,-2.79052734375E-5,0,0,0,1059850,90015,16752918,20818,25125,21572,5959,3440,Tag0,unknown
1605702854290,200,144,3.1640625E-5,0,0,0,1059850,90015,16752918,20818,25125,21572,5959,3440,Tag0,unknown
1605702854310,200,306,6.723632812500001E-5,0,0,0,1059850,90015,16752918,20818,25125,21572,5959,3440,Tag0,unknown
1605702854321,200,87,1.91162109375E-5,0,0,0,1059850,90015,16752918,20818,25125,21572,5959,3440,Tag0,unknown
1605702854344,200,871,1.9138183593749998E-4,0,0,0,1059850,90015,16752918,20818,25125,21572,5959,3440,Tag0,unknown
1605702854354,200,570,1.25244140625E-4,0,0,0,1059850,90015,16752918,20818,25125,21572,5959,3440,Tag0,unknown
1605702854377,200,-79,-1.7358398437500003E-5,0,0,0,1059850,90015,16752918,20818,25125,21572,5959,3440,Tag0,unknown
1605702854388,200,-238,-5.229492187500001E-5,0,0,0,1059850,90015,16752918,20818,25125,21572,5959,3440,Tag0,unknown
1605702854398,200,153,3.3618164062500004E-5,0,0,0,1059850,90015,16752918,20818,25125,21572,5959,3440,Tag0,unknown
1605702854422,200,612,1.3447265625000002E-4,0,0,0,1059850,90015,16752918,20818,25125,21572,5959,3440,Tag0,unknown
1605702854438,200,601,1.3205566406249998E-4,0,0,0,1059850,90015,16752918,20818,25125,21572,5959,3440,Tag0,unknown
1605702854457,200,1283,2.819091796875E-4,0,0,0,1059850,90015,16752918,20818,25125,21572,5959,3440,Tag0,unknown
1605702854473,200,1213,2.6652832031250003E-4,0,0,0,1059850,90015,16752918,20818,25125,21572,5959,3440,Tag0,unknown
1605702854483,200,1195,2.625732421875E-4,0,0,0,1059850,90015,16752918,20818,25125,21572,5959,3440,Tag0,unknown
1605702854500,200,1306,2.86962890625E-4,0,0,0,44773,14234,10749,7628,14618,8092,3873,1155,Tag0,unknown
1605702854510,200,1041,2.287353515625E-4,0,0,0,44773,14234,10749,7628,14618,8092,3873,1155,Tag0,unknown
1605702854530,200,809,1.777587890625E-4,0,0,0,44773,14234,10749,7628,14618,8092,3873,1155,Tag0,unknown
1605702854540,200,661,1.452392578125E-4,0,0,0,44773,14234,10749,7628,14618,8092,3873,1155,Tag0,unknown
1605702854566,200,439,9.64599609375E-5,0,0,0,44773,14234,10749,7628,14618,8092,3873,1155,Tag0,unknown
1605702854576,200,529,1.162353515625E-4,0,0,0,44773,14234,10749,7628,14618,8092,3873,1155,Tag0,unknown
1605702854602,200,571,1.254638671875E-4,0,0,0,44773,14234,10749,7628,14618,8092,3873,1155,Tag0,unknown
1605702854622,200,132,2.900390625E-5,0,0,0,44773,14234,10749,7628,14618,8092,3873,1155,Tag0,unknown
1605702854641,200,300,6.591796875E-5,0,0,0,44773,14234,10749,7628,14618,8092,3873,1155,Tag0,unknown
1605702854659,200,-779,-1.7116699218750001E-4,0,0,0,44773,14234,10749,7628,14618,8092,3873,1155,Tag0,unknown
1605702854679,200,-540,-1.1865234375E-4,0,0,0,44773,14234,10749,7628,14618,8092,3873,1155,Tag0,unknown
1605702854690,200,-579,-1.272216796875E-4,0,0,0,44773,14234,10749,7628,14618,8092,3873,1155,Tag0,unknown
1605702854713,200,372,8.173828125E-5,0,0,0,44773,14234,10749,7628,14618,8092,3873,1155,Tag0,unknown
1605702854723,200,312,6.85546875E-5,0,0,0,44773,14234,10749,7628,14618,8092,3873,1155,Tag0,unknown
1605702854751,200,-292,-6.416015625000001E-5,0,0,0,44773,14234,10749,7628,14618,8092,3873,1155,Tag0,unknown
1605702854761,200,326,7.163085937500001E-5,0,0,0,44773,14234,10749,7628,14618,8092,3873,1155,Tag0,unknown
1605702854785,200,53,1.1645507812500002E-5,0,0,0,44773,14234,10749,7628,14618,8092,3873,1155,Tag0,unknown
1605702854795,200,323,7.09716796875E-5,0,0,0,44773,14234,10749,7628,14618,8092,3873,1155,Tag0,unknown
1605702854821,200,-135,-2.96630859375E-5,0,0,0,44773,14234,10749,7628,14618,8092,3873,1155,Tag0,unknown
1605702854840,200,10,2.197265625E-6,0,0,0,44773,14234,10749,7628,14618,8092,3873,1155,Tag0,unknown
1605702854857,200,37,8.1298828125E-6,0,0,0,44773,14234,10749,7628,14618,8092,3873,1155,Tag0,unknown
1605702854873,200,-128,-2.8125E-5,0,0,0,44773,14234,10749,7628,14618,8092,3873,1155,Tag0,unknown
1605702854897,200,357,7.844238281250001E-5,0,0,0,44773,14234,10749,7628,14618,8092,3873,1155,Tag0,unknown
1605702854908,200,109,2.39501953125E-5,0,0,0,44773,14234,10749,7628,14618,8092,3873,1155,Tag0,unknown
1605702854931,200,-139,-3.0541992187500004E-5,0,0,0,44773,14234,10749,7628,14618,8092,3873,1155,Tag0,unknown
1605702854941,200,-375,-8.23974609375E-5,0,0,0,44773,14234,10749,7628,14618,8092,3873,1155,Tag0,unknown
1605702854967,200,-201,-4.41650390625E-5,0,0,0,44773,14234,10749,7628,14618,8092,3873,1155,Tag0,unknown
1605702854977,200,-371,-8.151855468750001E-5,0,0,0,44773,14234,10749,7628,14618,8092,3873,1155,Tag0,unknown
1605702855001,200,-266,-5.8447265625E-5,0,0,0,44773,14234,10749,7628,14618,8092,3873,1155,Tag0,unknown
1605702855012,200,65,1.42822265625E-5,0,0,0,44773,14234,10749,7628,14618,8092,3873,1155,Tag0,unknown
1605702855041,200,-211,-4.63623046875E-5,0,0,0,44773,14234,10749,7628,14618,8092,3873,1155,Tag0,unknown
1605702855057,200,109,2.39501953125E-5,0,0,0,44773,14234,10749,7628,14618,8092,3873,1155,Tag0,unknown
1605702855075,200,101,2.2192382812500002E-5,0,0,0,44773,14234,10749,7628,14618,8092,3873,1155,Tag0,unknown
1605702855091,200,368,8.0859375E-5,0,0,0,44773,14234,10749,7628,14618,8092,3873,1155,Tag0,unknown
1605702855101,200,66,1.4501953125E-5,0,0,0,44773,14234,10749,7628,14618,8092,3873,1155,Tag0,unknown
1605702855115,200,-197,-4.32861328125E-5,0,0,0,44773,14234,10749,7628,14618,8092,3873,1155,Tag0,unknown
1605702855125,200,13,2.8564453125E-6,0,0,0,44773,14234,10749,7628,14618,8092,3873,1155,Tag0,unknown
1605702855151,200,-286,-6.2841796875E-5,0,0,0,44773,14234,10749,7628,14618,8092,3873,1155,Tag0,unknown
1605702855161,200,32,7.03125E-6,0,0,0,44773,14234,10749,7628,14618,8092,3873,1155,Tag0,unknown
1605702855171,200,-357,-7.844238281250001E-5,0,0,0,44773,14234,10749,7628,14618,8092,3873,1155,Tag0,unknown
1605702855189,200,-355,-7.80029296875E-5,0,0,0,44773,14234,10749,7628,14618,8092,3873,1155,Tag0,unknown
1605702855210,200,-547,-1.201904296875E-4,0,0,0,44773,14234,10749,7628,14618,8092,3873,1155,Tag0,unknown
1605702855227,200,92,2.021484375E-5,0,0,0,44773,14234,10749,7628,14618,8092,3873,1155,Tag0,unknown
1605702855244,200,-130,-2.8564453125E-5,0,0,0,44773,14234,10749,7628,14618,8092,3873,1155,Tag0,unknown
1605702855265,200,-56,-1.23046875E-5,0,0,0,44773,14234,10749,7628,14618,8092,3873,1155,Tag0,unknown
1605702855275,200,73,1.6040039062500002E-5,0,0,0,44773,14234,10749,7628,14618,8092,3873,1155,Tag0,unknown
1605702855296,200,-172,-3.7792968750000005E-5,0,0,0,44773,14234,10749,7628,14618,8092,3873,1155,Tag0,unknown
1605702855310,200,-231,-5.07568359375E-5,0,0,0,44773,14234,10749,7628,14618,8092,3873,1155,Tag0,unknown
