timestampMs,poorSignal,eegRawValue,eegRawValueVolts,attention,meditation,blinkStrength,delta,theta,alphaLow,alphaHigh,betaLow,betaHigh,gammaLow,gammaMid,tagEvent,location
1610200534202,51,-761,-1.672119140625E-4,0,0,90,211816,337650,8050,16878,13209,40296,91493,25666,Tag0,unknown
1610200534222,51,-2048,-4.5E-4,0,0,90,211816,337650,8050,16878,13209,40296,91493,25666,Tag0,unknown
1610200534237,51,-2048,-4.5E-4,0,0,90,211816,337650,8050,16878,13209,40296,91493,25666,Tag0,unknown
1610200534252,51,-2048,-4.5E-4,0,0,90,211816,337650,8050,16878,13209,40296,91493,25666,Tag0,unknown
1610200534277,51,43,9.448242187500001E-6,0,0,90,211816,337650,8050,16878,13209,40296,91493,25666,Tag0,unknown
1610200534287,51,1791,3.935302734375E-4,0,0,90,211816,337650,8050,16878,13209,40296,91493,25666,Tag0,unknown
1610200534302,51,-1709,-3.7551269531250006E-4,0,0,90,211816,337650,8050,16878,13209,40296,91493,25666,Tag0,unknown
1610200534319,51,-1465,-3.218994140625E-4,0,0,90,211816,337650,8050,16878,13209,40296,91493,25666,Tag0,unknown
1610200534335,51,-1560,-3.427734375E-4,0,0,90,211816,337650,8050,16878,13209,40296,91493,25666,Tag0,unknown
1610200534353,51,-908,-1.9951171875E-4,0,0,90,211816,337650,8050,16878,13209,40296,91493,25666,Tag0,unknown
1610200534369,51,-1052,-2.3115234375000002E-4,0,0,90,211816,337650,8050,16878,13209,40296,91493,25666,Tag0,unknown
1610200534394,51,1817,3.992431640625E-4,0,0,90,211816,337650,8050,16878,13209,40296,91493,25666,Tag0,unknown
1610200534404,51,1791,3.935302734375E-4,0,0,90,211816,337650,8050,16878,13209,40296,91493,25666,Tag0,unknown
1610200534427,51,1791,3.935302734375E-4,0,0,90,211816,337650,8050,16878,13209,40296,91493,25666,Tag0,unknown
1610200534437,51,1791,3.935302734375E-4,0,0,90,211816,337650,8050,16878,13209,40296,91493,25666,Tag0,unknown
1610200534464,51,1588,3.4892578125E-4,0,0,90,211816,337650,8050,16878,13209,40296,91493,25666,Tag0,unknown
1610200534501,51,343,7.53662109375E-5,0,0,90,211816,337650,8050,16878,13209,40296,91493,25666,Tag0,unknown
1610200534518,51,323,7.09716796875E-5,0,0,90,211816,337650,8050,16878,13209,40296,91493,25666,Tag0,unknown
1610200534552,51,-585,-1.285400390625E-4,0,0,90,728354,23793,21911,16024,16748084,32413,17929,18557,Tag0,unknown
1610200534578,51,376,8.261718750000001E-5,0,0,90,728354,23793,21911,16024,16748084,32413,17929,18557,Tag0,unknown
1610200534588,51,309,6.78955078125E-5,0,0,90,728354,23793,21911,16024,16748084,32413,17929,18557,Tag0,unknown
1610200534612,51,348,7.646484375E-5,0,0,90,728354,23793,21911,16024,16748084,32413,17929,18557,Tag0,unknown
1610200534622,51,360,7.91015625E-5,0,0,90,728354,23793,21911,16024,16748084,32413,17929,18557,Tag0,unknown
1610200534636,51,-258,-5.6689453125000004E-5,0,0,90,728354,23793,21911,16024,16748084,32413,17929,18557,Tag0,unknown
1610200534652,51,166,3.6474609375E-5,0,0,90,728354,23793,21911,16024,16748084,32413,17929,18557,Tag0,unknown
1610200534668,51,359,7.88818359375E-5,0,0,90,728354,23793,21911,16024,16748084,32413,17929,18557,Tag0,unknown
1610200534687,51,-229,-5.03173828125E-5,0,0,90,728354,23793,21911,16024,16748084,32413,17929,18557,Tag0,unknown
1610200534697,51,-505,-1.109619140625E-4,0,0,90,728354,23793,21911,16024,16748084,32413,17929,18557,Tag0,unknown
1610200534707,51,-529,-1.162353515625E-4,0,0,90,728354,23793,21911,16024,16748084,32413,17929,18557,Tag0,unknown
1610200534728,51,-196,-4.306640625E-5,0,0,90,728354,23793,21911,16024,16748084,32413,17929,18557,Tag0,unknown
1610200534741,51,-535,-1.175537109375E-4,0,0,90,728354,23793,21911,16024,16748084,32413,17929,18557,Tag0,unknown
1610200534761,51,-614,-1.34912109375E-4,0,0,90,728354,23793,21911,16024,16748084,32413,17929,18557,Tag0,unknown
1610200534772,51,-541,-1.1887207031250001E-4,0,0,90,728354,23793,21911,16024,16748084,32413,17929,18557,Tag0,unknown
1610200534788,51,-824,-1.810546875E-4,0,0,90,728354,23793,21911,16024,16748084,32413,17929,18557,Tag0,unknown
1610200534808,51,-621,-1.364501953125E-4,0,0,90,728354,23793,21911,16024,16748084,32413,17929,18557,Tag0,unknown
1610200534837,51,-390,-8.5693359375E-5,0,0,90,728354,23793,21911,16024,16748084,32413,17929,18557,Tag0,unknown
1610200534855,51,-557,-1.223876953125E-4,0,0,90,728354,23793,21911,16024,16748084,32413,17929,18557,Tag0,unknown
1610200534865,51,-251,-5.5151367187500004E-5,0,0,90,728354,23793,21911,16024,16748084,32413,17929,18557,Tag0,unknown
1610200534880,51,-190,-4.1748046875E-5,0,0,90,728354,23793,21911,16024,16748084,32413,17929,18557,Tag0,unknown
1610200534891,51,-293,-6.43798828125E-5,0,0,90,728354,23793,21911,16024,16748084,32413,17929,18557,Tag0,unknown
1610200534901,51,245,5.38330078125E-5,0,0,90,728354,23793,21911,16024,16748084,32413,17929,18557,Tag0,unknown
1610200534921,51,-126,-2.7685546875E-5,0,0,90,728354,23793,21911,16024,16748084,32413,17929,18557,Tag0,unknown
1610200534938,51,2,4.39453125E-7,0,0,90,728354,23793,21911,16024,16748084,32413,17929,18557,Tag0,unknown
1610200534955,51,57,1.2524414062500001E-5,0,0,90,728354,23793,21911,16024,16748084,32413,17929,18557,Tag0,unknown
1610200534975,51,-263,-5.7788085937500005E-5,0,0,90,728354,23793,21911,16024,16748084,32413,17929,18557,Tag0,unknown
1610200534994,51,51,1.1206054687499999E-5,0,0,90,728354,23793,21911,16024,16748084,32413,17929,18557,Tag0,unknown
1610200535004,51,23,5.0537109375E-6,0,0,90,728354,23793,21911,16024,16748084,32413,17929,18557,Tag0,unknown
1610200535027,51,-85,-1.86767578125E-5,0,0,90,728354,23793,21911,16024,16748084,32413,17929,18557,Tag0,unknown
1610200535037,51,119,2.6147460937500004E-5,0,0,90,728354,23793,21911,16024,16748084,32413,17929,18557,Tag0,unknown
1610200535064,51,208,4.5703125E-5,0,0,90,728354,23793,21911,16024,16748084,32413,17929,18557,Tag0,unknown
1610200535074,51,-332,-7.294921875E-5,0,0,90,728354,23793,21911,16024,16748084,32413,17929,18557,Tag0,unknown
1610200535104,51,-1051,-2.309326171875E-4,0,0,90,728354,23793,21911,16024,16748084,32413,17929,18557,Tag0,unknown
1610200535121,51,-713,-1.566650390625E-4,0,0,90,728354,23793,21911,16024,16748084,32413,17929,18557,Tag0,unknown
1610200535131,51,-321,-7.053222656250001E-5,0,0,90,728354,23793,21911,16024,16748084,32413,17929,18557,Tag0,unknown
1610200535141,51,-244,-5.361328125E-5,0,0,90,728354,23793,21911,16024,16748084,32413,17929,18557,Tag0,unknown
1610200535155,51,-259,-5.69091796875E-5,0,0,90,728354,23793,21911,16024,16748084,32413,17929,18557,Tag0,unknown
1610200535177,51,-111,-2.43896484375E-5,0,0,90,728354,23793,21911,16024,16748084,32413,17929,18557,Tag0,unknown
1610200535188,51,71,1.56005859375E-5,0,0,90,728354,23793,21911,16024,16748084,32413,17929,18557,Tag0,unknown
1610200535198,51,330,7.2509765625E-5,0,0,90,728354,23793,21911,16024,16748084,32413,17929,18557,Tag0,unknown
1610200535214,51,449,9.86572265625E-5,0,0,90,728354,23793,21911,16024,16748084,32413,17929,18557,Tag0,unknown
1610200535224,51,791,1.738037109375E-4,0,0,90,728354,23793,21911,16024,16748084,32413,17929,18557,Tag0,unknown
1610200535239,51,1031,2.265380859375E-4,0,0,90,728354,23793,21911,16024,16748084,32413,17929,18557,Tag0,unknown
1610200535254,51,675,1.483154296875E-4,0,0,90,728354,23793,21911,16024,16748084,32413,17929,18557,Tag0,unknown
1610200535271,51,724,1.5908203125000002E-4,0,0,90,728354,23793,21911,16024,16748084,32413,17929,18557,Tag0,unknown
1610200535291,51,478,1.0502929687499999E-4,0,0,90,728354,23793,21911,16024,16748084,32413,17929,18557,Tag0,unknown
1610200535304,51,601,1.3205566406249998E-4,0,0,90,728354,23793,21911,16024,16748084,32413,17929,18557,Tag0,unknown
1610200535333,51,214,4.7021484375E-5,0,0,90,728354,23793,21911,16024,16748084,32413,17929,18557,Tag0,unknown
1610200535343,51,337,7.40478515625E-5,0,0,90,728354,23793,21911,16024,16748084,32413,17929,18557,Tag0,unknown
1610200535364,51,125,2.74658203125E-5,0,0,90,728354,23793,21911,16024,16748084,32413,17929,18557,Tag0,unknown
1610200535387,51,50,1.0986328125E-5,0,0,90,728354,23793,21911,16024,16748084,32413,17929,18557,Tag0,unknown
1610200535397,51,113,2.48291015625E-5,0,0,90,728354,23793,21911,16024,16748084,32413,17929,18557,Tag0,unknown
1610200535443,51,-102,-2.2412109374999998E-5,0,0,90,728354,23793,21911,16024,16748084,32413,17929,18557,Tag0,unknown
1610200535455,51,-106,-2.3291015625000003E-5,0,0,90,728354,23793,21911,16024,16748084,32413,17929,18557,Tag0,unknown
1610200535465,51,-235,-5.16357421875E-5,0,0,90,728354,23793,21911,16024,16748084,32413,17929,18557,Tag0,unknown
1610200535487,51,-566,-1.2436523437500002E-4,0,0,90,728354,23793,21911,16024,16748084,32413,17929,18557,Tag0,unknown
1610200535552,51,-669,-1.469970703125E-4,0,0,90,728354,23793,21911,16024,16748084,32413,17929,18557,Tag0,unknown
1610200535573,51,-865,-1.900634765625E-4,0,0,90,728354,23793,21911,16024,16748084,32413,17929,18557,Tag0,unknown
1610200535583,0,-1091,-2.397216796875E-4,0,0,90,1432356,223884,16755844,74690,16746316,25575,13633,6607,Tag0,unknown
1610200535597,0,-529,-1.162353515625E-4,0,0,90,1432356,223884,16755844,74690,16746316,25575,13633,6607,Tag0,unknown
1610200535627,0,60,1.318359375E-5,0,0,90,1432356,223884,16755844,74690,16746316,25575,13633,6607,Tag0,unknown
1610200535638,0,-74,-1.6259765625E-5,0,0,90,1432356,223884,16755844,74690,16746316,25575,13633,6607,Tag0,unknown
1610200535648,0,-1699,-3.7331542968750003E-4,0,0,90,1432356,223884,16755844,74690,16746316,25575,13633,6607,Tag0,unknown
1610200535669,0,-1277,-2.805908203125E-4,0,0,90,1432356,223884,16755844,74690,16746316,25575,13633,6607,Tag0,unknown
1610200535687,0,-1305,-2.867431640625E-4,0,0,90,1432356,223884,16755844,74690,16746316,25575,13633,6607,Tag0,unknown
1610200535706,0,-263,-5.7788085937500005E-5,0,0,90,1432356,223884,16755844,74690,16746316,25575,13633,6607,Tag0,unknown
1610200535725,0,-85,-1.86767578125E-5,0,0,90,1432356,223884,16755844,74690,16746316,25575,13633,6607,Tag0,unknown
1610200535743,0,-104,-2.28515625E-5,0,0,90,1432356,223884,16755844,74690,16746316,25575,13633,6607,Tag0,unknown
1610200535755,0,658,1.4458007812500001E-4,0,0,90,1432356,223884,16755844,74690,16746316,25575,13633,6607,Tag0,unknown
1610200535777,0,1791,3.935302734375E-4,0,0,90,1432356,223884,16755844,74690,16746316,25575,13633,6607,Tag0,unknown
1610200535787,0,1791,3.935302734375E-4,0,0,90,1432356,223884,16755844,74690,16746316,25575,13633,6607,Tag0,unknown
1610200535816,0,357,7.844238281250001E-5,0,0,90,1432356,223884,16755844,74690,16746316,25575,13633,6607,Tag0,unknown
1610200535861,0,-352,-7.734375E-5,0,0,90,1432356,223884,16755844,74690,16746316,25575,13633,6607,Tag0,unknown
1610200535871,0,-565,-1.241455078125E-4,0,0,90,1432356,223884,16755844,74690,16746316,25575,13633,6607,Tag0,unknown
1610200535897,0,1377,3.0256347656249996E-4,0,0,90,1432356,223884,16755844,74690,16746316,25575,13633,6607,Tag0,unknown
1610200535907,0,739,1.623779296875E-4,0,0,90,1432356,223884,16755844,74690,16746316,25575,13633,6607,Tag0,unknown
1610200535921,0,-377,-8.28369140625E-5,0,0,90,1432356,223884,16755844,74690,16746316,25575,13633,6607,Tag0,unknown
1610200535939,0,-197,-4.32861328125E-5,0,0,90,1432356,223884,16755844,74690,16746316,25575,13633,6607,Tag0,unknown
1610200535955,0,-604,-1.3271484375E-4,0,0,90,1432356,223884,16755844,74690,16746316,25575,13633,6607,Tag0,unknown
1610200535974,0,-1058,-2.32470703125E-4,0,0,90,1432356,223884,16755844,74690,16746316,25575,13633,6607,Tag0,unknown
1610200535989,0,-738,-1.62158203125E-4,0,0,90,1432356,223884,16755844,74690,16746316,25575,13633,6607,Tag0,unknown
1610200535999,0,-908,-1.9951171875E-4,0,0,90,1432356,223884,16755844,74690,16746316,25575,13633,6607,Tag0,unknown
1610200536010,0,-933,-2.050048828125E-4,0,0,90,1432356,223884,16755844,74690,16746316,25575,13633,6607,Tag0,unknown
1610200536023,0,-642,-1.4106445312500002E-4,0,0,90,1432356,223884,16755844,74690,16746316,25575,13633,6607,Tag0,unknown
1610200536042,0,65,1.42822265625E-5,0,0,90,1432356,223884,16755844,74690,16746316,25575,13633,6607,Tag0,unknown
1610200536056,0,-80,-1.7578125E-5,0,0,90,1432356,223884,16755844,74690,16746316,25575,13633,6607,Tag0,unknown
1610200536078,0,1397,3.0695800781249997E-4,0,0,90,1432356,223884,16755844,74690,16746316,25575,13633,6607,Tag0,unknown
1610200536088,0,401,8.811035156250001E-5,0,0,90,1432356,223884,16755844,74690,16746316,25575,13633,6607,Tag0,unknown
1610200536116,0,35,7.6904296875E-6,0,0,90,1432356,223884,16755844,74690,16746316,25575,13633,6607,Tag0,unknown
1610200536126,0,1894,4.1616210937500003E-4,0,0,90,1432356,223884,16755844,74690,16746316,25575,13633,6607,Tag0,unknown
1610200536137,0,67,1.4721679687500002E-5,0,0,90,1432356,223884,16755844,74690,16746316,25575,13633,6607,Tag0,unknown
1610200536157,0,305,6.70166015625E-5,0,0,90,1432356,223884,16755844,74690,16746316,25575,13633,6607,Tag0,unknown
1610200536188,0,805,1.768798828125E-4,0,0,90,1432356,223884,16755844,74690,16746316,25575,13633,6607,Tag0,unknown
1610200536205,0,797,1.751220703125E-4,0,0,90,1432356,223884,16755844,74690,16746316,25575,13633,6607,Tag0,unknown
1610200536229,0,825,1.812744140625E-4,0,0,90,1432356,223884,16755844,74690,16746316,25575,13633,6607,Tag0,unknown
1610200536240,0,874,1.9204101562500002E-4,0,0,90,1432356,223884,16755844,74690,16746316,25575,13633,6607,Tag0,unknown
1610200536255,0,862,1.89404296875E-4,0,0,90,1432356,223884,16755844,74690,16746316,25575,13633,6607,Tag0,unknown
1610200536276,0,378,8.3056640625E-5,0,0,90,1432356,223884,16755844,74690,16746316,25575,13633,6607,Tag0,unknown
1610200536288,0,314,6.8994140625E-5,0,0,90,1432356,223884,16755844,74690,16746316,25575,13633,6607,Tag0,unknown
1610200536309,0,304,6.6796875E-5,0,0,90,1432356,223884,16755844,74690,16746316,25575,13633,6607,Tag0,unknown
1610200536322,0,-7,-1.5380859375E-6,0,0,90,1432356,223884,16755844,74690,16746316,25575,13633,6607,Tag0,unknown
1610200536346,0,-45,-9.8876953125E-6,0,0,90,1432356,223884,16755844,74690,16746316,25575,13633,6607,Tag0,unknown
1610200536356,0,-63,-1.38427734375E-5,0,0,90,1432356,223884,16755844,74690,16746316,25575,13633,6607,Tag0,unknown
1610200536381,0,-106,-2.3291015625000003E-5,0,0,90,1432356,223884,16755844,74690,16746316,25575,13633,6607,Tag0,unknown
1610200536391,0,75,1.64794921875E-5,0,0,90,1432356,223884,16755844,74690,16746316,25575,13633,6607,Tag0,unknown
1610200536404,0,122,2.6806640625E-5,0,0,90,1432356,223884,16755844,74690,16746316,25575,13633,6607,Tag0,unknown
1610200536423,0,83,1.82373046875E-5,0,0,90,1432356,223884,16755844,74690,16746316,25575,13633,6607,Tag0,unknown
1610200536439,0,-119,-2.6147460937500004E-5,0,0,90,1432356,223884,16755844,74690,16746316,25575,13633,6607,Tag0,unknown
1610200536455,0,94,2.0654296875000002E-5,0,0,90,1432356,223884,16755844,74690,16746316,25575,13633,6607,Tag0,unknown
1610200536472,0,-339,-7.448730468750001E-5,0,0,90,1432356,223884,16755844,74690,16746316,25575,13633,6607,Tag0,unknown
1610200536482,0,-581,-1.276611328125E-4,0,0,90,1432356,223884,16755844,74690,16746316,25575,13633,6607,Tag0,unknown
1610200536493,0,-164,-3.6035156249999995E-5,0,0,90,1432356,223884,16755844,74690,16746316,25575,13633,6607,Tag0,unknown
1610200536505,0,-236,-5.185546875E-5,0,0,90,1432356,223884,16755844,74690,16746316,25575,13633,6607,Tag0,unknown
1610200536528,0,-567,-1.245849609375E-4,0,0,90,1432356,223884,16755844,74690,16746316,25575,13633,6607,Tag0,unknown
1610200536538,0,-522,-1.14697265625E-4,0,0,90,1432356,223884,16755844,74690,16746316,25575,13633,6607,Tag0,unknown
1610200536548,26,-597,-1.3117675781250003E-4,0,0,90,588064,61302,71307,89046,16751957,16775142,19900,8924,Tag0,unknown
1610200536567,26,-569,-1.250244140625E-4,0,0,90,588064,61302,71307,89046,16751957,16775142,19900,8924,Tag0,unknown
1610200536577,26,-196,-4.306640625E-5,0,0,90,588064,61302,71307,89046,16751957,16775142,19900,8924,Tag0,unknown
1610200536588,26,-173,-3.80126953125E-5,0,0,90,588064,61302,71307,89046,16751957,16775142,19900,8924,Tag0,unknown
1610200536606,26,-581,-1.276611328125E-4,0,0,90,588064,61302,71307,89046,16751957,16775142,19900,8924,Tag0,unknown
1610200536622,26,-150,-3.2958984375E-5,0,0,90,588064,61302,71307,89046,16751957,16775142,19900,8924,Tag0,unknown
1610200536678,26,-137,-3.0102539062499998E-5,0,0,90,588064,61302,71307,89046,16751957,16775142,19900,8924,Tag0,unknown
1610200536688,26,-380,-8.349609375E-5,0,0,90,588064,61302,71307,89046,16751957,16775142,19900,8924,Tag0,unknown
1610200536698,26,121,2.6586914062500003E-5,0,0,90,588064,61302,71307,89046,16751957,16775142,19900,8924,Tag0,unknown
1610200536708,26,-127,-2.79052734375E-5,0,0,90,588064,61302,71307,89046,16751957,16775142,19900,8924,Tag0,unknown
1610200536723,26,59,1.29638671875E-5,0,0,90,588064,61302,71307,89046,16751957,16775142,19900,8924,Tag0,unknown
1610200536739,26,-363,-7.97607421875E-5,0,0,90,588064,61302,71307,89046,16751957,16775142,19900,8924,Tag0,unknown
1610200536749,26,-871,-1.9138183593749998E-4,0,0,90,588064,61302,71307,89046,16751957,16775142,19900,8924,Tag0,unknown
1610200536759,26,309,6.78955078125E-5,0,0,90,588064,61302,71307,89046,16751957,16775142,19900,8924,Tag0,unknown
1610200536771,26,301,6.613769531250001E-5,0,0,90,588064,61302,71307,89046,16751957,16775142,19900,8924,Tag0,unknown
1610200536790,26,221,4.85595703125E-5,0,0,90,588064,61302,71307,89046,16751957,16775142,19900,8924,Tag0,unknown
1610200536806,26,306,6.723632812500001E-5,0,0,90,588064,61302,71307,89046,16751957,16775142,19900,8924,Tag0,unknown
1610200536827,26,-865,-1.900634765625E-4,0,0,90,588064,61302,71307,89046,16751957,16775142,19900,8924,Tag0,unknown
1610200536839,26,-561,-1.232666015625E-4,0,0,90,588064,61302,71307,89046,16751957,16775142,19900,8924,Tag0,unknown
1610200536861,26,27,5.9326171875000005E-6,0,0,90,588064,61302,71307,89046,16751957,16775142,19900,8924,Tag0,unknown
1610200536872,26,339,7.448730468750001E-5,0,0,90,588064,61302,71307,89046,16751957,16775142,19900,8924,Tag0,unknown
1610200536903,26,-409,-8.986816406250001E-5,0,0,90,588064,61302,71307,89046,16751957,16775142,19900,8924,Tag0,unknown
1610200536921,26,-809,-1.777587890625E-4,0,0,90,588064,61302,71307,89046,16751957,16775142,19900,8924,Tag0,unknown
1610200536931,26,7,1.5380859375E-6,0,0,90,588064,61302,71307,89046,16751957,16775142,19900,8924,Tag0,unknown
1610200536942,26,745,1.636962890625E-4,0,0,90,588064,61302,71307,89046,16751957,16775142,19900,8924,Tag0,unknown
1610200536955,26,1625,3.570556640625E-4,0,0,90,588064,61302,71307,89046,16751957,16775142,19900,8924,Tag0,unknown
1610200536977,26,1260,2.7685546875E-4,0,0,90,588064,61302,71307,89046,16751957,16775142,19900,8924,Tag0,unknown
1610200536989,26,1347,2.959716796875E-4,0,0,90,588064,61302,71307,89046,16751957,16775142,19900,8924,Tag0,unknown
1610200536999,26,757,1.663330078125E-4,0,0,90,588064,61302,71307,89046,16751957,16775142,19900,8924,Tag0,unknown
1610200537035,26,1175,2.581787109375E-4,0,0,90,588064,61302,71307,89046,16751957,16775142,19900,8924,Tag0,unknown
1610200537055,26,1369,3.0080566406250005E-4,0,0,90,588064,61302,71307,89046,16751957,16775142,19900,8924,Tag0,unknown
1610200537065,26,-1221,-2.682861328125E-4,0,0,90,588064,61302,71307,89046,16751957,16775142,19900,8924,Tag0,unknown
1610200537075,26,-425,-9.33837890625E-5,0,0,90,588064,61302,71307,89046,16751957,16775142,19900,8924,Tag0,unknown
1610200537091,26,787,1.729248046875E-4,0,0,90,588064,61302,71307,89046,16751957,16775142,19900,8924,Tag0,unknown
1610200537105,26,878,1.92919921875E-4,0,0,90,588064,61302,71307,89046,16751957,16775142,19900,8924,Tag0,unknown
1610200537130,26,1229,2.700439453125E-4,0,0,90,588064,61302,71307,89046,16751957,16775142,19900,8924,Tag0,unknown
1610200537140,26,1169,2.568603515625E-4,0,0,90,588064,61302,71307,89046,16751957,16775142,19900,8924,Tag0,unknown
1610200537166,26,711,1.562255859375E-4,0,0,90,588064,61302,71307,89046,16751957,16775142,19900,8924,Tag0,unknown
1610200537176,26,564,1.2392578125E-4,0,0,90,588064,61302,71307,89046,16751957,16775142,19900,8924,Tag0,unknown
1610200537202,26,523,1.149169921875E-4,0,0,90,588064,61302,71307,89046,16751957,16775142,19900,8924,Tag0,unknown
1610200537222,26,250,5.4931640625E-5,0,0,90,588064,61302,71307,89046,16751957,16775142,19900,8924,Tag0,unknown
1610200537232,26,325,7.14111328125E-5,0,0,90,588064,61302,71307,89046,16751957,16775142,19900,8924,Tag0,unknown
1610200537242,26,267,5.86669921875E-5,0,0,90,588064,61302,71307,89046,16751957,16775142,19900,8924,Tag0,unknown
1610200537255,26,267,5.86669921875E-5,0,0,90,588064,61302,71307,89046,16751957,16775142,19900,8924,Tag0,unknown
1610200537271,26,-7,-1.5380859375E-6,0,0,90,588064,61302,71307,89046,16751957,16775142,19900,8924,Tag0,unknown
1610200537290,26,-46,-1.0107421875E-5,0,0,90,588064,61302,71307,89046,16751957,16775142,19900,8924,Tag0,unknown
1610200537311,26,-55,-1.20849609375E-5,0,0,90,588064,61302,71307,89046,16751957,16775142,19900,8924,Tag0,unknown
1610200537323,26,-77,-1.69189453125E-5,0,0,90,588064,61302,71307,89046,16751957,16775142,19900,8924,Tag0,unknown
1610200537354,26,-245,-5.38330078125E-5,0,0,90,588064,61302,71307,89046,16751957,16775142,19900,8924,Tag0,unknown
1610200537371,26,-377,-8.28369140625E-5,0,0,90,588064,61302,71307,89046,16751957,16775142,19900,8924,Tag0,unknown
1610200537395,26,571,1.254638671875E-4,0,0,90,588064,61302,71307,89046,16751957,16775142,19900,8924,Tag0,unknown
1610200537405,26,325,7.14111328125E-5,0,0,90,588064,61302,71307,89046,16751957,16775142,19900,8924,Tag0,unknown
1610200537434,26,-331,-7.272949218750001E-5,0,0,90,588064,61302,71307,89046,16751957,16775142,19900,8924,Tag0,unknown
1610200537444,26,19,4.1748046875E-6,0,0,90,588064,61302,71307,89046,16751957,16775142,19900,8924,Tag0,unknown
1610200537467,26,-674,-1.48095703125E-4,0,0,90,588064,61302,71307,89046,16751957,16775142,19900,8924,Tag0,unknown
1610200537477,26,-387,-8.50341796875E-5,0,0,90,588064,61302,71307,89046,16751957,16775142,19900,8924,Tag0,unknown
1610200537488,26,-553,-1.215087890625E-4,0,0,90,588064,61302,71307,89046,16751957,16775142,19900,8924,Tag0,unknown
1610200537506,26,-168,-3.691406250000001E-5,0,0,90,588064,61302,71307,89046,16751957,16775142,19900,8924,Tag0,unknown
1610200537522,26,-62,-1.3623046875E-5,0,0,90,588064,61302,71307,89046,16751957,16775142,19900,8924,Tag0,unknown
1610200537549,26,-709,-1.557861328125E-4,0,0,90,809777,1199798,133318,142238,16774593,36006,16749705,16754381,Tag0,unknown
1610200537559,26,-1847,-4.0583496093749997E-4,0,0,90,809777,1199798,133318,142238,16774593,36006,16749705,16754381,Tag0,unknown
1610200537583,26,-1418,-3.11572265625E-4,0,0,90,809777,1199798,133318,142238,16774593,36006,16749705,16754381,Tag0,unknown
1610200537605,26,-695,-1.527099609375E-4,0,0,90,809777,1199798,133318,142238,16774593,36006,16749705,16754381,Tag0,unknown
1610200537623,26,1791,3.935302734375E-4,0,0,90,809777,1199798,133318,142238,16774593,36006,16749705,16754381,Tag0,unknown
1610200537639,26,535,1.175537109375E-4,0,0,90,809777,1199798,133318,142238,16774593,36006,16749705,16754381,Tag0,unknown
1610200537657,26,345,7.58056640625E-5,0,0,90,809777,1199798,133318,142238,16774593,36006,16749705,16754381,Tag0,unknown
1610200537671,26,-213,-4.68017578125E-5,0,0,90,809777,1199798,133318,142238,16774593,36006,16749705,16754381,Tag0,unknown
1610200537696,26,103,2.26318359375E-5,0,0,90,809777,1199798,133318,142238,16774593,36006,16749705,16754381,Tag0,unknown
1610200537706,26,365,8.02001953125E-5,0,0,90,809777,1199798,133318,142238,16774593,36006,16749705,16754381,Tag0,unknown
1610200537731,26,317,6.96533203125E-5,0,0,90,809777,1199798,133318,142238,16774593,36006,16749705,16754381,Tag0,unknown
1610200537741,26,160,3.515625E-5,0,0,90,809777,1199798,133318,142238,16774593,36006,16749705,16754381,Tag0,unknown
1610200537755,26,280,6.15234375E-5,0,0,90,809777,1199798,133318,142238,16774593,36006,16749705,16754381,Tag0,unknown
1610200537772,26,-40,-8.7890625E-6,0,0,90,809777,1199798,133318,142238,16774593,36006,16749705,16754381,Tag0,unknown
1610200537804,26,-1028,-2.2587890625E-4,0,0,90,809777,1199798,133318,142238,16774593,36006,16749705,16754381,Tag0,unknown
1610200537821,26,-827,-1.8171386718750002E-4,0,0,90,809777,1199798,133318,142238,16774593,36006,16749705,16754381,Tag0,unknown
1610200537831,26,-170,-3.7353515625E-5,0,0,90,809777,1199798,133318,142238,16774593,36006,16749705,16754381,Tag0,unknown
1610200537845,26,-195,-4.28466796875E-5,0,0,90,809777,1199798,133318,142238,16774593,36006,16749705,16754381,Tag0,unknown
1610200537856,26,-455,-9.99755859375E-5,0,0,90,809777,1199798,133318,142238,16774593,36006,16749705,16754381,Tag0,unknown
1610200537874,26,-62,-1.3623046875E-5,0,0,90,809777,1199798,133318,142238,16774593,36006,16749705,16754381,Tag0,unknown
1610200537889,26,836,1.8369140625E-4,0,0,90,809777,1199798,133318,142238,16774593,36006,16749705,16754381,Tag0,unknown
1610200537905,26,289,6.35009765625E-5,0,0,90,809777,1199798,133318,142238,16774593,36006,16749705,16754381,Tag0,unknown
1610200537923,26,-93,-2.04345703125E-5,0,0,90,809777,1199798,133318,142238,16774593,36006,16749705,16754381,Tag0,unknown
1610200537943,26,201,4.41650390625E-5,0,0,90,809777,1199798,133318,142238,16774593,36006,16749705,16754381,Tag0,unknown
1610200537958,26,-807,-1.7731933593750001E-4,0,0,90,809777,1199798,133318,142238,16774593,36006,16749705,16754381,Tag0,unknown
1610200537972,26,-476,-1.0458984375000001E-4,0,0,90,809777,1199798,133318,142238,16774593,36006,16749705,16754381,Tag0,unknown
1610200538002,26,1169,2.568603515625E-4,0,0,90,809777,1199798,133318,142238,16774593,36006,16749705,16754381,Tag0,unknown
1610200538022,26,1371,3.012451171875E-4,0,0,90,809777,1199798,133318,142238,16774593,36006,16749705,16754381,Tag0,unknown
1610200538032,26,395,8.67919921875E-5,0,0,90,809777,1199798,133318,142238,16774593,36006,16749705,16754381,Tag0,unknown
1610200538042,26,-2048,-4.5E-4,0,0,90,809777,1199798,133318,142238,16774593,36006,16749705,16754381,Tag0,unknown
1610200538062,26,-1201,-2.6389160156250005E-4,0,0,90,809777,1199798,133318,142238,16774593,36006,16749705,16754381,Tag0,unknown
1610200538075,26,-1604,-3.5244140625000005E-4,0,0,90,809777,1199798,133318,142238,16774593,36006,16749705,16754381,Tag0,unknown
1610200538088,26,-452,-9.931640625E-5,0,0,90,809777,1199798,133318,142238,16774593,36006,16749705,16754381,Tag0,unknown
1610200538107,26,-571,-1.254638671875E-4,0,0,90,809777,1199798,133318,142238,16774593,36006,16749705,16754381,Tag0,unknown
1610200538123,26,305,6.70166015625E-5,0,0,90,809777,1199798,133318,142238,16774593,36006,16749705,16754381,Tag0,unknown
1610200538144,26,567,1.245849609375E-4,0,0,90,809777,1199798,133318,142238,16774593,36006,16749705,16754381,Tag0,unknown
1610200538155,26,1333,2.928955078125E-4,0,0,90,809777,1199798,133318,142238,16774593,36006,16749705,16754381,Tag0,unknown
1610200538177,26,1845,4.053955078125E-4,0,0,90,809777,1199798,133318,142238,16774593,36006,16749705,16754381,Tag0,unknown
1610200538188,26,1791,3.935302734375E-4,0,0,90,809777,1199798,133318,142238,16774593,36006,16749705,16754381,Tag0,unknown
1610200538211,26,1581,3.473876953125E-4,0,0,90,809777,1199798,133318,142238,16774593,36006,16749705,16754381,Tag0,unknown
1610200538221,26,1511,3.320068359375E-4,0,0,90,809777,1199798,133318,142238,16774593,36006,16749705,16754381,Tag0,unknown
1610200538253,26,663,1.456787109375E-4,0,0,90,809777,1199798,133318,142238,16774593,36006,16749705,16754381,Tag0,unknown
1610200538272,26,772,1.6962890625000002E-4,0,0,90,809777,1199798,133318,142238,16774593,36006,16749705,16754381,Tag0,unknown
1610200538298,26,106,2.3291015625000003E-5,0,0,90,809777,1199798,133318,142238,16774593,36006,16749705,16754381,Tag0,unknown
1610200538308,26,75,1.64794921875E-5,0,0,90,809777,1199798,133318,142238,16774593,36006,16749705,16754381,Tag0,unknown
1610200538331,26,91,1.99951171875E-5,0,0,90,809777,1199798,133318,142238,16774593,36006,16749705,16754381,Tag0,unknown
1610200538341,26,38,8.349609375E-6,0,0,90,809777,1199798,133318,142238,16774593,36006,16749705,16754381,Tag0,unknown
1610200538355,26,-199,-4.3725585937499995E-5,0,0,90,809777,1199798,133318,142238,16774593,36006,16749705,16754381,Tag0,unknown
1610200538373,26,-1435,-3.153076171875E-4,0,0,90,809777,1199798,133318,142238,16774593,36006,16749705,16754381,Tag0,unknown
1610200538388,26,-852,-1.8720703125E-4,0,0,90,809777,1199798,133318,142238,16774593,36006,16749705,16754381,Tag0,unknown
1610200538405,26,-1080,-2.373046875E-4,0,0,90,809777,1199798,133318,142238,16774593,36006,16749705,16754381,Tag0,unknown
1610200538421,26,-1131,-2.485107421875E-4,0,0,90,809777,1199798,133318,142238,16774593,36006,16749705,16754381,Tag0,unknown
1610200538431,26,-625,-1.373291015625E-4,0,0,90,809777,1199798,133318,142238,16774593,36006,16749705,16754381,Tag0,unknown
1610200538445,26,-887,-1.9489746093750003E-4,0,0,90,809777,1199798,133318,142238,16774593,36006,16749705,16754381,Tag0,unknown
1610200538456,26,-725,-1.593017578125E-4,0,0,90,809777,1199798,133318,142238,16774593,36006,16749705,16754381,Tag0,unknown
1610200538479,26,-637,-1.399658203125E-4,0,0,90,809777,1199798,133318,142238,16774593,36006,16749705,16754381,Tag0,unknown
1610200538492,26,-845,-1.856689453125E-4,0,0,90,809777,1199798,133318,142238,16774593,36006,16749705,16754381,Tag0,unknown
1610200538505,26,-757,-1.663330078125E-4,0,0,90,809777,1199798,133318,142238,16774593,36006,16749705,16754381,Tag0,unknown
1610200538524,26,-694,-1.52490234375E-4,0,0,90,637729,144941,10549,19677,15057,16755445,22149,16760648,Tag0,unknown
1610200538541,26,-770,-1.69189453125E-4,0,0,90,637729,144941,10549,19677,15057,16755445,22149,16760648,Tag0,unknown
1610200538561,26,-229,-5.03173828125E-5,0,0,90,637729,144941,10549,19677,15057,16755445,22149,16760648,Tag0,unknown
1610200538574,26,35,7.6904296875E-6,0,0,90,637729,144941,10549,19677,15057,16755445,22149,16760648,Tag0,unknown
1610200538594,26,-103,-2.26318359375E-5,0,0,90,637729,144941,10549,19677,15057,16755445,22149,16760648,Tag0,unknown
1610200538609,26,-16,-3.515625E-6,0,0,90,637729,144941,10549,19677,15057,16755445,22149,16760648,Tag0,unknown
1610200538622,26,-12,-2.63671875E-6,0,0,90,637729,144941,10549,19677,15057,16755445,22149,16760648,Tag0,unknown
1610200538639,26,279,6.13037109375E-5,0,0,90,637729,144941,10549,19677,15057,16755445,22149,16760648,Tag0,unknown
1610200538663,26,339,7.448730468750001E-5,0,0,90,637729,144941,10549,19677,15057,16755445,22149,16760648,Tag0,unknown
1610200538673,26,169,3.7133789062499996E-5,0,0,90,637729,144941,10549,19677,15057,16755445,22149,16760648,Tag0,unknown
1610200538688,26,423,9.29443359375E-5,0,0,90,637729,144941,10549,19677,15057,16755445,22149,16760648,Tag0,unknown
1610200538707,26,535,1.175537109375E-4,0,0,90,637729,144941,10549,19677,15057,16755445,22149,16760648,Tag0,unknown
1610200538724,26,331,7.272949218750001E-5,0,0,90,637729,144941,10549,19677,15057,16755445,22149,16760648,Tag0,unknown
1610200538741,26,161,3.53759765625E-5,0,0,90,637729,144941,10549,19677,15057,16755445,22149,16760648,Tag0,unknown
1610200538756,26,371,8.151855468750001E-5,0,0,90,637729,144941,10549,19677,15057,16755445,22149,16760648,Tag0,unknown
1610200538777,26,-99,-2.1752929687500003E-5,0,0,90,637729,144941,10549,19677,15057,16755445,22149,16760648,Tag0,unknown
1610200538789,26,73,1.6040039062500002E-5,0,0,90,637729,144941,10549,19677,15057,16755445,22149,16760648,Tag0,unknown
1610200538811,26,-15,-3.2958984375E-6,0,0,90,637729,144941,10549,19677,15057,16755445,22149,16760648,Tag0,unknown
1610200538823,26,300,6.591796875E-5,0,0,90,637729,144941,10549,19677,15057,16755445,22149,16760648,Tag0,unknown
1610200538839,26,-46,-1.0107421875E-5,0,0,90,637729,144941,10549,19677,15057,16755445,22149,16760648,Tag0,unknown
1610200538855,26,-24,-5.2734375E-6,0,0,90,637729,144941,10549,19677,15057,16755445,22149,16760648,Tag0,unknown
1610200538872,26,-39,-8.5693359375E-6,0,0,90,637729,144941,10549,19677,15057,16755445,22149,16760648,Tag0,unknown
1610200538890,26,52,1.142578125E-5,0,0,90,637729,144941,10549,19677,15057,16755445,22149,16760648,Tag0,unknown
1610200538905,26,115,2.52685546875E-5,0,0,90,637729,144941,10549,19677,15057,16755445,22149,16760648,Tag0,unknown
1610200538930,26,-563,-1.237060546875E-4,0,0,90,637729,144941,10549,19677,15057,16755445,22149,16760648,Tag0,unknown
1610200538940,26,-349,-7.668457031250001E-5,0,0,90,637729,144941,10549,19677,15057,16755445,22149,16760648,Tag0,unknown
1610200538955,26,-613,-1.3469238281250002E-4,0,0,90,637729,144941,10549,19677,15057,16755445,22149,16760648,Tag0,unknown
1610200538973,26,-459,-1.008544921875E-4,0,0,90,637729,144941,10549,19677,15057,16755445,22149,16760648,Tag0,unknown
1610200538989,26,-313,-6.87744140625E-5,0,0,90,637729,144941,10549,19677,15057,16755445,22149,16760648,Tag0,unknown
1610200539010,26,-127,-2.79052734375E-5,0,0,90,637729,144941,10549,19677,15057,16755445,22149,16760648,Tag0,unknown
1610200539021,26,-73,-1.6040039062500002E-5,0,0,90,637729,144941,10549,19677,15057,16755445,22149,16760648,Tag0,unknown
1610200539046,26,626,1.37548828125E-4,0,0,90,637729,144941,10549,19677,15057,16755445,22149,16760648,Tag0,unknown
1610200539056,26,581,1.276611328125E-4,0,0,90,637729,144941,10549,19677,15057,16755445,22149,16760648,Tag0,unknown
1610200539079,26,485,1.065673828125E-4,0,0,90,637729,144941,10549,19677,15057,16755445,22149,16760648,Tag0,unknown
1610200539089,26,619,1.360107421875E-4,0,0,90,637729,144941,10549,19677,15057,16755445,22149,16760648,Tag0,unknown
1610200539116,26,471,1.0349121093750001E-4,0,0,90,637729,144941,10549,19677,15057,16755445,22149,16760648,Tag0,unknown
1610200539126,26,547,1.201904296875E-4,0,0,90,637729,144941,10549,19677,15057,16755445,22149,16760648,Tag0,unknown
1610200539157,26,326,7.163085937500001E-5,0,0,90,637729,144941,10549,19677,15057,16755445,22149,16760648,Tag0,unknown
1610200539171,26,149,3.27392578125E-5,0,0,90,637729,144941,10549,19677,15057,16755445,22149,16760648,Tag0,unknown
1610200539191,26,-127,-2.79052734375E-5,0,0,90,637729,144941,10549,19677,15057,16755445,22149,16760648,Tag0,unknown
1610200539205,26,257,5.64697265625E-5,0,0,90,637729,144941,10549,19677,15057,16755445,22149,16760648,Tag0,unknown
1610200539234,26,542,1.19091796875E-4,0,0,90,637729,144941,10549,19677,15057,16755445,22149,16760648,Tag0,unknown
1610200539256,26,309,6.78955078125E-5,0,0,90,637729,144941,10549,19677,15057,16755445,22149,16760648,Tag0,unknown
1610200539283,26,-344,-7.558593750000001E-5,0,0,90,637729,144941,10549,19677,15057,16755445,22149,16760648,Tag0,unknown
1610200539293,26,-301,-6.613769531250001E-5,0,0,90,637729,144941,10549,19677,15057,16755445,22149,16760648,Tag0,unknown
1610200539306,26,-1113,-2.445556640625E-4,0,0,90,637729,144941,10549,19677,15057,16755445,22149,16760648,Tag0,unknown
1610200539325,26,1108,2.4345703125000002E-4,0,0,90,637729,144941,10549,19677,15057,16755445,22149,16760648,Tag0,unknown
1610200539379,26,-1629,-3.5793457031250004E-4,0,0,90,637729,144941,10549,19677,15057,16755445,22149,16760648,Tag0,unknown
1610200539390,26,-1857,-4.080322265625E-4,0,0,90,637729,144941,10549,19677,15057,16755445,22149,16760648,Tag0,unknown
1610200539400,26,45,9.8876953125E-6,0,0,90,637729,144941,10549,19677,15057,16755445,22149,16760648,Tag0,unknown
1610200539410,26,-573,-1.259033203125E-4,0,0,90,637729,144941,10549,19677,15057,16755445,22149,16760648,Tag0,unknown
1610200539454,26,515,1.131591796875E-4,0,0,90,637729,144941,10549,19677,15057,16755445,22149,16760648,Tag0,unknown
1610200539473,26,150,3.2958984375E-5,0,0,90,637729,144941,10549,19677,15057,16755445,22149,16760648,Tag0,unknown
1610200539483,26,775,1.702880859375E-4,0,0,90,637729,144941,10549,19677,15057,16755445,22149,16760648,Tag0,unknown
1610200539528,26,-3,-6.591796875E-7,0,0,90,637729,144941,10549,19677,15057,16755445,22149,16760648,Tag0,unknown
1610200539539,26,-270,-5.9326171875E-5,0,0,90,637729,144941,10549,19677,15057,16755445,22149,16760648,Tag0,unknown
1610200539549,26,-298,-6.5478515625E-5,0,0,90,637729,144941,10549,19677,15057,16755445,22149,16760648,Tag0,unknown
1610200539563,26,-371,-8.151855468750001E-5,0,0,90,752487,247707,191000,16775356,45856,41256,16750340,26050,Tag0,unknown
1610200539573,26,556,1.2216796875000002E-4,0,0,90,752487,247707,191000,16775356,45856,41256,16750340,26050,Tag0,unknown
1610200539591,26,69,1.51611328125E-5,0,0,90,752487,247707,191000,16775356,45856,41256,16750340,26050,Tag0,unknown
1610200539605,26,-374,-8.2177734375E-5,0,0,90,752487,247707,191000,16775356,45856,41256,16750340,26050,Tag0,unknown
1610200539621,26,-149,-3.27392578125E-5,0,0,90,752487,247707,191000,16775356,45856,41256,16750340,26050,Tag0,unknown
1610200539642,26,-821,-1.803955078125E-4,0,0,90,752487,247707,191000,16775356,45856,41256,16750340,26050,Tag0,unknown
1610200539655,26,-821,-1.803955078125E-4,0,0,90,752487,247707,191000,16775356,45856,41256,16750340,26050,Tag0,unknown
1610200539677,26,-1131,-2.485107421875E-4,0,0,90,752487,247707,191000,16775356,45856,41256,16750340,26050,Tag0,unknown
1610200539690,26,-681,-1.496337890625E-4,0,0,90,752487,247707,191000,16775356,45856,41256,16750340,26050,Tag0,unknown
1610200539700,26,825,1.812744140625E-4,0,0,90,752487,247707,191000,16775356,45856,41256,16750340,26050,Tag0,unknown
1610200539719,26,-1059,-2.3269042968750001E-4,0,0,90,752487,247707,191000,16775356,45856,41256,16750340,26050,Tag0,unknown
1610200539739,26,-2048,-4.5E-4,0,0,90,752487,247707,191000,16775356,45856,41256,16750340,26050,Tag0,unknown
1610200539763,26,-2048,-4.5E-4,0,0,90,752487,247707,191000,16775356,45856,41256,16750340,26050,Tag0,unknown
1610200539773,26,-385,-8.45947265625E-5,0,0,90,752487,247707,191000,16775356,45856,41256,16750340,26050,Tag0,unknown
1610200539789,26,-483,-1.061279296875E-4,0,0,90,752487,247707,191000,16775356,45856,41256,16750340,26050,Tag0,unknown
1610200539805,26,-141,-3.09814453125E-5,0,0,90,752487,247707,191000,16775356,45856,41256,16750340,26050,Tag0,unknown
1610200539828,26,-80,-1.7578125E-5,0,0,90,752487,247707,191000,16775356,45856,41256,16750340,26050,Tag0,unknown
1610200539838,26,108,2.3730468750000002E-5,0,0,90,752487,247707,191000,16775356,45856,41256,16750340,26050,Tag0,unknown
1610200539867,26,215,4.72412109375E-5,0,0,90,752487,247707,191000,16775356,45856,41256,16750340,26050,Tag0,unknown
1610200539889,26,137,3.0102539062499998E-5,0,0,90,752487,247707,191000,16775356,45856,41256,16750340,26050,Tag0,unknown
1610200539905,26,193,4.2407226562500005E-5,0,0,90,752487,247707,191000,16775356,45856,41256,16750340,26050,Tag0,unknown
1610200539922,26,539,1.1843261718750001E-4,0,0,90,752487,247707,191000,16775356,45856,41256,16750340,26050,Tag0,unknown
1610200539938,26,606,1.33154296875E-4,0,0,90,752487,247707,191000,16775356,45856,41256,16750340,26050,Tag0,unknown
1610200539955,26,640,1.40625E-4,0,0,90,752487,247707,191000,16775356,45856,41256,16750340,26050,Tag0,unknown
1610200539977,26,481,1.056884765625E-4,0,0,90,752487,247707,191000,16775356,45856,41256,16750340,26050,Tag0,unknown
1610200539989,26,-7,-1.5380859375E-6,0,0,90,752487,247707,191000,16775356,45856,41256,16750340,26050,Tag0,unknown
1610200539999,26,-635,-1.395263671875E-4,0,0,90,752487,247707,191000,16775356,45856,41256,16750340,26050,Tag0,unknown
1610200540019,26,-153,-3.3618164062500004E-5,0,0,90,752487,247707,191000,16775356,45856,41256,16750340,26050,Tag0,unknown
1610200540039,26,-204,-4.4824218749999996E-5,0,0,90,752487,247707,191000,16775356,45856,41256,16750340,26050,Tag0,unknown
1610200540056,26,-193,-4.2407226562500005E-5,0,0,90,752487,247707,191000,16775356,45856,41256,16750340,26050,Tag0,unknown
1610200540072,26,-257,-5.64697265625E-5,0,0,90,752487,247707,191000,16775356,45856,41256,16750340,26050,Tag0,unknown
1610200540090,26,811,1.781982421875E-4,0,0,90,752487,247707,191000,16775356,45856,41256,16750340,26050,Tag0,unknown
1610200540106,26,1377,3.0256347656249996E-4,0,0,90,752487,247707,191000,16775356,45856,41256,16750340,26050,Tag0,unknown
1610200540129,26,461,1.0129394531250001E-4,0,0,90,752487,247707,191000,16775356,45856,41256,16750340,26050,Tag0,unknown
1610200540139,26,628,1.3798828125E-4,0,0,90,752487,247707,191000,16775356,45856,41256,16750340,26050,Tag0,unknown
1610200540168,26,1428,3.1376953125000003E-4,0,0,90,752487,247707,191000,16775356,45856,41256,16750340,26050,Tag0,unknown
1610200540190,26,985,2.164306640625E-4,0,0,90,752487,247707,191000,16775356,45856,41256,16750340,26050,Tag0,unknown
1610200540207,26,498,1.09423828125E-4,0,0,90,752487,247707,191000,16775356,45856,41256,16750340,26050,Tag0,unknown
1610200540223,26,843,1.852294921875E-4,0,0,90,752487,247707,191000,16775356,45856,41256,16750340,26050,Tag0,unknown
1610200540240,26,-613,-1.3469238281250002E-4,0,0,90,752487,247707,191000,16775356,45856,41256,16750340,26050,Tag0,unknown
1610200540257,26,-1034,-2.27197265625E-4,0,0,90,752487,247707,191000,16775356,45856,41256,16750340,26050,Tag0,unknown
1610200540277,26,-717,-1.5754394531250002E-4,0,0,90,752487,247707,191000,16775356,45856,41256,16750340,26050,Tag0,unknown
1610200540290,26,-201,-4.41650390625E-5,0,0,90,752487,247707,191000,16775356,45856,41256,16750340,26050,Tag0,unknown
1610200540306,26,157,3.44970703125E-5,0,0,90,752487,247707,191000,16775356,45856,41256,16750340,26050,Tag0,unknown
1610200540323,26,-1158,-2.54443359375E-4,0,0,90,752487,247707,191000,16775356,45856,41256,16750340,26050,Tag0,unknown
1610200540339,26,-578,-1.27001953125E-4,0,0,90,752487,247707,191000,16775356,45856,41256,16750340,26050,Tag0,unknown
1610200540357,26,-1199,-2.6345214843750004E-4,0,0,90,752487,247707,191000,16775356,45856,41256,16750340,26050,Tag0,unknown
1610200540374,26,-1172,-2.5751953125E-4,0,0,90,752487,247707,191000,16775356,45856,41256,16750340,26050,Tag0,unknown
1610200540395,26,1525,3.350830078125E-4,0,0,90,752487,247707,191000,16775356,45856,41256,16750340,26050,Tag0,unknown
1610200540406,26,1463,3.214599609375E-4,0,0,90,752487,247707,191000,16775356,45856,41256,16750340,26050,Tag0,unknown
1610200540429,26,971,2.133544921875E-4,0,0,90,752487,247707,191000,16775356,45856,41256,16750340,26050,Tag0,unknown
1610200540441,26,1129,2.480712890625E-4,0,0,90,752487,247707,191000,16775356,45856,41256,16750340,26050,Tag0,unknown
1610200540456,26,-1009,-2.217041015625E-4,0,0,90,752487,247707,191000,16775356,45856,41256,16750340,26050,Tag0,unknown
1610200540473,26,-2048,-4.5E-4,0,0,90,752487,247707,191000,16775356,45856,41256,16750340,26050,Tag0,unknown
1610200540489,26,-1979,-4.3483886718750003E-4,0,0,90,752487,247707,191000,16775356,45856,41256,16750340,26050,Tag0,unknown
1610200540508,26,-2048,-4.5E-4,0,0,90,752487,247707,191000,16775356,45856,41256,16750340,26050,Tag0,unknown
1610200540523,26,-566,-1.2436523437500002E-4,0,0,90,1562728,405050,220450,16750004,16750785,239655,90541,65091,Tag0,unknown
1610200540543,26,-411,-9.03076171875E-5,0,0,90,1562728,405050,220450,16750004,16750785,239655,90541,65091,Tag0,unknown
1610200540556,26,-597,-1.3117675781250003E-4,0,0,90,1562728,405050,220450,16750004,16750785,239655,90541,65091,Tag0,unknown
1610200540583,26,-417,-9.16259765625E-5,0,0,90,1562728,405050,220450,16750004,16750785,239655,90541,65091,Tag0,unknown
1610200540596,26,-407,-8.94287109375E-5,0,0,90,1562728,405050,220450,16750004,16750785,239655,90541,65091,Tag0,unknown
1610200540607,26,-554,-1.2172851562500001E-4,0,0,90,1562728,405050,220450,16750004,16750785,239655,90541,65091,Tag0,unknown
1610200540623,26,318,6.9873046875E-5,0,0,90,1562728,405050,220450,16750004,16750785,239655,90541,65091,Tag0,unknown
1610200540639,26,316,6.943359375000001E-5,0,0,90,1562728,405050,220450,16750004,16750785,239655,90541,65091,Tag0,unknown
1610200540649,26,701,1.540283203125E-4,0,0,90,1562728,405050,220450,16750004,16750785,239655,90541,65091,Tag0,unknown
1610200540672,26,1065,2.340087890625E-4,0,0,90,1562728,405050,220450,16750004,16750785,239655,90541,65091,Tag0,unknown
1610200540691,26,1040,2.28515625E-4,0,0,90,1562728,405050,220450,16750004,16750785,239655,90541,65091,Tag0,unknown
1610200540707,26,685,1.505126953125E-4,0,0,90,1562728,405050,220450,16750004,16750785,239655,90541,65091,Tag0,unknown
1610200540735,26,837,1.8391113281250002E-4,0,0,90,1562728,405050,220450,16750004,16750785,239655,90541,65091,Tag0,unknown
1610200540745,26,427,9.382324218750001E-5,0,0,90,1562728,405050,220450,16750004,16750785,239655,90541,65091,Tag0,unknown
1610200540766,26,393,8.63525390625E-5,0,0,90,1562728,405050,220450,16750004,16750785,239655,90541,65091,Tag0,unknown
1610200540789,26,147,3.22998046875E-5,0,0,90,1562728,405050,220450,16750004,16750785,239655,90541,65091,Tag0,unknown
1610200540806,26,108,2.3730468750000002E-5,0,0,90,1562728,405050,220450,16750004,16750785,239655,90541,65091,Tag0,unknown
1610200540823,26,-345,-7.58056640625E-5,0,0,90,1562728,405050,220450,16750004,16750785,239655,90541,65091,Tag0,unknown
1610200540840,26,-263,-5.7788085937500005E-5,0,0,90,1562728,405050,220450,16750004,16750785,239655,90541,65091,Tag0,unknown
1610200540855,26,-257,-5.64697265625E-5,0,0,90,1562728,405050,220450,16750004,16750785,239655,90541,65091,Tag0,unknown
1610200540880,26,168,3.691406250000001E-5,0,0,90,1562728,405050,220450,16750004,16750785,239655,90541,65091,Tag0,unknown
1610200540890,26,538,1.1821289062499999E-4,0,0,90,1562728,405050,220450,16750004,16750785,239655,90541,65091,Tag0,unknown
1610200540905,26,149,3.27392578125E-5,0,0,90,1562728,405050,220450,16750004,16750785,239655,90541,65091,Tag0,unknown
1610200540923,26,-38,-8.349609375E-6,0,0,90,1562728,405050,220450,16750004,16750785,239655,90541,65091,Tag0,unknown
1610200540952,26,-318,-6.9873046875E-5,0,0,57,1562728,405050,220450,16750004,16750785,239655,90541,65091,Tag0,unknown
1610200540962,26,-562,-1.23486328125E-4,0,0,57,1562728,405050,220450,16750004,16750785,239655,90541,65091,Tag0,unknown
1610200540973,26,-519,-1.140380859375E-4,0,0,57,1562728,405050,220450,16750004,16750785,239655,90541,65091,Tag0,unknown
1610200540990,26,-484,-1.0634765625000001E-4,0,0,57,1562728,405050,220450,16750004,16750785,239655,90541,65091,Tag0,unknown
1610200541006,26,-557,-1.223876953125E-4,0,0,57,1562728,405050,220450,16750004,16750785,239655,90541,65091,Tag0,unknown
1610200541029,26,-365,-8.02001953125E-5,0,0,57,1562728,405050,220450,16750004,16750785,239655,90541,65091,Tag0,unknown
1610200541039,26,-580,-1.2744140625E-4,0,0,57,1562728,405050,220450,16750004,16750785,239655,90541,65091,Tag0,unknown
1610200541056,26,-80,-1.7578125E-5,0,0,57,1562728,405050,220450,16750004,16750785,239655,90541,65091,Tag0,unknown
1610200541074,26,289,6.35009765625E-5,0,0,57,1562728,405050,220450,16750004,16750785,239655,90541,65091,Tag0,unknown
1610200541104,26,364,7.998046875E-5,0,0,57,1562728,405050,220450,16750004,16750785,239655,90541,65091,Tag0,unknown
1610200541123,26,331,7.272949218750001E-5,0,0,57,1562728,405050,220450,16750004,16750785,239655,90541,65091,Tag0,unknown
1610200541133,26,16,3.515625E-6,0,0,57,1562728,405050,220450,16750004,16750785,239655,90541,65091,Tag0,unknown
1610200541156,26,-404,-8.876953125000001E-5,0,0,57,1562728,405050,220450,16750004,16750785,239655,90541,65091,Tag0,unknown
1610200541179,26,430,9.4482421875E-5,0,0,57,1562728,405050,220450,16750004,16750785,239655,90541,65091,Tag0,unknown
1610200541191,26,418,9.1845703125E-5,0,0,57,1562728,405050,220450,16750004,16750785,239655,90541,65091,Tag0,unknown
1610200541201,26,69,1.51611328125E-5,0,0,57,1562728,405050,220450,16750004,16750785,239655,90541,65091,Tag0,unknown
1610200541215,26,-282,-6.1962890625E-5,0,0,57,1562728,405050,220450,16750004,16750785,239655,90541,65091,Tag0,unknown
1610200541225,26,-378,-8.3056640625E-5,0,0,57,1562728,405050,220450,16750004,16750785,239655,90541,65091,Tag0,unknown
1610200541253,26,649,1.4260253906250002E-4,0,0,57,1562728,405050,220450,16750004,16750785,239655,90541,65091,Tag0,unknown
1610200541263,26,456,1.0019531250000001E-4,0,0,57,1562728,405050,220450,16750004,16750785,239655,90541,65091,Tag0,unknown
1610200541274,26,322,7.0751953125E-5,0,0,57,1562728,405050,220450,16750004,16750785,239655,90541,65091,Tag0,unknown
1610200541289,26,-1901,-4.177001953125E-4,0,0,57,1562728,405050,220450,16750004,16750785,239655,90541,65091,Tag0,unknown
1610200541308,26,-2048,-4.5E-4,0,0,57,1562728,405050,220450,16750004,16750785,239655,90541,65091,Tag0,unknown
1610200541322,26,-1077,-2.366455078125E-4,0,0,57,1562728,405050,220450,16750004,16750785,239655,90541,65091,Tag0,unknown
1610200541339,26,-1323,-2.906982421875E-4,0,0,57,1562728,405050,220450,16750004,16750785,239655,90541,65091,Tag0,unknown
1610200541361,26,-739,-1.623779296875E-4,0,0,57,1562728,405050,220450,16750004,16750785,239655,90541,65091,Tag0,unknown
1610200541372,26,-956,-2.1005859374999999E-4,0,0,57,1562728,405050,220450,16750004,16750785,239655,90541,65091,Tag0,unknown
1610200541403,26,-1596,-3.5068359375000003E-4,0,0,57,1562728,405050,220450,16750004,16750785,239655,90541,65091,Tag0,unknown
1610200541423,26,-1618,-3.55517578125E-4,0,0,57,1562728,405050,220450,16750004,16750785,239655,90541,65091,Tag0,unknown
1610200541444,26,-664,-1.458984375E-4,0,0,57,1562728,405050,220450,16750004,16750785,239655,90541,65091,Tag0,unknown
1610200541457,26,-415,-9.11865234375E-5,0,0,57,1562728,405050,220450,16750004,16750785,239655,90541,65091,Tag0,unknown
1610200541481,26,-217,-4.76806640625E-5,0,0,57,1562728,405050,220450,16750004,16750785,239655,90541,65091,Tag0,unknown
1610200541491,26,-131,-2.87841796875E-5,0,0,57,1562728,405050,220450,16750004,16750785,239655,90541,65091,Tag0,unknown
1610200541507,26,579,1.272216796875E-4,0,0,57,908921,156629,62230,16749867,81216,16753019,16746997,21856,Tag0,unknown
1610200541531,26,1791,3.935302734375E-4,0,0,57,908921,156629,62230,16749867,81216,16753019,16746997,21856,Tag0,unknown
1610200541541,26,1791,3.935302734375E-4,0,0,57,908921,156629,62230,16749867,81216,16753019,16746997,21856,Tag0,unknown
1610200541560,26,1791,3.935302734375E-4,0,0,57,908921,156629,62230,16749867,81216,16753019,16746997,21856,Tag0,unknown
1610200541576,26,1791,3.935302734375E-4,0,0,57,908921,156629,62230,16749867,81216,16753019,16746997,21856,Tag0,unknown
1610200541601,26,1003,2.2038574218750001E-4,0,0,57,908921,156629,62230,16749867,81216,16753019,16746997,21856,Tag0,unknown
1610200541611,26,688,1.5117187500000002E-4,0,0,57,908921,156629,62230,16749867,81216,16753019,16746997,21856,Tag0,unknown
1610200541622,26,848,1.8632812500000002E-4,0,0,57,908921,156629,62230,16749867,81216,16753019,16746997,21856,Tag0,unknown
1610200541639,26,569,1.250244140625E-4,0,0,57,908921,156629,62230,16749867,81216,16753019,16746997,21856,Tag0,unknown
1610200541669,26,167,3.6694335937500004E-5,0,0,57,908921,156629,62230,16749867,81216,16753019,16746997,21856,Tag0,unknown
1610200541689,26,160,3.515625E-5,0,0,57,908921,156629,62230,16749867,81216,16753019,16746997,21856,Tag0,unknown
1610200541707,26,300,6.591796875E-5,0,0,57,908921,156629,62230,16749867,81216,16753019,16746997,21856,Tag0,unknown
1610200541722,26,-27,-5.9326171875000005E-6,0,0,57,908921,156629,62230,16749867,81216,16753019,16746997,21856,Tag0,unknown
1610200541745,26,-99,-2.1752929687500003E-5,0,0,57,908921,156629,62230,16749867,81216,16753019,16746997,21856,Tag0,unknown
1610200541755,26,-100,-2.197265625E-5,0,0,57,908921,156629,62230,16749867,81216,16753019,16746997,21856,Tag0,unknown
1610200541778,26,-128,-2.8125E-5,0,0,57,908921,156629,62230,16749867,81216,16753019,16746997,21856,Tag0,unknown
1610200541790,26,121,2.6586914062500003E-5,0,0,57,908921,156629,62230,16749867,81216,16753019,16746997,21856,Tag0,unknown
1610200541800,26,91,1.99951171875E-5,0,0,57,908921,156629,62230,16749867,81216,16753019,16746997,21856,Tag0,unknown
1610200541815,26,89,1.95556640625E-5,0,0,57,908921,156629,62230,16749867,81216,16753019,16746997,21856,Tag0,unknown
1610200541825,26,86,1.8896484375000003E-5,0,0,57,908921,156629,62230,16749867,81216,16753019,16746997,21856,Tag0,unknown
1610200541860,26,82,1.8017578124999998E-5,0,0,57,908921,156629,62230,16749867,81216,16753019,16746997,21856,Tag0,unknown
1610200541872,26,77,1.69189453125E-5,0,0,57,908921,156629,62230,16749867,81216,16753019,16746997,21856,Tag0,unknown
1610200541882,26,-856,-1.880859375E-4,0,0,57,908921,156629,62230,16749867,81216,16753019,16746997,21856,Tag0,unknown
1610200541908,26,-2048,-4.5E-4,0,0,57,908921,156629,62230,16749867,81216,16753019,16746997,21856,Tag0,unknown
1610200541922,26,-2048,-4.5E-4,0,0,57,908921,156629,62230,16749867,81216,16753019,16746997,21856,Tag0,unknown
1610200541932,26,-2048,-4.5E-4,0,0,57,908921,156629,62230,16749867,81216,16753019,16746997,21856,Tag0,unknown
1610200541942,26,-1527,-3.3552246093749996E-4,0,0,57,908921,156629,62230,16749867,81216,16753019,16746997,21856,Tag0,unknown
1610200541963,26,-1372,-3.0146484375E-4,0,0,57,908921,156629,62230,16749867,81216,16753019,16746997,21856,Tag0,unknown
1610200541973,26,-1331,-2.9245605468750005E-4,0,0,57,908921,156629,62230,16749867,81216,16753019,16746997,21856,Tag0,unknown
1610200542004,26,-661,-1.452392578125E-4,0,0,57,908921,156629,62230,16749867,81216,16753019,16746997,21856,Tag0,unknown
1610200542022,26,-889,-1.953369140625E-4,0,0,57,908921,156629,62230,16749867,81216,16753019,16746997,21856,Tag0,unknown
1610200542032,26,-228,-5.0097656250000005E-5,0,0,57,908921,156629,62230,16749867,81216,16753019,16746997,21856,Tag0,unknown
1610200542046,26,-218,-4.7900390625E-5,0,0,57,908921,156629,62230,16749867,81216,16753019,16746997,21856,Tag0,unknown
1610200542056,26,-209,-4.59228515625E-5,0,0,57,908921,156629,62230,16749867,81216,16753019,16746997,21856,Tag0,unknown
1610200542066,26,-313,-6.87744140625E-5,0,0,57,908921,156629,62230,16749867,81216,16753019,16746997,21856,Tag0,unknown
1610200542082,26,-300,-6.591796875E-5,0,0,57,908921,156629,62230,16749867,81216,16753019,16746997,21856,Tag0,unknown
1610200542092,26,-275,-6.04248046875E-5,0,0,57,908921,156629,62230,16749867,81216,16753019,16746997,21856,Tag0,unknown
1610200542117,26,-261,-5.73486328125E-5,0,0,57,908921,156629,62230,16749867,81216,16753019,16746997,21856,Tag0,unknown
1610200542127,26,12,2.63671875E-6,0,0,57,908921,156629,62230,16749867,81216,16753019,16746997,21856,Tag0,unknown
1610200542140,26,24,5.2734375E-6,0,0,57,908921,156629,62230,16749867,81216,16753019,16746997,21856,Tag0,unknown
1610200542161,26,39,8.5693359375E-6,0,0,57,908921,156629,62230,16749867,81216,16753019,16746997,21856,Tag0,unknown
1610200542175,26,40,8.7890625E-6,0,0,57,908921,156629,62230,16749867,81216,16753019,16746997,21856,Tag0,unknown
1610200542185,26,-510,-1.12060546875E-4,0,0,57,908921,156629,62230,16749867,81216,16753019,16746997,21856,Tag0,unknown
1610200542204,26,-251,-5.5151367187500004E-5,0,0,57,908921,156629,62230,16749867,81216,16753019,16746997,21856,Tag0,unknown
1610200542223,26,-339,-7.448730468750001E-5,0,0,57,908921,156629,62230,16749867,81216,16753019,16746997,21856,Tag0,unknown
1610200542241,26,1764,3.8759765625000003E-4,0,0,57,908921,156629,62230,16749867,81216,16753019,16746997,21856,Tag0,unknown
1610200542263,26,1523,3.346435546875E-4,0,0,57,908921,156629,62230,16749867,81216,16753019,16746997,21856,Tag0,unknown
1610200542279,26,1494,3.2827148437500006E-4,0,0,57,908921,156629,62230,16749867,81216,16753019,16746997,21856,Tag0,unknown
1610200542289,26,1791,3.935302734375E-4,0,0,57,908921,156629,62230,16749867,81216,16753019,16746997,21856,Tag0,unknown
1610200542303,26,1905,4.185791015625E-4,0,0,57,908921,156629,62230,16749867,81216,16753019,16746997,21856,Tag0,unknown
1610200542323,26,1745,3.834228515625E-4,0,0,57,908921,156629,62230,16749867,81216,16753019,16746997,21856,Tag0,unknown
1610200542345,26,-579,-1.272216796875E-4,0,0,57,908921,156629,62230,16749867,81216,16753019,16746997,21856,Tag0,unknown
1610200542356,26,-293,-6.43798828125E-5,0,0,57,908921,156629,62230,16749867,81216,16753019,16746997,21856,Tag0,unknown
1610200542378,26,1045,2.296142578125E-4,0,0,57,908921,156629,62230,16749867,81216,16753019,16746997,21856,Tag0,unknown
1610200542390,26,1380,3.0322265625E-4,0,0,57,908921,156629,62230,16749867,81216,16753019,16746997,21856,Tag0,unknown
1610200542411,26,418,9.1845703125E-5,0,0,57,908921,156629,62230,16749867,81216,16753019,16746997,21856,Tag0,unknown
1610200542425,26,779,1.7116699218750001E-4,0,0,57,908921,156629,62230,16749867,81216,16753019,16746997,21856,Tag0,unknown
1610200542452,26,185,4.06494140625E-5,0,0,57,908921,156629,62230,16749867,81216,16753019,16746997,21856,Tag0,unknown
1610200542473,26,176,3.8671875E-5,0,0,57,908921,156629,62230,16749867,81216,16753019,16746997,21856,Tag0,unknown
1610200542496,26,-71,-1.56005859375E-5,0,0,57,908921,156629,62230,16749867,81216,16753019,16746997,21856,Tag0,unknown
1610200542507,26,-96,-2.109375E-5,0,0,57,908921,156629,62230,16749867,81216,16753019,16746997,21856,Tag0,unknown
1610200542517,51,-344,-7.558593750000001E-5,0,0,57,1239149,69061,21137,14550,12321,14660,15245,18256,Tag0,unknown
1610200542528,51,22,4.833984375E-6,0,0,57,1239149,69061,21137,14550,12321,14660,15245,18256,Tag0,unknown
1610200542539,51,-151,-3.31787109375E-5,0,0,57,1239149,69061,21137,14550,12321,14660,15245,18256,Tag0,unknown
1610200542557,51,-141,-3.09814453125E-5,0,0,57,1239149,69061,21137,14550,12321,14660,15245,18256,Tag0,unknown
1610200542573,51,112,2.4609375E-5,0,0,57,1239149,69061,21137,14550,12321,14660,15245,18256,Tag0,unknown
1610200542603,51,-13,-2.8564453125E-6,0,0,57,1239149,69061,21137,14550,12321,14660,15245,18256,Tag0,unknown
1610200542624,51,-25,-5.4931640625E-6,0,0,57,1239149,69061,21137,14550,12321,14660,15245,18256,Tag0,unknown
1610200542634,51,326,7.163085937500001E-5,0,0,57,1239149,69061,21137,14550,12321,14660,15245,18256,Tag0,unknown
1610200542644,51,-520,-1.142578125E-4,0,0,57,1239149,69061,21137,14550,12321,14660,15245,18256,Tag0,unknown
1610200542658,51,-773,-1.6984863281250002E-4,0,0,57,1239149,69061,21137,14550,12321,14660,15245,18256,Tag0,unknown
1610200542668,51,-2048,-4.5E-4,0,0,57,1239149,69061,21137,14550,12321,14660,15245,18256,Tag0,unknown
1610200542690,51,-2048,-4.5E-4,0,0,57,1239149,69061,21137,14550,12321,14660,15245,18256,Tag0,unknown
1610200542715,51,-1784,-3.9199218750000003E-4,0,0,57,1239149,69061,21137,14550,12321,14660,15245,18256,Tag0,unknown
1610200542725,51,-1719,-3.7770996093750003E-4,0,0,57,1239149,69061,21137,14550,12321,14660,15245,18256,Tag0,unknown
1610200542743,51,-1101,-2.419189453125E-4,0,0,57,1239149,69061,21137,14550,12321,14660,15245,18256,Tag0,unknown
1610200542759,51,-663,-1.456787109375E-4,0,0,57,1239149,69061,21137,14550,12321,14660,15245,18256,Tag0,unknown
1610200542773,51,-890,-1.95556640625E-4,0,0,57,1239149,69061,21137,14550,12321,14660,15245,18256,Tag0,unknown
1610200542783,51,-521,-1.1447753906250001E-4,0,0,57,1239149,69061,21137,14550,12321,14660,15245,18256,Tag0,unknown
1610200542807,51,-219,-4.81201171875E-5,0,0,57,1239149,69061,21137,14550,12321,14660,15245,18256,Tag0,unknown
1610200542828,51,112,2.4609375E-5,0,0,57,1239149,69061,21137,14550,12321,14660,15245,18256,Tag0,unknown
1610200542839,51,-69,-1.51611328125E-5,0,0,57,1239149,69061,21137,14550,12321,14660,15245,18256,Tag0,unknown
1610200542861,51,1208,2.654296875E-4,0,0,57,1239149,69061,21137,14550,12321,14660,15245,18256,Tag0,unknown
1610200542874,51,1256,2.759765625E-4,0,0,57,1239149,69061,21137,14550,12321,14660,15245,18256,Tag0,unknown
1610200542906,51,1791,3.935302734375E-4,0,0,57,1239149,69061,21137,14550,12321,14660,15245,18256,Tag0,unknown
1610200542923,51,1791,3.935302734375E-4,0,0,57,1239149,69061,21137,14550,12321,14660,15245,18256,Tag0,unknown
1610200542948,51,1451,3.188232421875E-4,0,0,57,1239149,69061,21137,14550,12321,14660,15245,18256,Tag0,unknown
1610200542958,51,1545,3.394775390625E-4,0,0,57,1239149,69061,21137,14550,12321,14660,15245,18256,Tag0,unknown
1610200542981,51,1041,2.287353515625E-4,0,0,57,1239149,69061,21137,14550,12321,14660,15245,18256,Tag0,unknown
1610200542991,51,803,1.764404296875E-4,0,0,57,1239149,69061,21137,14550,12321,14660,15245,18256,Tag0,unknown
1610200543006,51,-2048,-4.5E-4,0,0,57,1239149,69061,21137,14550,12321,14660,15245,18256,Tag0,unknown
1610200543023,51,-2048,-4.5E-4,0,0,57,1239149,69061,21137,14550,12321,14660,15245,18256,Tag0,unknown
1610200543039,51,-2048,-4.5E-4,0,0,57,1239149,69061,21137,14550,12321,14660,15245,18256,Tag0,unknown
1610200543059,51,-565,-1.241455078125E-4,0,0,57,1239149,69061,21137,14550,12321,14660,15245,18256,Tag0,unknown
1610200543073,51,123,2.70263671875E-5,0,0,57,1239149,69061,21137,14550,12321,14660,15245,18256,Tag0,unknown
1610200543084,51,1671,3.671630859375E-4,0,0,57,1239149,69061,21137,14550,12321,14660,15245,18256,Tag0,unknown
1610200543096,51,1616,3.5507812500000003E-4,0,0,57,1239149,69061,21137,14550,12321,14660,15245,18256,Tag0,unknown
1610200543106,51,1559,3.4255371093750006E-4,0,0,57,1239149,69061,21137,14550,12321,14660,15245,18256,Tag0,unknown
1610200543140,51,763,1.6765136718750002E-4,0,0,57,1239149,69061,21137,14550,12321,14660,15245,18256,Tag0,unknown
1610200543155,51,730,1.60400390625E-4,0,0,57,1239149,69061,21137,14550,12321,14660,15245,18256,Tag0,unknown
1610200543172,51,188,4.1308593750000004E-5,0,0,57,1239149,69061,21137,14550,12321,14660,15245,18256,Tag0,unknown
1610200543203,51,263,5.7788085937500005E-5,0,0,57,1239149,69061,21137,14550,12321,14660,15245,18256,Tag0,unknown
1610200543223,51,-99,-2.1752929687500003E-5,0,0,57,1239149,69061,21137,14550,12321,14660,15245,18256,Tag0,unknown
1610200543242,51,-1003,-2.2038574218750001E-4,0,0,57,1239149,69061,21137,14550,12321,14660,15245,18256,Tag0,unknown
1610200543256,51,-1029,-2.260986328125E-4,0,0,57,1239149,69061,21137,14550,12321,14660,15245,18256,Tag0,unknown
1610200543280,51,-1789,-3.930908203125E-4,0,0,57,1239149,69061,21137,14550,12321,14660,15245,18256,Tag0,unknown
1610200543291,51,-2048,-4.5E-4,0,0,57,1239149,69061,21137,14550,12321,14660,15245,18256,Tag0,unknown
1610200543307,51,-1923,-4.2253417968750003E-4,0,0,57,1239149,69061,21137,14550,12321,14660,15245,18256,Tag0,unknown
1610200543327,51,1773,3.8957519531250003E-4,0,0,57,1239149,69061,21137,14550,12321,14660,15245,18256,Tag0,unknown
1610200543339,51,1274,2.79931640625E-4,0,0,57,1239149,69061,21137,14550,12321,14660,15245,18256,Tag0,unknown
1610200543358,51,-2048,-4.5E-4,0,0,57,1239149,69061,21137,14550,12321,14660,15245,18256,Tag0,unknown
1610200543378,51,-2048,-4.5E-4,0,0,57,1239149,69061,21137,14550,12321,14660,15245,18256,Tag0,unknown
1610200543390,51,-2048,-4.5E-4,0,0,57,1239149,69061,21137,14550,12321,14660,15245,18256,Tag0,unknown
1610200543429,51,-1783,-3.917724609375E-4,0,0,57,1239149,69061,21137,14550,12321,14660,15245,18256,Tag0,unknown
1610200543440,51,-1722,-3.7836914062499996E-4,0,0,57,1239149,69061,21137,14550,12321,14660,15245,18256,Tag0,unknown
1610200543450,51,-1037,-2.278564453125E-4,0,0,57,1239149,69061,21137,14550,12321,14660,15245,18256,Tag0,unknown
1610200543465,51,-661,-1.452392578125E-4,0,0,57,1239149,69061,21137,14550,12321,14660,15245,18256,Tag0,unknown
1610200543475,51,-841,-1.847900390625E-4,0,0,57,1239149,69061,21137,14550,12321,14660,15245,18256,Tag0,unknown
1610200543489,51,1791,3.935302734375E-4,0,0,57,1239149,69061,21137,14550,12321,14660,15245,18256,Tag0,unknown
1610200543513,51,-1011,-2.2214355468749998E-4,0,0,57,1000681,416388,94743,16773901,226449,264080,187589,106754,Tag0,unknown
1610200543524,51,-1081,-2.375244140625E-4,0,0,57,1000681,416388,94743,16773901,226449,264080,187589,106754,Tag0,unknown
1610200543546,51,-611,-1.3425292968749999E-4,0,0,57,1000681,416388,94743,16773901,226449,264080,187589,106754,Tag0,unknown
1610200543556,51,-597,-1.3117675781250003E-4,0,0,57,1000681,416388,94743,16773901,226449,264080,187589,106754,Tag0,unknown
1610200543581,51,-193,-4.2407226562500005E-5,0,0,57,1000681,416388,94743,16773901,226449,264080,187589,106754,Tag0,unknown
1610200543591,51,-313,-6.87744140625E-5,0,0,57,1000681,416388,94743,16773901,226449,264080,187589,106754,Tag0,unknown
1610200543606,51,1497,3.289306640625E-4,0,0,57,1000681,416388,94743,16773901,226449,264080,187589,106754,Tag0,unknown
1610200543628,51,-500,-1.0986328125E-4,0,0,57,1000681,416388,94743,16773901,226449,264080,187589,106754,Tag0,unknown
1610200543640,51,-474,-1.0415039062500001E-4,0,0,57,1000681,416388,94743,16773901,226449,264080,187589,106754,Tag0,unknown
1610200543660,51,-547,-1.201904296875E-4,0,0,57,1000681,416388,94743,16773901,226449,264080,187589,106754,Tag0,unknown
1610200543678,51,-151,-3.31787109375E-5,0,0,57,1000681,416388,94743,16773901,226449,264080,187589,106754,Tag0,unknown
1610200543690,51,-145,-3.18603515625E-5,0,0,57,1000681,416388,94743,16773901,226449,264080,187589,106754,Tag0,unknown
1610200543700,51,-277,-6.0864257812500005E-5,0,0,57,1000681,416388,94743,16773901,226449,264080,187589,106754,Tag0,unknown
1610200543729,51,-275,-6.04248046875E-5,0,0,57,1000681,416388,94743,16773901,226449,264080,187589,106754,Tag0,unknown
1610200543741,51,-273,-5.998535156250001E-5,0,0,57,1000681,416388,94743,16773901,226449,264080,187589,106754,Tag0,unknown
1610200543751,51,25,5.4931640625E-6,0,0,57,1000681,416388,94743,16773901,226449,264080,187589,106754,Tag0,unknown
1610200543774,51,33,7.2509765625E-6,0,0,57,1000681,416388,94743,16773901,226449,264080,187589,106754,Tag0,unknown
1610200543790,51,35,7.6904296875E-6,0,0,57,1000681,416388,94743,16773901,226449,264080,187589,106754,Tag0,unknown
1610200543800,51,1579,3.469482421875E-4,0,0,57,1000681,416388,94743,16773901,226449,264080,187589,106754,Tag0,unknown
1610200543823,51,1791,3.935302734375E-4,0,0,57,1000681,416388,94743,16773901,226449,264080,187589,106754,Tag0,unknown
1610200543845,51,312,6.85546875E-5,0,0,57,1000681,416388,94743,16773901,226449,264080,187589,106754,Tag0,unknown
1610200543857,51,1791,3.935302734375E-4,0,0,57,1000681,416388,94743,16773901,226449,264080,187589,106754,Tag0,unknown
1610200543878,51,955,2.098388671875E-4,0,0,57,1000681,416388,94743,16773901,226449,264080,187589,106754,Tag0,unknown
1610200543891,51,743,1.6325683593750002E-4,0,0,57,1000681,416388,94743,16773901,226449,264080,187589,106754,Tag0,unknown
1610200543901,51,-1705,-3.746337890625E-4,0,0,57,1000681,416388,94743,16773901,226449,264080,187589,106754,Tag0,unknown
1610200543919,51,-1511,-3.320068359375E-4,0,0,57,1000681,416388,94743,16773901,226449,264080,187589,106754,Tag0,unknown
1610200543929,51,1791,3.935302734375E-4,0,0,57,1000681,416388,94743,16773901,226449,264080,187589,106754,Tag0,unknown
1610200543940,51,1791,3.935302734375E-4,0,0,57,1000681,416388,94743,16773901,226449,264080,187589,106754,Tag0,unknown
1610200543961,51,1717,3.772705078125E-4,0,0,57,1000681,416388,94743,16773901,226449,264080,187589,106754,Tag0,unknown
1610200543973,51,1905,4.185791015625E-4,0,0,57,1000681,416388,94743,16773901,226449,264080,187589,106754,Tag0,unknown
1610200543995,51,-2048,-4.5E-4,0,0,57,1000681,416388,94743,16773901,226449,264080,187589,106754,Tag0,unknown
1610200544006,51,-2048,-4.5E-4,0,0,57,1000681,416388,94743,16773901,226449,264080,187589,106754,Tag0,unknown
1610200544016,51,-929,-2.0412597656250002E-4,0,0,57,1000681,416388,94743,16773901,226449,264080,187589,106754,Tag0,unknown
1610200544034,51,-405,-8.89892578125E-5,0,0,57,1000681,416388,94743,16773901,226449,264080,187589,106754,Tag0,unknown
1610200544044,51,1791,3.935302734375E-4,0,0,57,1000681,416388,94743,16773901,226449,264080,187589,106754,Tag0,unknown
1610200544074,51,1791,3.935302734375E-4,0,0,57,1000681,416388,94743,16773901,226449,264080,187589,106754,Tag0,unknown
1610200544089,51,1791,3.935302734375E-4,0,0,57,1000681,416388,94743,16773901,226449,264080,187589,106754,Tag0,unknown
1610200544110,51,1363,2.9948730468750003E-4,0,0,57,1000681,416388,94743,16773901,226449,264080,187589,106754,Tag0,unknown
1610200544123,51,1316,2.8916015625000003E-4,0,0,57,1000681,416388,94743,16773901,226449,264080,187589,106754,Tag0,unknown
1610200544144,51,642,1.4106445312500002E-4,0,0,57,1000681,416388,94743,16773901,226449,264080,187589,106754,Tag0,unknown
1610200544156,51,808,1.7753906250000002E-4,0,0,57,1000681,416388,94743,16773901,226449,264080,187589,106754,Tag0,unknown
1610200544166,51,188,4.1308593750000004E-5,0,0,57,1000681,416388,94743,16773901,226449,264080,187589,106754,Tag0,unknown
1610200544182,51,136,2.9882812500000002E-5,0,0,57,1000681,416388,94743,16773901,226449,264080,187589,106754,Tag0,unknown
1610200544192,51,369,8.10791015625E-5,0,0,57,1000681,416388,94743,16773901,226449,264080,187589,106754,Tag0,unknown
1610200544207,51,265,5.82275390625E-5,0,0,57,1000681,416388,94743,16773901,226449,264080,187589,106754,Tag0,unknown
1610200544229,51,-61,-1.34033203125E-5,0,0,57,1000681,416388,94743,16773901,226449,264080,187589,106754,Tag0,unknown
1610200544242,51,-69,-1.51611328125E-5,0,0,57,1000681,416388,94743,16773901,226449,264080,187589,106754,Tag0,unknown
1610200544256,51,-111,-2.43896484375E-5,0,0,57,1000681,416388,94743,16773901,226449,264080,187589,106754,Tag0,unknown
1610200544285,51,117,2.5708007812499998E-5,0,0,57,1000681,416388,94743,16773901,226449,264080,187589,106754,Tag0,unknown
1610200544295,51,-1322,-2.90478515625E-4,0,0,57,1000681,416388,94743,16773901,226449,264080,187589,106754,Tag0,unknown
1610200544307,51,-2048,-4.5E-4,0,0,57,1000681,416388,94743,16773901,226449,264080,187589,106754,Tag0,unknown
1610200544328,51,-2048,-4.5E-4,0,0,57,1000681,416388,94743,16773901,226449,264080,187589,106754,Tag0,unknown
1610200544341,51,-2048,-4.5E-4,0,0,57,1000681,416388,94743,16773901,226449,264080,187589,106754,Tag0,unknown
1610200544356,51,-1741,-3.8254394531250004E-4,0,0,57,1000681,416388,94743,16773901,226449,264080,187589,106754,Tag0,unknown
1610200544373,51,-1347,-2.959716796875E-4,0,0,57,1000681,416388,94743,16773901,226449,264080,187589,106754,Tag0,unknown
1610200544419,51,-644,-1.4150390625E-4,0,0,57,1000681,416388,94743,16773901,226449,264080,187589,106754,Tag0,unknown
1610200544441,51,-875,-1.922607421875E-4,0,0,57,1000681,416388,94743,16773901,226449,264080,187589,106754,Tag0,unknown
1610200544459,51,-212,-4.6582031250000006E-5,0,0,57,1000681,416388,94743,16773901,226449,264080,187589,106754,Tag0,unknown
1610200544474,51,-201,-4.41650390625E-5,0,0,57,1000681,416388,94743,16773901,226449,264080,187589,106754,Tag0,unknown
1610200544491,51,-333,-7.316894531249999E-5,0,0,57,1000681,416388,94743,16773901,226449,264080,187589,106754,Tag0,unknown
1610200544512,51,1791,3.935302734375E-4,0,0,57,1086681,5358,18507,17357,16764788,72219,16762257,25844,Tag0,unknown
1610200544525,51,1791,3.935302734375E-4,0,0,57,1086681,5358,18507,17357,16764788,72219,16762257,25844,Tag0,unknown
1610200544540,51,1791,3.935302734375E-4,0,0,57,1086681,5358,18507,17357,16764788,72219,16762257,25844,Tag0,unknown
1610200544560,51,1791,3.935302734375E-4,0,0,57,1086681,5358,18507,17357,16764788,72219,16762257,25844,Tag0,unknown
1610200544573,51,1791,3.935302734375E-4,0,0,57,1086681,5358,18507,17357,16764788,72219,16762257,25844,Tag0,unknown
1610200544595,51,1662,3.65185546875E-4,0,0,57,1086681,5358,18507,17357,16764788,72219,16762257,25844,Tag0,unknown
1610200544612,51,1602,3.52001953125E-4,0,0,57,1086681,5358,18507,17357,16764788,72219,16762257,25844,Tag0,unknown
1610200544625,51,577,1.2678222656250002E-4,0,0,57,1086681,5358,18507,17357,16764788,72219,16762257,25844,Tag0,unknown
1610200544640,51,564,1.2392578125E-4,0,0,57,1086681,5358,18507,17357,16764788,72219,16762257,25844,Tag0,unknown
1610200544661,51,524,1.1513671875E-4,0,0,57,1086681,5358,18507,17357,16764788,72219,16762257,25844,Tag0,unknown
1610200544674,51,517,1.135986328125E-4,0,0,57,1086681,5358,18507,17357,16764788,72219,16762257,25844,Tag0,unknown
1610200544702,51,365,8.02001953125E-5,0,0,57,1086681,5358,18507,17357,16764788,72219,16762257,25844,Tag0,unknown
1610200544712,51,299,6.56982421875E-5,0,0,57,1086681,5358,18507,17357,16764788,72219,16762257,25844,Tag0,unknown
1610200544723,51,283,6.218261718750001E-5,0,0,57,1086681,5358,18507,17357,16764788,72219,16762257,25844,Tag0,unknown
1610200544743,51,-47,-1.0327148437500001E-5,0,0,57,1086681,5358,18507,17357,16764788,72219,16762257,25844,Tag0,unknown
1610200544759,51,-77,-1.69189453125E-5,0,0,57,1086681,5358,18507,17357,16764788,72219,16762257,25844,Tag0,unknown
1610200544785,51,124,2.724609375E-5,0,0,57,1086681,5358,18507,17357,16764788,72219,16762257,25844,Tag0,unknown
1610200544795,51,113,2.48291015625E-5,0,0,57,1086681,5358,18507,17357,16764788,72219,16762257,25844,Tag0,unknown
1610200544809,51,101,2.2192382812500002E-5,0,0,57,1086681,5358,18507,17357,16764788,72219,16762257,25844,Tag0,unknown
1610200544828,51,89,1.95556640625E-5,0,0,57,1086681,5358,18507,17357,16764788,72219,16762257,25844,Tag0,unknown
1610200544839,51,87,1.91162109375E-5,0,0,57,1086681,5358,18507,17357,16764788,72219,16762257,25844,Tag0,unknown
1610200544859,51,81,1.77978515625E-5,0,0,57,1086681,5358,18507,17357,16764788,72219,16762257,25844,Tag0,unknown
1610200544889,51,-305,-6.70166015625E-5,0,0,57,1086681,5358,18507,17357,16764788,72219,16762257,25844,Tag0,unknown
1610200544906,51,-2048,-4.5E-4,0,0,57,1086681,5358,18507,17357,16764788,72219,16762257,25844,Tag0,unknown
1610200544932,51,-2048,-4.5E-4,0,0,57,1086681,5358,18507,17357,16764788,72219,16762257,25844,Tag0,unknown
1610200544943,51,-2149,-4.7219238281250004E-4,0,0,57,1086681,5358,18507,17357,16764788,72219,16762257,25844,Tag0,unknown
1610200544957,51,-1540,-3.3837890625E-4,0,0,57,1086681,5358,18507,17357,16764788,72219,16762257,25844,Tag0,unknown
1610200544973,51,-1052,-2.3115234375000002E-4,0,0,57,1086681,5358,18507,17357,16764788,72219,16762257,25844,Tag0,unknown
1610200545002,51,-465,-1.021728515625E-4,0,0,57,1086681,5358,18507,17357,16764788,72219,16762257,25844,Tag0,unknown
1610200545012,51,-553,-1.215087890625E-4,0,0,57,1086681,5358,18507,17357,16764788,72219,16762257,25844,Tag0,unknown
1610200545037,51,-529,-1.162353515625E-4,0,0,57,1086681,5358,18507,17357,16764788,72219,16762257,25844,Tag0,unknown
1610200545047,51,-135,-2.96630859375E-5,0,0,57,1086681,5358,18507,17357,16764788,72219,16762257,25844,Tag0,unknown
1610200545057,51,-324,-7.119140625E-5,0,0,57,1086681,5358,18507,17357,16764788,72219,16762257,25844,Tag0,unknown
1610200545077,51,1909,4.1945800781250004E-4,0,0,57,1086681,5358,18507,17357,16764788,72219,16762257,25844,Tag0,unknown
1610200545090,51,1703,3.741943359375E-4,0,0,57,1086681,5358,18507,17357,16764788,72219,16762257,25844,Tag0,unknown
1610200545112,51,1791,3.935302734375E-4,0,0,57,1086681,5358,18507,17357,16764788,72219,16762257,25844,Tag0,unknown
1610200545123,51,1791,3.935302734375E-4,0,0,57,1086681,5358,18507,17357,16764788,72219,16762257,25844,Tag0,unknown
1610200545133,51,1427,3.135498046875E-4,0,0,57,1086681,5358,18507,17357,16764788,72219,16762257,25844,Tag0,unknown
1610200545153,51,1623,3.566162109375E-4,0,0,57,1086681,5358,18507,17357,16764788,72219,16762257,25844,Tag0,unknown
1610200545174,51,1565,3.438720703125E-4,0,0,57,1086681,5358,18507,17357,16764788,72219,16762257,25844,Tag0,unknown
1610200545193,51,424,9.316406250000001E-5,0,0,57,1086681,5358,18507,17357,16764788,72219,16762257,25844,Tag0,unknown
1610200545216,51,404,8.876953125000001E-5,0,0,57,1086681,5358,18507,17357,16764788,72219,16762257,25844,Tag0,unknown
1610200545226,51,137,3.0102539062499998E-5,0,0,57,1086681,5358,18507,17357,16764788,72219,16762257,25844,Tag0,unknown
1610200545236,51,-25,-5.4931640625E-6,0,0,57,1086681,5358,18507,17357,16764788,72219,16762257,25844,Tag0,unknown
1610200545246,51,-257,-5.64697265625E-5,0,0,57,1086681,5358,18507,17357,16764788,72219,16762257,25844,Tag0,unknown
1610200545265,51,-937,-2.058837890625E-4,0,0,57,1086681,5358,18507,17357,16764788,72219,16762257,25844,Tag0,unknown
1610200545279,51,-984,-2.162109375E-4,0,0,57,1086681,5358,18507,17357,16764788,72219,16762257,25844,Tag0,unknown
1610200545290,51,-1341,-2.946533203125E-4,0,0,57,1086681,5358,18507,17357,16764788,72219,16762257,25844,Tag0,unknown
1610200545306,51,-1313,-2.885009765625E-4,0,0,57,1086681,5358,18507,17357,16764788,72219,16762257,25844,Tag0,unknown
1610200545323,51,-1075,-2.362060546875E-4,0,0,57,1086681,5358,18507,17357,16764788,72219,16762257,25844,Tag0,unknown
1610200545334,51,-1848,-4.060546875E-4,0,0,57,1086681,5358,18507,17357,16764788,72219,16762257,25844,Tag0,unknown
1610200545358,51,-1847,-4.0583496093749997E-4,0,0,57,1086681,5358,18507,17357,16764788,72219,16762257,25844,Tag0,unknown
1610200545373,51,-1931,-4.242919921875E-4,0,0,57,1086681,5358,18507,17357,16764788,72219,16762257,25844,Tag0,unknown
1610200545390,51,-1925,-4.229736328125E-4,0,0,57,1086681,5358,18507,17357,16764788,72219,16762257,25844,Tag0,unknown
1610200545412,51,-1789,-3.930908203125E-4,0,0,57,1086681,5358,18507,17357,16764788,72219,16762257,25844,Tag0,unknown
1610200545426,51,-1211,-2.660888671875E-4,0,0,57,1086681,5358,18507,17357,16764788,72219,16762257,25844,Tag0,unknown
1610200545453,51,-755,-1.658935546875E-4,0,0,57,1086681,5358,18507,17357,16764788,72219,16762257,25844,Tag0,unknown
1610200545473,51,-725,-1.593017578125E-4,0,0,57,1086681,5358,18507,17357,16764788,72219,16762257,25844,Tag0,unknown
1610200545489,51,-513,-1.127197265625E-4,0,0,57,1086681,5358,18507,17357,16764788,72219,16762257,25844,Tag0,unknown
1610200545506,51,-243,-5.33935546875E-5,0,0,57,1086681,5358,18507,17357,16764788,72219,16762257,25844,Tag0,unknown
1610200545528,51,75,1.64794921875E-5,0,0,57,629966,16763474,7921,14148,8857,4600,957,1000,Tag0,unknown
1610200545540,51,-60,-1.318359375E-5,0,0,57,629966,16763474,7921,14148,8857,4600,957,1000,Tag0,unknown
1610200545562,51,1791,3.935302734375E-4,0,0,57,629966,16763474,7921,14148,8857,4600,957,1000,Tag0,unknown
1610200545573,51,1791,3.935302734375E-4,0,0,57,629966,16763474,7921,14148,8857,4600,957,1000,Tag0,unknown
1610200545604,51,1781,3.913330078125E-4,0,0,57,629966,16763474,7921,14148,8857,4600,957,1000,Tag0,unknown
1610200545623,51,1722,3.7836914062499996E-4,0,0,57,629966,16763474,7921,14148,8857,4600,957,1000,Tag0,unknown
1610200545653,51,894,1.96435546875E-4,0,0,57,629966,16763474,7921,14148,8857,4600,957,1000,Tag0,unknown
1610200545663,51,435,9.55810546875E-5,0,0,57,629966,16763474,7921,14148,8857,4600,957,1000,Tag0,unknown
1610200545699,51,389,8.54736328125E-5,0,0,57,629966,16763474,7921,14148,8857,4600,957,1000,Tag0,unknown
1610200545709,51,548,1.2041015624999999E-4,0,0,57,629966,16763474,7921,14148,8857,4600,957,1000,Tag0,unknown
1610200545723,51,348,7.646484375E-5,0,0,57,629966,16763474,7921,14148,8857,4600,957,1000,Tag0,unknown
1610200545753,51,-50,-1.0986328125E-5,0,0,57,629966,16763474,7921,14148,8857,4600,957,1000,Tag0,unknown
1610200545763,51,-91,-1.99951171875E-5,0,0,57,629966,16763474,7921,14148,8857,4600,957,1000,Tag0,unknown
1610200545773,51,-102,-2.2412109374999998E-5,0,0,57,629966,16763474,7921,14148,8857,4600,957,1000,Tag0,unknown
1610200545797,51,120,2.63671875E-5,0,0,57,629966,16763474,7921,14148,8857,4600,957,1000,Tag0,unknown
1610200545807,51,117,2.5708007812499998E-5,0,0,57,629966,16763474,7921,14148,8857,4600,957,1000,Tag0,unknown
1610200545833,51,104,2.28515625E-5,0,0,57,629966,16763474,7921,14148,8857,4600,957,1000,Tag0,unknown
1610200545843,51,91,1.99951171875E-5,0,0,57,629966,16763474,7921,14148,8857,4600,957,1000,Tag0,unknown
1610200545857,51,83,1.82373046875E-5,0,0,57,629966,16763474,7921,14148,8857,4600,957,1000,Tag0,unknown
1610200545873,51,81,1.77978515625E-5,0,0,57,629966,16763474,7921,14148,8857,4600,957,1000,Tag0,unknown
1610200545908,51,32,7.03125E-6,0,0,57,629966,16763474,7921,14148,8857,4600,957,1000,Tag0,unknown
1610200545925,51,22,4.833984375E-6,0,0,57,629966,16763474,7921,14148,8857,4600,957,1000,Tag0,unknown
1610200545948,51,-2048,-4.5E-4,0,0,57,629966,16763474,7921,14148,8857,4600,957,1000,Tag0,unknown
1610200545958,51,-2048,-4.5E-4,0,0,57,629966,16763474,7921,14148,8857,4600,957,1000,Tag0,unknown
1610200545968,51,-1963,-4.313232421875E-4,0,0,57,629966,16763474,7921,14148,8857,4600,957,1000,Tag0,unknown
1610200545978,51,-1907,-4.190185546875E-4,0,0,57,629966,16763474,7921,14148,8857,4600,957,1000,Tag0,unknown
1610200545991,51,-1737,-3.816650390625E-4,0,0,57,629966,16763474,7921,14148,8857,4600,957,1000,Tag0,unknown
1610200546007,51,-1366,-3.00146484375E-4,0,0,57,629966,16763474,7921,14148,8857,4600,957,1000,Tag0,unknown
1610200546024,51,-886,-1.94677734375E-4,0,0,57,629966,16763474,7921,14148,8857,4600,957,1000,Tag0,unknown
1610200546053,51,-822,-1.80615234375E-4,0,0,57,629966,16763474,7921,14148,8857,4600,957,1000,Tag0,unknown
1610200546063,51,-136,-2.9882812500000002E-5,0,0,57,629966,16763474,7921,14148,8857,4600,957,1000,Tag0,unknown
1610200546074,51,-229,-5.03173828125E-5,0,0,57,629966,16763474,7921,14148,8857,4600,957,1000,Tag0,unknown
1610200546093,51,-109,-2.39501953125E-5,0,0,57,629966,16763474,7921,14148,8857,4600,957,1000,Tag0,unknown
1610200546108,51,-109,-2.39501953125E-5,0,0,57,629966,16763474,7921,14148,8857,4600,957,1000,Tag0,unknown
1610200546118,51,599,1.316162109375E-4,0,0,57,629966,16763474,7921,14148,8857,4600,957,1000,Tag0,unknown
1610200546131,51,407,8.94287109375E-5,0,0,57,629966,16763474,7921,14148,8857,4600,957,1000,Tag0,unknown
1610200546141,51,476,1.0458984375000001E-4,0,0,57,629966,16763474,7921,14148,8857,4600,957,1000,Tag0,unknown
1610200546167,51,752,1.6523437500000002E-4,0,0,57,629966,16763474,7921,14148,8857,4600,957,1000,Tag0,unknown
1610200546177,51,1465,3.218994140625E-4,0,0,57,629966,16763474,7921,14148,8857,4600,957,1000,Tag0,unknown
1610200546191,51,652,1.4326171875000002E-4,0,0,57,629966,16763474,7921,14148,8857,4600,957,1000,Tag0,unknown
1610200546209,51,829,1.821533203125E-4,0,0,57,629966,16763474,7921,14148,8857,4600,957,1000,Tag0,unknown
1610200546225,51,496,1.08984375E-4,0,0,57,629966,16763474,7921,14148,8857,4600,957,1000,Tag0,unknown
1610200546245,51,459,1.008544921875E-4,0,0,57,629966,16763474,7921,14148,8857,4600,957,1000,Tag0,unknown
1610200546256,51,150,3.2958984375E-5,0,0,57,629966,16763474,7921,14148,8857,4600,957,1000,Tag0,unknown
1610200546279,51,339,7.448730468750001E-5,0,0,57,629966,16763474,7921,14148,8857,4600,957,1000,Tag0,unknown
1610200546290,51,448,9.84375E-5,0,0,57,629966,16763474,7921,14148,8857,4600,957,1000,Tag0,unknown
1610200546313,51,520,1.142578125E-4,0,0,57,629966,16763474,7921,14148,8857,4600,957,1000,Tag0,unknown
1610200546323,51,234,5.1416015624999996E-5,0,0,57,629966,16763474,7921,14148,8857,4600,957,1000,Tag0,unknown
1610200546340,51,149,3.27392578125E-5,0,0,57,629966,16763474,7921,14148,8857,4600,957,1000,Tag0,unknown
1610200546371,51,138,3.0322265625E-5,0,0,57,629966,16763474,7921,14148,8857,4600,957,1000,Tag0,unknown
1610200546391,51,311,6.833496093750001E-5,0,0,57,629966,16763474,7921,14148,8857,4600,957,1000,Tag0,unknown
1610200546407,51,190,4.1748046875E-5,0,0,57,629966,16763474,7921,14148,8857,4600,957,1000,Tag0,unknown
1610200546443,51,-171,-3.75732421875E-5,0,0,57,629966,16763474,7921,14148,8857,4600,957,1000,Tag0,unknown
1610200546456,51,-133,-2.92236328125E-5,0,0,57,629966,16763474,7921,14148,8857,4600,957,1000,Tag0,unknown
1610200546473,51,331,7.272949218750001E-5,0,0,57,629966,16763474,7921,14148,8857,4600,957,1000,Tag0,unknown
1610200546490,51,829,1.821533203125E-4,0,0,57,629966,16763474,7921,14148,8857,4600,957,1000,Tag0,unknown
1610200546510,51,1030,2.26318359375E-4,0,0,57,1881779,348361,16763763,11471,16747833,29056,21400,9607,Tag0,unknown
1610200546537,51,403,8.854980468749999E-5,0,0,57,1881779,348361,16763763,11471,16747833,29056,21400,9607,Tag0,unknown
1610200546556,51,637,1.399658203125E-4,0,0,57,1881779,348361,16763763,11471,16747833,29056,21400,9607,Tag0,unknown
1610200546602,51,187,4.10888671875E-5,0,0,57,1881779,348361,16763763,11471,16747833,29056,21400,9607,Tag0,unknown
1610200546624,51,163,3.5815429687500006E-5,0,0,57,1881779,348361,16763763,11471,16747833,29056,21400,9607,Tag0,unknown
1610200546634,51,294,6.4599609375E-5,0,0,57,1881779,348361,16763763,11471,16747833,29056,21400,9607,Tag0,unknown
1610200546644,51,-2048,-4.5E-4,0,0,57,1881779,348361,16763763,11471,16747833,29056,21400,9607,Tag0,unknown
1610200546654,51,-2048,-4.5E-4,0,0,57,1881779,348361,16763763,11471,16747833,29056,21400,9607,Tag0,unknown
1610200546673,51,-2048,-4.5E-4,0,0,57,1881779,348361,16763763,11471,16747833,29056,21400,9607,Tag0,unknown
1610200546695,51,-1001,-2.1994628906249998E-4,0,0,57,1881779,348361,16763763,11471,16747833,29056,21400,9607,Tag0,unknown
1610200546707,51,-964,-2.1181640625E-4,0,0,57,1881779,348361,16763763,11471,16747833,29056,21400,9607,Tag0,unknown
1610200546731,51,-610,-1.34033203125E-4,0,0,57,1881779,348361,16763763,11471,16747833,29056,21400,9607,Tag0,unknown
1610200546741,51,-594,-1.3051757812500002E-4,0,0,57,1881779,348361,16763763,11471,16747833,29056,21400,9607,Tag0,unknown
1610200546765,51,-201,-4.41650390625E-5,0,0,57,1881779,348361,16763763,11471,16747833,29056,21400,9607,Tag0,unknown
1610200546775,51,-182,-3.9990234375E-5,0,0,57,1881779,348361,16763763,11471,16747833,29056,21400,9607,Tag0,unknown
1610200546790,51,840,1.845703125E-4,0,0,57,1881779,348361,16763763,11471,16747833,29056,21400,9607,Tag0,unknown
1610200546810,51,1791,3.935302734375E-4,0,0,57,1881779,348361,16763763,11471,16747833,29056,21400,9607,Tag0,unknown
1610200546825,51,1791,3.935302734375E-4,0,0,57,1881779,348361,16763763,11471,16747833,29056,21400,9607,Tag0,unknown
1610200546846,51,1791,3.935302734375E-4,0,0,57,1881779,348361,16763763,11471,16747833,29056,21400,9607,Tag0,unknown
1610200546857,51,1791,3.935302734375E-4,0,0,57,1881779,348361,16763763,11471,16747833,29056,21400,9607,Tag0,unknown
1610200546867,51,978,2.1489257812500002E-4,0,0,57,1881779,348361,16763763,11471,16747833,29056,21400,9607,Tag0,unknown
1610200546881,51,1063,2.335693359375E-4,0,0,57,1881779,348361,16763763,11471,16747833,29056,21400,9607,Tag0,unknown
1610200546891,51,720,1.58203125E-4,0,0,57,1881779,348361,16763763,11471,16747833,29056,21400,9607,Tag0,unknown
1610200546915,51,490,1.07666015625E-4,0,0,57,1881779,348361,16763763,11471,16747833,29056,21400,9607,Tag0,unknown
1610200546925,51,439,9.64599609375E-5,0,0,57,1881779,348361,16763763,11471,16747833,29056,21400,9607,Tag0,unknown
1610200546935,51,-295,-6.48193359375E-5,0,0,57,1881779,348361,16763763,11471,16747833,29056,21400,9607,Tag0,unknown
1610200546975,51,-156,-3.427734375E-5,0,0,57,1881779,348361,16763763,11471,16747833,29056,21400,9607,Tag0,unknown
1610200546990,51,-216,-4.7460937500000004E-5,0,0,57,1881779,348361,16763763,11471,16747833,29056,21400,9607,Tag0,unknown
1610200547000,51,-1092,-2.3994140625000003E-4,0,0,57,1881779,348361,16763763,11471,16747833,29056,21400,9607,Tag0,unknown
1610200547028,51,-1041,-2.287353515625E-4,0,0,57,1881779,348361,16763763,11471,16747833,29056,21400,9607,Tag0,unknown
1610200547040,51,-838,-1.8413085937500002E-4,0,0,57,1881779,348361,16763763,11471,16747833,29056,21400,9607,Tag0,unknown
1610200547050,51,822,1.80615234375E-4,0,0,57,1881779,348361,16763763,11471,16747833,29056,21400,9607,Tag0,unknown
1610200547060,51,-1045,-2.296142578125E-4,0,0,57,1881779,348361,16763763,11471,16747833,29056,21400,9607,Tag0,unknown
1610200547074,51,377,8.28369140625E-5,0,0,57,1881779,348361,16763763,11471,16747833,29056,21400,9607,Tag0,unknown
1610200547090,51,-161,-3.53759765625E-5,0,0,57,1881779,348361,16763763,11471,16747833,29056,21400,9607,Tag0,unknown
1610200547110,51,779,1.7116699218750001E-4,0,0,57,1881779,348361,16763763,11471,16747833,29056,21400,9607,Tag0,unknown
1610200547124,51,819,1.799560546875E-4,0,0,57,1881779,348361,16763763,11471,16747833,29056,21400,9607,Tag0,unknown
1610200547147,51,1637,3.596923828125E-4,0,0,57,1881779,348361,16763763,11471,16747833,29056,21400,9607,Tag0,unknown
1610200547157,51,1574,3.45849609375E-4,0,0,57,1881779,348361,16763763,11471,16747833,29056,21400,9607,Tag0,unknown
1610200547181,51,1029,2.260986328125E-4,0,0,57,1881779,348361,16763763,11471,16747833,29056,21400,9607,Tag0,unknown
1610200547191,51,699,1.535888671875E-4,0,0,57,1881779,348361,16763763,11471,16747833,29056,21400,9607,Tag0,unknown
1610200547207,51,525,1.153564453125E-4,0,0,57,1881779,348361,16763763,11471,16747833,29056,21400,9607,Tag0,unknown
1610200547225,51,192,4.21875E-5,0,0,57,1881779,348361,16763763,11471,16747833,29056,21400,9607,Tag0,unknown
1610200547241,51,311,6.833496093750001E-5,0,0,57,1881779,348361,16763763,11471,16747833,29056,21400,9607,Tag0,unknown
1610200547284,51,-39,-8.5693359375E-6,0,0,57,1881779,348361,16763763,11471,16747833,29056,21400,9607,Tag0,unknown
1610200547294,51,-87,-1.91162109375E-5,0,0,57,1881779,348361,16763763,11471,16747833,29056,21400,9607,Tag0,unknown
1610200547307,51,-109,-2.39501953125E-5,0,0,57,1881779,348361,16763763,11471,16747833,29056,21400,9607,Tag0,unknown
1610200547327,51,125,2.74658203125E-5,0,0,57,1881779,348361,16763763,11471,16747833,29056,21400,9607,Tag0,unknown
1610200547341,51,123,2.70263671875E-5,0,0,57,1881779,348361,16763763,11471,16747833,29056,21400,9607,Tag0,unknown
1610200547351,51,85,1.86767578125E-5,0,0,57,1881779,348361,16763763,11471,16747833,29056,21400,9607,Tag0,unknown
1610200547365,51,32,7.03125E-6,0,0,57,1881779,348361,16763763,11471,16747833,29056,21400,9607,Tag0,unknown
1610200547375,51,-180,-3.955078125E-5,0,0,57,1881779,348361,16763763,11471,16747833,29056,21400,9607,Tag0,unknown
1610200547402,51,-651,-1.430419921875E-4,0,0,57,1881779,348361,16763763,11471,16747833,29056,21400,9607,Tag0,unknown
1610200547412,51,-922,-2.0258789062500002E-4,0,0,57,1881779,348361,16763763,11471,16747833,29056,21400,9607,Tag0,unknown
1610200547423,51,-909,-1.997314453125E-4,0,0,57,1881779,348361,16763763,11471,16747833,29056,21400,9607,Tag0,unknown
1610200547441,51,-1403,-3.0827636718750004E-4,0,0,57,1881779,348361,16763763,11471,16747833,29056,21400,9607,Tag0,unknown
1610200547457,51,-914,-2.00830078125E-4,0,0,57,1881779,348361,16763763,11471,16747833,29056,21400,9607,Tag0,unknown
1610200547482,51,-1030,-2.26318359375E-4,0,0,57,1881779,348361,16763763,11471,16747833,29056,21400,9607,Tag0,unknown
1610200547495,51,-1060,-2.3291015625E-4,0,0,57,1881779,348361,16763763,11471,16747833,29056,21400,9607,Tag0,unknown
1610200547509,51,565,1.241455078125E-4,0,0,57,292381,33355,13696,23965,16764248,16756972,15417,23822,Tag0,unknown
1610200547531,51,571,1.254638671875E-4,0,0,57,292381,33355,13696,23965,16764248,16756972,15417,23822,Tag0,unknown
1610200547541,51,1063,2.335693359375E-4,0,0,57,292381,33355,13696,23965,16764248,16756972,15417,23822,Tag0,unknown
1610200547558,51,1050,2.30712890625E-4,0,0,57,292381,33355,13696,23965,16764248,16756972,15417,23822,Tag0,unknown
1610200547587,51,827,1.8171386718750002E-4,0,0,57,292381,33355,13696,23965,16764248,16756972,15417,23822,Tag0,unknown
1610200547607,51,808,1.7753906250000002E-4,0,0,57,292381,33355,13696,23965,16764248,16756972,15417,23822,Tag0,unknown
1610200547629,51,-38,-8.349609375E-6,0,0,57,292381,33355,13696,23965,16764248,16756972,15417,23822,Tag0,unknown
1610200547642,51,4,8.7890625E-7,0,0,57,292381,33355,13696,23965,16764248,16756972,15417,23822,Tag0,unknown
1610200547657,51,-2048,-4.5E-4,0,0,57,292381,33355,13696,23965,16764248,16756972,15417,23822,Tag0,unknown
1610200547680,51,-2048,-4.5E-4,0,0,57,292381,33355,13696,23965,16764248,16756972,15417,23822,Tag0,unknown
1610200547690,51,-2048,-4.5E-4,0,0,57,292381,33355,13696,23965,16764248,16756972,15417,23822,Tag0,unknown
1610200547735,51,-648,-1.423828125E-4,0,0,57,292381,33355,13696,23965,16764248,16756972,15417,23822,Tag0,unknown
1610200547757,51,-1057,-2.322509765625E-4,0,0,57,292381,33355,13696,23965,16764248,16756972,15417,23822,Tag0,unknown
1610200547780,51,-573,-1.259033203125E-4,0,0,57,292381,33355,13696,23965,16764248,16756972,15417,23822,Tag0,unknown
1610200547792,51,-561,-1.232666015625E-4,0,0,57,292381,33355,13696,23965,16764248,16756972,15417,23822,Tag0,unknown
1610200547808,51,-261,-5.73486328125E-5,0,0,57,292381,33355,13696,23965,16764248,16756972,15417,23822,Tag0,unknown
1610200547831,51,132,2.900390625E-5,0,0,57,292381,33355,13696,23965,16764248,16756972,15417,23822,Tag0,unknown
1610200547841,51,517,1.135986328125E-4,0,0,57,292381,33355,13696,23965,16764248,16756972,15417,23822,Tag0,unknown
1610200547851,51,1791,3.935302734375E-4,0,0,57,292381,33355,13696,23965,16764248,16756972,15417,23822,Tag0,unknown
1610200547873,51,1791,3.935302734375E-4,0,0,57,292381,33355,13696,23965,16764248,16756972,15417,23822,Tag0,unknown
1610200547891,51,1791,3.935302734375E-4,0,0,57,292381,33355,13696,23965,16764248,16756972,15417,23822,Tag0,unknown
1610200547907,51,1859,4.084716796875E-4,0,0,57,292381,33355,13696,23965,16764248,16756972,15417,23822,Tag0,unknown
1610200547930,51,1441,3.1662597656250004E-4,0,0,57,292381,33355,13696,23965,16764248,16756972,15417,23822,Tag0,unknown
1610200547941,51,1635,3.592529296875E-4,0,0,57,292381,33355,13696,23965,16764248,16756972,15417,23822,Tag0,unknown
1610200547972,51,155,3.40576171875E-5,0,0,57,292381,33355,13696,23965,16764248,16756972,15417,23822,Tag0,unknown
1610200547990,51,129,2.8344726562500002E-5,0,0,57,292381,33355,13696,23965,16764248,16756972,15417,23822,Tag0,unknown
1610200548007,51,379,8.32763671875E-5,0,0,57,292381,33355,13696,23965,16764248,16756972,15417,23822,Tag0,unknown
1610200548024,51,139,3.0541992187500004E-5,0,0,57,292381,33355,13696,23965,16764248,16756972,15417,23822,Tag0,unknown
1610200548041,51,570,1.25244140625E-4,0,0,57,292381,33355,13696,23965,16764248,16756972,15417,23822,Tag0,unknown
1610200548057,51,449,9.86572265625E-5,0,0,57,292381,33355,13696,23965,16764248,16756972,15417,23822,Tag0,unknown
1610200548079,51,387,8.50341796875E-5,0,0,57,292381,33355,13696,23965,16764248,16756972,15417,23822,Tag0,unknown
1610200548090,51,523,1.149169921875E-4,0,0,57,292381,33355,13696,23965,16764248,16756972,15417,23822,Tag0,unknown
1610200548100,51,164,3.6035156249999995E-5,0,0,57,292381,33355,13696,23965,16764248,16756972,15417,23822,Tag0,unknown
1610200548120,51,376,8.261718750000001E-5,0,0,57,292381,33355,13696,23965,16764248,16756972,15417,23822,Tag0,unknown
1610200548140,51,371,8.151855468750001E-5,0,0,57,292381,33355,13696,23965,16764248,16756972,15417,23822,Tag0,unknown
1610200548159,51,265,5.82275390625E-5,0,0,57,292381,33355,13696,23965,16764248,16756972,15417,23822,Tag0,unknown
1610200548173,51,276,6.064453125E-5,0,0,57,292381,33355,13696,23965,16764248,16756972,15417,23822,Tag0,unknown
1610200548195,51,-25,-5.4931640625E-6,0,0,57,292381,33355,13696,23965,16764248,16756972,15417,23822,Tag0,unknown
1610200548207,51,-32,-7.03125E-6,0,0,57,292381,33355,13696,23965,16764248,16756972,15417,23822,Tag0,unknown
1610200548217,51,-127,-2.79052734375E-5,0,0,57,292381,33355,13696,23965,16764248,16756972,15417,23822,Tag0,unknown
1610200548250,51,109,2.39501953125E-5,0,0,57,292381,33355,13696,23965,16764248,16756972,15417,23822,Tag0,unknown
1610200548274,51,105,2.30712890625E-5,0,0,57,292381,33355,13696,23965,16764248,16756972,15417,23822,Tag0,unknown
1610200548307,51,-342,-7.5146484375E-5,0,0,57,292381,33355,13696,23965,16764248,16756972,15417,23822,Tag0,unknown
1610200548324,51,-305,-6.70166015625E-5,0,0,57,292381,33355,13696,23965,16764248,16756972,15417,23822,Tag0,unknown
1610200548334,51,-2048,-4.5E-4,0,0,57,292381,33355,13696,23965,16764248,16756972,15417,23822,Tag0,unknown
1610200548357,51,-1665,-3.658447265625E-4,0,0,57,292381,33355,13696,23965,16764248,16756972,15417,23822,Tag0,unknown
1610200548379,51,-1351,-2.968505859375E-4,0,0,57,292381,33355,13696,23965,16764248,16756972,15417,23822,Tag0,unknown
1610200548391,51,-1316,-2.8916015625000003E-4,0,0,57,292381,33355,13696,23965,16764248,16756972,15417,23822,Tag0,unknown
1610200548407,51,-293,-6.43798828125E-5,0,0,57,292381,33355,13696,23965,16764248,16756972,15417,23822,Tag0,unknown
1610200548423,51,-755,-1.658935546875E-4,0,0,57,292381,33355,13696,23965,16764248,16756972,15417,23822,Tag0,unknown
1610200548453,51,-391,-8.591308593750001E-5,0,0,57,292381,33355,13696,23965,16764248,16756972,15417,23822,Tag0,unknown
1610200548463,51,-968,-2.1269531250000002E-4,0,0,57,292381,33355,13696,23965,16764248,16756972,15417,23822,Tag0,unknown
1610200548474,51,-1591,-3.4958496093750004E-4,0,0,57,1657613,136589,16776135,15825,11991,16749192,26903,30335,Tag0,unknown
1610200548494,51,-1618,-3.55517578125E-4,0,0,57,1657613,136589,16776135,15825,11991,16749192,26903,30335,Tag0,unknown
1610200548510,51,-1641,-3.605712890625E-4,0,0,57,1657613,136589,16776135,15825,11991,16749192,26903,30335,Tag0,unknown
1610200548527,51,-983,-2.159912109375E-4,0,0,57,1657613,136589,16776135,15825,11991,16749192,26903,30335,Tag0,unknown
1610200548540,51,-922,-2.0258789062500002E-4,0,0,57,1657613,136589,16776135,15825,11991,16749192,26903,30335,Tag0,unknown
1610200548566,51,-454,-9.9755859375E-5,0,0,57,1657613,136589,16776135,15825,11991,16749192,26903,30335,Tag0,unknown
1610200548576,51,-606,-1.33154296875E-4,0,0,57,1657613,136589,16776135,15825,11991,16749192,26903,30335,Tag0,unknown
1610200548607,51,-351,-7.71240234375E-5,0,0,57,1657613,136589,16776135,15825,11991,16749192,26903,30335,Tag0,unknown
1610200548623,51,55,1.20849609375E-5,0,0,57,1657613,136589,16776135,15825,11991,16749192,26903,30335,Tag0,unknown
1610200548649,51,1791,3.935302734375E-4,0,0,57,1657613,136589,16776135,15825,11991,16749192,26903,30335,Tag0,unknown
1610200548659,51,1791,3.935302734375E-4,0,0,57,1657613,136589,16776135,15825,11991,16749192,26903,30335,Tag0,unknown
1610200548673,51,1883,4.137451171875E-4,0,0,57,1657613,136589,16776135,15825,11991,16749192,26903,30335,Tag0,unknown
1610200548691,51,1213,2.6652832031250003E-4,0,0,57,1657613,136589,16776135,15825,11991,16749192,26903,30335,Tag0,unknown
1610200548711,51,669,1.469970703125E-4,0,0,57,1657613,136589,16776135,15825,11991,16749192,26903,30335,Tag0,unknown
1610200548723,51,641,1.408447265625E-4,0,0,57,1657613,136589,16776135,15825,11991,16749192,26903,30335,Tag0,unknown
1610200548754,51,632,1.3886718750000002E-4,0,0,57,1657613,136589,16776135,15825,11991,16749192,26903,30335,Tag0,unknown
1610200548773,51,611,1.3425292968749999E-4,0,0,57,1657613,136589,16776135,15825,11991,16749192,26903,30335,Tag0,unknown
1610200548793,51,-68,-1.4941406250000001E-5,0,0,57,1657613,136589,16776135,15825,11991,16749192,26903,30335,Tag0,unknown
1610200548807,51,119,2.6147460937500004E-5,0,0,57,1657613,136589,16776135,15825,11991,16749192,26903,30335,Tag0,unknown
1610200548829,51,-179,-3.93310546875E-5,0,0,57,1657613,136589,16776135,15825,11991,16749192,26903,30335,Tag0,unknown
1610200548840,51,-237,-5.2075195312500004E-5,0,0,57,1657613,136589,16776135,15825,11991,16749192,26903,30335,Tag0,unknown
1610200548860,51,-435,-9.55810546875E-5,0,0,57,1657613,136589,16776135,15825,11991,16749192,26903,30335,Tag0,unknown
1610200548904,51,-723,-1.5886230468750001E-4,0,0,57,1657613,136589,16776135,15825,11991,16749192,26903,30335,Tag0,unknown
1610200548924,51,-904,-1.986328125E-4,0,0,57,1657613,136589,16776135,15825,11991,16749192,26903,30335,Tag0,unknown
1610200548934,51,-770,-1.69189453125E-4,0,0,57,1657613,136589,16776135,15825,11991,16749192,26903,30335,Tag0,unknown
1610200548944,51,-705,-1.549072265625E-4,0,0,57,1657613,136589,16776135,15825,11991,16749192,26903,30335,Tag0,unknown
1610200548954,51,-766,-1.68310546875E-4,0,0,57,1657613,136589,16776135,15825,11991,16749192,26903,30335,Tag0,unknown
1610200548964,51,-1125,-2.471923828125E-4,0,0,57,1657613,136589,16776135,15825,11991,16749192,26903,30335,Tag0,unknown
1610200548985,51,-1394,-3.0629882812500004E-4,0,0,57,1657613,136589,16776135,15825,11991,16749192,26903,30335,Tag0,unknown
1610200548995,51,-717,-1.5754394531250002E-4,0,0,57,1657613,136589,16776135,15825,11991,16749192,26903,30335,Tag0,unknown
1610200549008,51,-210,-4.6142578125E-5,0,0,57,1657613,136589,16776135,15825,11991,16749192,26903,30335,Tag0,unknown
1610200549026,51,65,1.42822265625E-5,0,0,57,1657613,136589,16776135,15825,11991,16749192,26903,30335,Tag0,unknown
1610200549040,51,-73,-1.6040039062500002E-5,0,0,57,1657613,136589,16776135,15825,11991,16749192,26903,30335,Tag0,unknown
1610200549059,51,760,1.669921875E-4,0,0,57,1657613,136589,16776135,15825,11991,16749192,26903,30335,Tag0,unknown
1610200549074,51,745,1.636962890625E-4,0,0,57,1657613,136589,16776135,15825,11991,16749192,26903,30335,Tag0,unknown
1610200549084,51,1575,3.460693359375E-4,0,0,57,1657613,136589,16776135,15825,11991,16749192,26903,30335,Tag0,unknown
1610200549098,51,1217,2.674072265625E-4,0,0,57,1657613,136589,16776135,15825,11991,16749192,26903,30335,Tag0,unknown
1610200549108,51,1207,2.652099609375E-4,0,0,57,1657613,136589,16776135,15825,11991,16749192,26903,30335,Tag0,unknown
1610200549131,51,674,1.48095703125E-4,0,0,57,1657613,136589,16776135,15825,11991,16749192,26903,30335,Tag0,unknown
1610200549141,51,680,1.494140625E-4,0,0,57,1657613,136589,16776135,15825,11991,16749192,26903,30335,Tag0,unknown
1610200549159,51,389,8.54736328125E-5,0,0,57,1657613,136589,16776135,15825,11991,16749192,26903,30335,Tag0,unknown
1610200549175,51,250,5.4931640625E-5,0,0,57,1657613,136589,16776135,15825,11991,16749192,26903,30335,Tag0,unknown
1610200549202,51,121,2.6586914062500003E-5,0,0,57,1657613,136589,16776135,15825,11991,16749192,26903,30335,Tag0,unknown
1610200549212,51,-359,-7.88818359375E-5,0,0,57,1657613,136589,16776135,15825,11991,16749192,26903,30335,Tag0,unknown
1610200549224,51,-161,-3.53759765625E-5,0,0,57,1657613,136589,16776135,15825,11991,16749192,26903,30335,Tag0,unknown
1610200549244,51,-243,-5.33935546875E-5,0,0,57,1657613,136589,16776135,15825,11991,16749192,26903,30335,Tag0,unknown
1610200549258,51,-210,-4.6142578125E-5,0,0,57,1657613,136589,16776135,15825,11991,16749192,26903,30335,Tag0,unknown
1610200549276,51,-145,-3.18603515625E-5,0,0,57,1657613,136589,16776135,15825,11991,16749192,26903,30335,Tag0,unknown
1610200549290,51,-445,-9.77783203125E-5,0,0,57,1657613,136589,16776135,15825,11991,16749192,26903,30335,Tag0,unknown
1610200549316,51,-900,-1.9775390625E-4,0,0,57,1657613,136589,16776135,15825,11991,16749192,26903,30335,Tag0,unknown
1610200549326,51,-994,-2.1840820312500002E-4,0,0,57,1657613,136589,16776135,15825,11991,16749192,26903,30335,Tag0,unknown
1610200549370,51,-1167,-2.564208984375E-4,0,0,57,1657613,136589,16776135,15825,11991,16749192,26903,30335,Tag0,unknown
1610200549396,51,-1405,-3.087158203125E-4,0,0,57,1657613,136589,16776135,15825,11991,16749192,26903,30335,Tag0,unknown
1610200549406,51,-349,-7.668457031250001E-5,0,0,57,1657613,136589,16776135,15825,11991,16749192,26903,30335,Tag0,unknown
1610200549416,51,-59,-1.29638671875E-5,0,0,57,1657613,136589,16776135,15825,11991,16749192,26903,30335,Tag0,unknown
1610200549429,51,235,5.16357421875E-5,0,0,57,1657613,136589,16776135,15825,11991,16749192,26903,30335,Tag0,unknown
1610200549442,51,532,1.1689453125E-4,0,0,57,1657613,136589,16776135,15825,11991,16749192,26903,30335,Tag0,unknown
1610200549452,51,1050,2.30712890625E-4,0,0,57,1657613,136589,16776135,15825,11991,16749192,26903,30335,Tag0,unknown
1610200549464,51,715,1.571044921875E-4,0,0,57,1657613,136589,16776135,15825,11991,16749192,26903,30335,Tag0,unknown
1610200549475,51,684,1.5029296875E-4,0,0,57,1657613,136589,16776135,15825,11991,16749192,26903,30335,Tag0,unknown
1610200549495,51,412,9.052734375E-5,0,0,57,2385706,202978,70185,73731,16767217,16751371,13387,8885,Tag0,unknown
1610200549528,51,323,7.09716796875E-5,0,0,57,2385706,202978,70185,73731,16767217,16751371,13387,8885,Tag0,unknown
1610200549540,51,304,6.6796875E-5,0,0,57,2385706,202978,70185,73731,16767217,16751371,13387,8885,Tag0,unknown
1610200549550,51,-829,-1.821533203125E-4,0,0,57,2385706,202978,70185,73731,16767217,16751371,13387,8885,Tag0,unknown
1610200549560,51,-1357,-2.981689453125E-4,0,0,57,2385706,202978,70185,73731,16767217,16751371,13387,8885,Tag0,unknown
1610200549577,51,-1161,-2.5510253906250004E-4,0,0,57,2385706,202978,70185,73731,16767217,16751371,13387,8885,Tag0,unknown
1610200549590,51,-1398,-3.07177734375E-4,0,0,57,2385706,202978,70185,73731,16767217,16751371,13387,8885,Tag0,unknown
1610200549613,51,-1081,-2.375244140625E-4,0,0,57,2385706,202978,70185,73731,16767217,16751371,13387,8885,Tag0,unknown
1610200549623,51,-1090,-2.39501953125E-4,0,0,57,2385706,202978,70185,73731,16767217,16751371,13387,8885,Tag0,unknown
1610200549652,51,-434,-9.5361328125E-5,0,0,57,2385706,202978,70185,73731,16767217,16751371,13387,8885,Tag0,unknown
1610200549662,51,-360,-7.91015625E-5,0,0,57,2385706,202978,70185,73731,16767217,16751371,13387,8885,Tag0,unknown
1610200549673,51,-139,-3.0541992187500004E-5,0,0,57,2385706,202978,70185,73731,16767217,16751371,13387,8885,Tag0,unknown
1610200549705,51,312,6.85546875E-5,0,0,57,2385706,202978,70185,73731,16767217,16751371,13387,8885,Tag0,unknown
1610200549723,51,337,7.40478515625E-5,0,0,57,2385706,202978,70185,73731,16767217,16751371,13387,8885,Tag0,unknown
1610200549740,51,375,8.23974609375E-5,0,0,57,2385706,202978,70185,73731,16767217,16751371,13387,8885,Tag0,unknown
1610200549761,51,373,8.19580078125E-5,0,0,57,2385706,202978,70185,73731,16767217,16751371,13387,8885,Tag0,unknown
1610200549774,51,379,8.32763671875E-5,0,0,57,2385706,202978,70185,73731,16767217,16751371,13387,8885,Tag0,unknown
1610200549784,51,457,1.004150390625E-4,0,0,57,2385706,202978,70185,73731,16767217,16751371,13387,8885,Tag0,unknown
1610200549808,51,251,5.5151367187500004E-5,0,0,57,2385706,202978,70185,73731,16767217,16751371,13387,8885,Tag0,unknown
1610200549825,51,227,4.98779296875E-5,0,0,57,2385706,202978,70185,73731,16767217,16751371,13387,8885,Tag0,unknown
1610200549859,51,1345,2.955322265625E-4,0,0,57,2385706,202978,70185,73731,16767217,16751371,13387,8885,Tag0,unknown
1610200549873,51,1291,2.8366699218750004E-4,0,0,57,2385706,202978,70185,73731,16767217,16751371,13387,8885,Tag0,unknown
1610200549883,51,416,9.140625E-5,0,0,57,2385706,202978,70185,73731,16767217,16751371,13387,8885,Tag0,unknown
1610200549907,51,839,1.843505859375E-4,0,0,57,2385706,202978,70185,73731,16767217,16751371,13387,8885,Tag0,unknown
1610200549931,51,620,1.3623046875E-4,0,0,57,2385706,202978,70185,73731,16767217,16751371,13387,8885,Tag0,unknown
1610200549942,51,601,1.3205566406249998E-4,0,0,57,2385706,202978,70185,73731,16767217,16751371,13387,8885,Tag0,unknown
1610200549965,51,151,3.31787109375E-5,0,0,57,2385706,202978,70185,73731,16767217,16751371,13387,8885,Tag0,unknown
1610200549975,51,380,8.349609375E-5,0,0,57,2385706,202978,70185,73731,16767217,16751371,13387,8885,Tag0,unknown
1610200549990,51,-1402,-3.08056640625E-4,0,0,57,2385706,202978,70185,73731,16767217,16751371,13387,8885,Tag0,unknown
1610200550012,51,-1017,-2.2346191406250003E-4,0,0,57,2385706,202978,70185,73731,16767217,16751371,13387,8885,Tag0,unknown
1610200550024,51,-739,-1.623779296875E-4,0,0,57,2385706,202978,70185,73731,16767217,16751371,13387,8885,Tag0,unknown
1610200550040,51,-1655,-3.636474609375E-4,0,0,57,2385706,202978,70185,73731,16767217,16751371,13387,8885,Tag0,unknown
1610200550057,51,-685,-1.505126953125E-4,0,0,57,2385706,202978,70185,73731,16767217,16751371,13387,8885,Tag0,unknown
1610200550073,51,-539,-1.1843261718750001E-4,0,0,57,2385706,202978,70185,73731,16767217,16751371,13387,8885,Tag0,unknown
1610200550103,51,-1445,-3.175048828125E-4,0,0,57,2385706,202978,70185,73731,16767217,16751371,13387,8885,Tag0,unknown
1610200550113,51,-2048,-4.5E-4,0,0,57,2385706,202978,70185,73731,16767217,16751371,13387,8885,Tag0,unknown
1610200550125,51,-2145,-4.713134765625E-4,0,0,57,2385706,202978,70185,73731,16767217,16751371,13387,8885,Tag0,unknown
1610200550144,51,-407,-8.94287109375E-5,0,0,57,2385706,202978,70185,73731,16767217,16751371,13387,8885,Tag0,unknown
1610200550160,51,-226,-4.9658203125E-5,0,0,57,2385706,202978,70185,73731,16767217,16751371,13387,8885,Tag0,unknown
1610200550170,51,331,7.272949218750001E-5,0,0,57,2385706,202978,70185,73731,16767217,16751371,13387,8885,Tag0,unknown
1610200550191,51,656,1.4414062499999998E-4,0,0,57,2385706,202978,70185,73731,16767217,16751371,13387,8885,Tag0,unknown
1610200550220,51,592,1.30078125E-4,0,0,57,2385706,202978,70185,73731,16767217,16751371,13387,8885,Tag0,unknown
1610200550230,51,865,1.900634765625E-4,0,0,57,2385706,202978,70185,73731,16767217,16751371,13387,8885,Tag0,unknown
1610200550240,51,824,1.810546875E-4,0,0,57,2385706,202978,70185,73731,16767217,16751371,13387,8885,Tag0,unknown
1610200550259,51,1573,3.456298828125E-4,0,0,57,2385706,202978,70185,73731,16767217,16751371,13387,8885,Tag0,unknown
1610200550274,51,1066,2.34228515625E-4,0,0,57,2385706,202978,70185,73731,16767217,16751371,13387,8885,Tag0,unknown
1610200550297,51,806,1.7709960937499998E-4,0,0,57,2385706,202978,70185,73731,16767217,16751371,13387,8885,Tag0,unknown
1610200550307,51,487,1.070068359375E-4,0,0,57,2385706,202978,70185,73731,16767217,16751371,13387,8885,Tag0,unknown
1610200550332,51,791,1.738037109375E-4,0,0,57,2385706,202978,70185,73731,16767217,16751371,13387,8885,Tag0,unknown
1610200550342,51,829,1.821533203125E-4,0,0,57,2385706,202978,70185,73731,16767217,16751371,13387,8885,Tag0,unknown
1610200550366,51,491,1.078857421875E-4,0,0,57,2385706,202978,70185,73731,16767217,16751371,13387,8885,Tag0,unknown
1610200550376,51,493,1.083251953125E-4,0,0,57,2385706,202978,70185,73731,16767217,16751371,13387,8885,Tag0,unknown
1610200550391,51,585,1.285400390625E-4,0,0,57,2385706,202978,70185,73731,16767217,16751371,13387,8885,Tag0,unknown
1610200550408,51,576,1.265625E-4,0,0,57,2385706,202978,70185,73731,16767217,16751371,13387,8885,Tag0,unknown
1610200550424,51,355,7.80029296875E-5,0,0,57,2385706,202978,70185,73731,16767217,16751371,13387,8885,Tag0,unknown
1610200550445,51,-397,-8.72314453125E-5,0,0,57,2385706,202978,70185,73731,16767217,16751371,13387,8885,Tag0,unknown
1610200550457,51,-404,-8.876953125000001E-5,0,0,57,2385706,202978,70185,73731,16767217,16751371,13387,8885,Tag0,unknown
1610200550494,26,-405,-8.89892578125E-5,0,0,57,1372683,163670,71041,68398,16772948,16750899,9683,21393,Tag0,unknown
1610200550515,26,-356,-7.822265625E-5,0,0,57,1372683,163670,71041,68398,16772948,16750899,9683,21393,Tag0,unknown
1610200550525,26,-156,-3.427734375E-5,0,0,57,1372683,163670,71041,68398,16772948,16750899,9683,21393,Tag0,unknown
1610200550553,26,-587,-1.2897949218750003E-4,0,0,57,1372683,163670,71041,68398,16772948,16750899,9683,21393,Tag0,unknown
1610200550563,26,-606,-1.33154296875E-4,0,0,57,1372683,163670,71041,68398,16772948,16750899,9683,21393,Tag0,unknown
1610200550575,26,-812,-1.7841796875000003E-4,0,0,57,1372683,163670,71041,68398,16772948,16750899,9683,21393,Tag0,unknown
1610200550595,26,-453,-9.95361328125E-5,0,0,57,1372683,163670,71041,68398,16772948,16750899,9683,21393,Tag0,unknown
1610200550608,26,-471,-1.0349121093750001E-4,0,0,57,1372683,163670,71041,68398,16772948,16750899,9683,21393,Tag0,unknown
1610200550628,26,-84,-1.8457031250000004E-5,0,0,57,1372683,163670,71041,68398,16772948,16750899,9683,21393,Tag0,unknown
1610200550640,26,106,2.3291015625000003E-5,0,0,57,1372683,163670,71041,68398,16772948,16750899,9683,21393,Tag0,unknown
1610200550662,26,71,1.56005859375E-5,0,0,57,1372683,163670,71041,68398,16772948,16750899,9683,21393,Tag0,unknown
1610200550675,26,69,1.51611328125E-5,0,0,57,1372683,163670,71041,68398,16772948,16750899,9683,21393,Tag0,unknown
1610200550703,26,1786,3.9243164062500004E-4,0,0,57,1372683,163670,71041,68398,16772948,16750899,9683,21393,Tag0,unknown
1610200550713,26,1254,2.75537109375E-4,0,0,57,1372683,163670,71041,68398,16772948,16750899,9683,21393,Tag0,unknown
1610200550725,26,965,2.120361328125E-4,0,0,57,1372683,163670,71041,68398,16772948,16750899,9683,21393,Tag0,unknown
1610200550741,26,833,1.830322265625E-4,0,0,57,1372683,163670,71041,68398,16772948,16750899,9683,21393,Tag0,unknown
1610200550759,26,496,1.08984375E-4,0,0,57,1372683,163670,71041,68398,16772948,16750899,9683,21393,Tag0,unknown
1610200550769,26,-2048,-4.5E-4,0,0,57,1372683,163670,71041,68398,16772948,16750899,9683,21393,Tag0,unknown
1610200550804,26,-2048,-4.5E-4,0,0,57,1372683,163670,71041,68398,16772948,16750899,9683,21393,Tag0,unknown
1610200550825,26,-2048,-4.5E-4,0,0,57,1372683,163670,71041,68398,16772948,16750899,9683,21393,Tag0,unknown
1610200550852,26,-1522,-3.34423828125E-4,0,0,57,1372683,163670,71041,68398,16772948,16750899,9683,21393,Tag0,unknown
1610200550862,26,-1462,-3.2124023437499997E-4,0,0,57,1372683,163670,71041,68398,16772948,16750899,9683,21393,Tag0,unknown
1610200550875,26,-714,-1.5688476562500001E-4,0,0,57,1372683,163670,71041,68398,16772948,16750899,9683,21393,Tag0,unknown
1610200550892,26,-813,-1.786376953125E-4,0,0,57,1372683,163670,71041,68398,16772948,16750899,9683,21393,Tag0,unknown
1610200550908,26,-471,-1.0349121093750001E-4,0,0,57,1372683,163670,71041,68398,16772948,16750899,9683,21393,Tag0,unknown
1610200550929,26,-179,-3.93310546875E-5,0,0,57,1372683,163670,71041,68398,16772948,16750899,9683,21393,Tag0,unknown
1610200550941,26,-168,-3.691406250000001E-5,0,0,57,1372683,163670,71041,68398,16772948,16750899,9683,21393,Tag0,unknown
1610200550962,26,-299,-6.56982421875E-5,0,0,57,1372683,163670,71041,68398,16772948,16750899,9683,21393,Tag0,unknown
1610200550975,26,-267,-5.86669921875E-5,0,0,57,1372683,163670,71041,68398,16772948,16750899,9683,21393,Tag0,unknown
1610200550985,26,948,2.0830078125000002E-4,0,0,57,1372683,163670,71041,68398,16772948,16750899,9683,21393,Tag0,unknown
1610200551005,26,1020,2.2412109375E-4,0,0,57,1372683,163670,71041,68398,16772948,16750899,9683,21393,Tag0,unknown
1610200551025,26,1320,2.900390625E-4,0,0,57,1372683,163670,71041,68398,16772948,16750899,9683,21393,Tag0,unknown
1610200551043,26,1216,2.671875E-4,0,0,57,1372683,163670,71041,68398,16772948,16750899,9683,21393,Tag0,unknown
1610200551059,26,1221,2.682861328125E-4,0,0,57,1372683,163670,71041,68398,16772948,16750899,9683,21393,Tag0,unknown
1610200551079,26,1541,3.385986328125E-4,0,0,57,1372683,163670,71041,68398,16772948,16750899,9683,21393,Tag0,unknown
1610200551092,26,1275,2.801513671875E-4,0,0,57,1372683,163670,71041,68398,16772948,16750899,9683,21393,Tag0,unknown
1610200551113,26,1156,2.5400390625E-4,0,0,57,1372683,163670,71041,68398,16772948,16750899,9683,21393,Tag0,unknown
1610200551125,26,1404,3.0849609375E-4,0,0,57,1372683,163670,71041,68398,16772948,16750899,9683,21393,Tag0,unknown
1610200551135,26,855,1.878662109375E-4,0,0,57,1372683,163670,71041,68398,16772948,16750899,9683,21393,Tag0,unknown
1610200551153,26,778,1.70947265625E-4,0,0,57,1372683,163670,71041,68398,16772948,16750899,9683,21393,Tag0,unknown
1610200551163,26,835,1.834716796875E-4,0,0,57,1372683,163670,71041,68398,16772948,16750899,9683,21393,Tag0,unknown
1610200551174,26,795,1.746826171875E-4,0,0,57,1372683,163670,71041,68398,16772948,16750899,9683,21393,Tag0,unknown
1610200551196,26,807,1.7731933593750001E-4,0,0,57,1372683,163670,71041,68398,16772948,16750899,9683,21393,Tag0,unknown
1610200551209,26,777,1.707275390625E-4,0,0,57,1372683,163670,71041,68398,16772948,16750899,9683,21393,Tag0,unknown
1610200551230,26,618,1.35791015625E-4,0,0,57,1372683,163670,71041,68398,16772948,16750899,9683,21393,Tag0,unknown
1610200551242,26,600,1.318359375E-4,0,0,57,1372683,163670,71041,68398,16772948,16750899,9683,21393,Tag0,unknown
1610200551260,26,134,2.9443359375000003E-5,0,0,57,1372683,163670,71041,68398,16772948,16750899,9683,21393,Tag0,unknown
1610200551278,26,293,6.43798828125E-5,0,0,57,1372683,163670,71041,68398,16772948,16750899,9683,21393,Tag0,unknown
1610200551292,26,281,6.17431640625E-5,0,0,57,1372683,163670,71041,68398,16772948,16750899,9683,21393,Tag0,unknown
1610200551302,26,-105,-2.30712890625E-5,0,0,57,1372683,163670,71041,68398,16772948,16750899,9683,21393,Tag0,unknown
1610200551312,26,112,2.4609375E-5,0,0,57,1372683,163670,71041,68398,16772948,16750899,9683,21393,Tag0,unknown
1610200551325,26,87,1.91162109375E-5,0,0,57,1372683,163670,71041,68398,16772948,16750899,9683,21393,Tag0,unknown
1610200551344,26,86,1.8896484375000003E-5,0,0,57,1372683,163670,71041,68398,16772948,16750899,9683,21393,Tag0,unknown
1610200551359,26,69,1.51611328125E-5,0,0,57,1372683,163670,71041,68398,16772948,16750899,9683,21393,Tag0,unknown
1610200551378,26,-263,-5.7788085937500005E-5,0,0,57,1372683,163670,71041,68398,16772948,16750899,9683,21393,Tag0,unknown
1610200551392,26,-289,-6.35009765625E-5,0,0,57,1372683,163670,71041,68398,16772948,16750899,9683,21393,Tag0,unknown
1610200551416,26,-379,-8.32763671875E-5,0,0,57,1372683,163670,71041,68398,16772948,16750899,9683,21393,Tag0,unknown
1610200551434,26,-331,-7.272949218750001E-5,0,0,57,1372683,163670,71041,68398,16772948,16750899,9683,21393,Tag0,unknown
1610200551444,26,-364,-7.998046875E-5,0,0,57,1372683,163670,71041,68398,16772948,16750899,9683,21393,Tag0,unknown
1610200551458,26,-129,-2.8344726562500002E-5,0,0,57,1372683,163670,71041,68398,16772948,16750899,9683,21393,Tag0,unknown
1610200551477,51,-213,-4.68017578125E-5,0,0,57,1672197,135215,20263,77531,27350,27233,16747666,16705,Tag0,unknown
1610200551493,51,-219,-4.81201171875E-5,0,0,57,1672197,135215,20263,77531,27350,27233,16747666,16705,Tag0,unknown
1610200551508,51,-162,-3.5595703125E-5,0,0,57,1672197,135215,20263,77531,27350,27233,16747666,16705,Tag0,unknown
1610200551529,51,113,2.48291015625E-5,0,0,57,1672197,135215,20263,77531,27350,27233,16747666,16705,Tag0,unknown
1610200551540,51,-77,-1.69189453125E-5,0,0,57,1672197,135215,20263,77531,27350,27233,16747666,16705,Tag0,unknown
1610200551561,51,-24,-5.2734375E-6,0,0,57,1672197,135215,20263,77531,27350,27233,16747666,16705,Tag0,unknown
1610200551574,51,-10,-2.197265625E-6,0,0,57,1672197,135215,20263,77531,27350,27233,16747666,16705,Tag0,unknown
1610200551604,51,327,7.18505859375E-5,0,0,57,1672197,135215,20263,77531,27350,27233,16747666,16705,Tag0,unknown
1610200551625,51,290,6.3720703125E-5,0,0,57,1672197,135215,20263,77531,27350,27233,16747666,16705,Tag0,unknown
1610200551642,51,316,6.943359375000001E-5,0,0,57,1672197,135215,20263,77531,27350,27233,16747666,16705,Tag0,unknown
1610200551656,51,-42,-9.228515625000002E-6,0,0,57,1672197,135215,20263,77531,27350,27233,16747666,16705,Tag0,unknown
1610200551677,51,-85,-1.86767578125E-5,0,0,57,1672197,135215,20263,77531,27350,27233,16747666,16705,Tag0,unknown
1610200551691,51,-88,-1.93359375E-5,0,0,57,1672197,135215,20263,77531,27350,27233,16747666,16705,Tag0,unknown
1610200551711,51,-125,-2.74658203125E-5,0,0,57,1672197,135215,20263,77531,27350,27233,16747666,16705,Tag0,unknown
1610200551724,51,-127,-2.79052734375E-5,0,0,57,1672197,135215,20263,77531,27350,27233,16747666,16705,Tag0,unknown
1610200551753,51,-2048,-4.5E-4,0,0,57,1672197,135215,20263,77531,27350,27233,16747666,16705,Tag0,unknown
1610200551763,51,-2048,-4.5E-4,0,0,57,1672197,135215,20263,77531,27350,27233,16747666,16705,Tag0,unknown
1610200551775,51,-2048,-4.5E-4,0,0,57,1672197,135215,20263,77531,27350,27233,16747666,16705,Tag0,unknown
1610200551797,51,-2065,-4.537353515625E-4,0,0,57,1672197,135215,20263,77531,27350,27233,16747666,16705,Tag0,unknown
1610200551809,51,-1736,-3.814453125E-4,0,0,57,1672197,135215,20263,77531,27350,27233,16747666,16705,Tag0,unknown
1610200551830,51,-1343,-2.950927734375E-4,0,0,57,1672197,135215,20263,77531,27350,27233,16747666,16705,Tag0,unknown
1610200551842,51,-1303,-2.863037109375E-4,0,0,57,1672197,135215,20263,77531,27350,27233,16747666,16705,Tag0,unknown
1610200551852,51,-405,-8.89892578125E-5,0,0,57,1672197,135215,20263,77531,27350,27233,16747666,16705,Tag0,unknown
1610200551871,51,-385,-8.45947265625E-5,0,0,57,1672197,135215,20263,77531,27350,27233,16747666,16705,Tag0,unknown
1610200551892,51,-627,-1.377685546875E-4,0,0,57,1672197,135215,20263,77531,27350,27233,16747666,16705,Tag0,unknown
1610200551908,51,-221,-4.85595703125E-5,0,0,57,1672197,135215,20263,77531,27350,27233,16747666,16705,Tag0,unknown
1610200551925,51,-171,-3.75732421875E-5,0,0,57,1672197,135215,20263,77531,27350,27233,16747666,16705,Tag0,unknown
1610200551943,51,87,1.91162109375E-5,0,0,57,1672197,135215,20263,77531,27350,27233,16747666,16705,Tag0,unknown
1610200551959,51,259,5.69091796875E-5,0,0,57,1672197,135215,20263,77531,27350,27233,16747666,16705,Tag0,unknown
1610200551978,51,619,1.360107421875E-4,0,0,57,1672197,135215,20263,77531,27350,27233,16747666,16705,Tag0,unknown
1610200551992,51,423,9.29443359375E-5,0,0,57,1672197,135215,20263,77531,27350,27233,16747666,16705,Tag0,unknown
1610200552002,51,1838,4.0385742187500003E-4,0,0,57,1672197,135215,20263,77531,27350,27233,16747666,16705,Tag0,unknown
1610200552018,51,1819,3.9968261718750005E-4,0,0,57,1672197,135215,20263,77531,27350,27233,16747666,16705,Tag0,unknown
1610200552028,51,1745,3.834228515625E-4,0,0,57,1672197,135215,20263,77531,27350,27233,16747666,16705,Tag0,unknown
1610200552055,51,1507,3.311279296875E-4,0,0,57,1672197,135215,20263,77531,27350,27233,16747666,16705,Tag0,unknown
1610200552076,51,1505,3.306884765625E-4,0,0,57,1672197,135215,20263,77531,27350,27233,16747666,16705,Tag0,unknown
1610200552086,51,487,1.070068359375E-4,0,0,57,1672197,135215,20263,77531,27350,27233,16747666,16705,Tag0,unknown
