timestampMs,poorSignal,eegRawValue,eegRawValueVolts,attention,meditation,blinkStrength,delta,theta,alphaLow,alphaHigh,betaLow,betaHigh,gammaLow,gammaMid,tagEvent,location
1610799072807,200,-290,-6.3720703125E-5,0,0,0,46815,6555,9619,5264,2766,4438,3146,1491,Tag0,unknown
1610799072855,200,-277,-6.0864257812500005E-5,0,0,0,46815,6555,9619,5264,2766,4438,3146,1491,Tag0,unknown
1610799072877,200,103,2.26318359375E-5,0,0,0,46815,6555,9619,5264,2766,4438,3146,1491,Tag0,unknown
1610799072916,200,24,5.2734375E-6,0,0,0,46815,6555,9619,5264,2766,4438,3146,1491,Tag0,unknown
1610799072927,200,39,8.5693359375E-6,0,0,0,46815,6555,9619,5264,2766,4438,3146,1491,Tag0,unknown
1610799072945,200,108,2.3730468750000002E-5,0,0,0,46815,6555,9619,5264,2766,4438,3146,1491,Tag0,unknown
1610799072976,200,-87,-1.91162109375E-5,0,0,0,46815,6555,9619,5264,2766,4438,3146,1491,Tag0,unknown
1610799072994,200,-48,-1.0546875E-5,0,0,0,46815,6555,9619,5264,2766,4438,3146,1491,Tag0,unknown
1610799073034,200,-100,-2.197265625E-5,0,0,0,46815,6555,9619,5264,2766,4438,3146,1491,Tag0,unknown
1610799073044,200,-119,-2.6147460937500004E-5,0,0,0,46815,6555,9619,5264,2766,4438,3146,1491,Tag0,unknown
1610799073060,200,44,9.66796875E-6,0,0,0,46815,6555,9619,5264,2766,4438,3146,1491,Tag0,unknown
1610799073094,200,50,1.0986328125E-5,0,0,0,46815,6555,9619,5264,2766,4438,3146,1491,Tag0,unknown
1610799073110,200,74,1.6259765625E-5,0,0,0,46815,6555,9619,5264,2766,4438,3146,1491,Tag0,unknown
1610799073154,200,-299,-6.56982421875E-5,0,0,0,46815,6555,9619,5264,2766,4438,3146,1491,Tag0,unknown
1610799073211,200,-218,-4.7900390625E-5,0,0,0,46815,6555,9619,5264,2766,4438,3146,1491,Tag0,unknown
1610799073227,200,-211,-4.63623046875E-5,0,0,0,46815,6555,9619,5264,2766,4438,3146,1491,Tag0,unknown
1610799073261,200,108,2.3730468750000002E-5,0,0,0,46815,6555,9619,5264,2766,4438,3146,1491,Tag0,unknown
1610799073277,200,97,2.13134765625E-5,0,0,0,46815,6555,9619,5264,2766,4438,3146,1491,Tag0,unknown
1610799073316,200,108,2.3730468750000002E-5,0,0,0,46815,6555,9619,5264,2766,4438,3146,1491,Tag0,unknown
1610799073328,200,73,1.6040039062500002E-5,0,0,0,46815,6555,9619,5264,2766,4438,3146,1491,Tag0,unknown
1610799073357,200,29,6.3720703125E-6,0,0,0,46815,6555,9619,5264,2766,4438,3146,1491,Tag0,unknown
1610799073378,200,-555,-1.219482421875E-4,0,0,0,46815,6555,9619,5264,2766,4438,3146,1491,Tag0,unknown
1610799073394,200,89,1.95556640625E-5,0,0,0,46815,6555,9619,5264,2766,4438,3146,1491,Tag0,unknown
1610799073411,200,362,7.954101562500001E-5,0,0,0,46815,6555,9619,5264,2766,4438,3146,1491,Tag0,unknown
1610799073428,200,1139,2.5026855468750003E-4,0,0,0,46815,6555,9619,5264,2766,4438,3146,1491,Tag0,unknown
1610799073444,200,476,1.0458984375000001E-4,0,0,0,46815,6555,9619,5264,2766,4438,3146,1491,Tag0,unknown
1610799073469,200,-1349,-2.9641113281250004E-4,0,0,0,46815,6555,9619,5264,2766,4438,3146,1491,Tag0,unknown
1610799073479,200,-998,-2.19287109375E-4,0,0,0,46815,6555,9619,5264,2766,4438,3146,1491,Tag0,unknown
1610799073502,200,-997,-2.1906738281250002E-4,0,0,0,46815,6555,9619,5264,2766,4438,3146,1491,Tag0,unknown
1610799073512,200,-1109,-2.436767578125E-4,0,0,0,46815,6555,9619,5264,2766,4438,3146,1491,Tag0,unknown
1610799073540,200,-43,-9.448242187500001E-6,0,0,0,46815,6555,9619,5264,2766,4438,3146,1491,Tag0,unknown
1610799073574,200,909,1.997314453125E-4,0,0,0,46815,6555,9619,5264,2766,4438,3146,1491,Tag0,unknown
1610799073595,200,962,2.11376953125E-4,0,0,0,46815,6555,9619,5264,2766,4438,3146,1491,Tag0,unknown
1610799073614,200,829,1.821533203125E-4,0,0,0,46815,6555,9619,5264,2766,4438,3146,1491,Tag0,unknown
1610799073628,200,645,1.417236328125E-4,0,0,0,46815,6555,9619,5264,2766,4438,3146,1491,Tag0,unknown
1610799073647,200,761,1.672119140625E-4,0,0,0,46815,6555,9619,5264,2766,4438,3146,1491,Tag0,unknown
1610799073662,200,727,1.5974121093750003E-4,0,0,0,46815,6555,9619,5264,2766,4438,3146,1491,Tag0,unknown
1610799073690,200,-279,-6.13037109375E-5,0,0,0,46815,6555,9619,5264,2766,4438,3146,1491,Tag0,unknown
1610799073711,200,-993,-2.181884765625E-4,0,0,0,46815,6555,9619,5264,2766,4438,3146,1491,Tag0,unknown
1610799073732,200,-343,-7.53662109375E-5,0,0,0,878677,89398,28637,16768243,131069,16747283,28886,15824,Tag0,unknown
1610799073745,200,83,1.82373046875E-5,0,0,0,878677,89398,28637,16768243,131069,16747283,28886,15824,Tag0,unknown
1610799073766,200,272,5.9765625000000004E-5,0,0,0,878677,89398,28637,16768243,131069,16747283,28886,15824,Tag0,unknown
1610799073778,200,343,7.53662109375E-5,0,0,0,878677,89398,28637,16768243,131069,16747283,28886,15824,Tag0,unknown
1610799073800,200,618,1.35791015625E-4,0,0,0,878677,89398,28637,16768243,131069,16747283,28886,15824,Tag0,unknown
1610799073812,200,583,1.281005859375E-4,0,0,0,878677,89398,28637,16768243,131069,16747283,28886,15824,Tag0,unknown
1610799073834,200,1307,2.871826171875E-4,0,0,0,878677,89398,28637,16768243,131069,16747283,28886,15824,Tag0,unknown
1610799073845,200,1328,2.91796875E-4,0,0,0,878677,89398,28637,16768243,131069,16747283,28886,15824,Tag0,unknown
1610799073872,200,39,8.5693359375E-6,0,0,0,878677,89398,28637,16768243,131069,16747283,28886,15824,Tag0,unknown
1610799073906,200,-609,-1.338134765625E-4,0,0,0,878677,89398,28637,16768243,131069,16747283,28886,15824,Tag0,unknown
1610799073928,200,-120,-2.63671875E-5,0,0,0,878677,89398,28637,16768243,131069,16747283,28886,15824,Tag0,unknown
1610799073946,200,-449,-9.86572265625E-5,0,0,0,878677,89398,28637,16768243,131069,16747283,28886,15824,Tag0,unknown
1610799073962,200,-413,-9.07470703125E-5,0,0,0,878677,89398,28637,16768243,131069,16747283,28886,15824,Tag0,unknown
1610799073982,200,-774,-1.70068359375E-4,0,0,0,878677,89398,28637,16768243,131069,16747283,28886,15824,Tag0,unknown
1610799073995,200,-490,-1.07666015625E-4,0,0,0,878677,89398,28637,16768243,131069,16747283,28886,15824,Tag0,unknown
1610799074020,200,-1159,-2.5466308593750003E-4,0,0,0,878677,89398,28637,16768243,131069,16747283,28886,15824,Tag0,unknown
1610799074030,200,-1332,-2.9267578124999997E-4,0,0,0,878677,89398,28637,16768243,131069,16747283,28886,15824,Tag0,unknown
1610799074054,200,-1475,-3.240966796875E-4,0,0,0,878677,89398,28637,16768243,131069,16747283,28886,15824,Tag0,unknown
1610799074064,200,-1625,-3.570556640625E-4,0,0,0,878677,89398,28637,16768243,131069,16747283,28886,15824,Tag0,unknown
1610799074091,200,121,2.6586914062500003E-5,0,0,0,878677,89398,28637,16768243,131069,16747283,28886,15824,Tag0,unknown
1610799074125,200,989,2.173095703125E-4,0,0,0,878677,89398,28637,16768243,131069,16747283,28886,15824,Tag0,unknown
1610799074146,200,1557,3.421142578125E-4,0,0,0,878677,89398,28637,16768243,131069,16747283,28886,15824,Tag0,unknown
1610799074163,200,1561,3.429931640625E-4,0,0,0,878677,89398,28637,16768243,131069,16747283,28886,15824,Tag0,unknown
1610799074180,200,1591,3.4958496093750004E-4,0,0,0,878677,89398,28637,16768243,131069,16747283,28886,15824,Tag0,unknown
1610799074197,200,1140,2.5048828125E-4,0,0,0,878677,89398,28637,16768243,131069,16747283,28886,15824,Tag0,unknown
1610799074213,200,1100,2.4169921875E-4,0,0,0,878677,89398,28637,16768243,131069,16747283,28886,15824,Tag0,unknown
1610799074239,200,409,8.986816406250001E-5,0,0,0,878677,89398,28637,16768243,131069,16747283,28886,15824,Tag0,unknown
1610799074272,200,-108,-2.3730468750000002E-5,0,0,0,878677,89398,28637,16768243,131069,16747283,28886,15824,Tag0,unknown
1610799074282,200,-499,-1.096435546875E-4,0,0,0,878677,89398,28637,16768243,131069,16747283,28886,15824,Tag0,unknown
1610799074309,200,-809,-1.777587890625E-4,0,0,0,878677,89398,28637,16768243,131069,16747283,28886,15824,Tag0,unknown
1610799074343,200,-1097,-2.4104003906250002E-4,0,0,0,878677,89398,28637,16768243,131069,16747283,28886,15824,Tag0,unknown
1610799074370,200,-781,-1.716064453125E-4,0,0,0,878677,89398,28637,16768243,131069,16747283,28886,15824,Tag0,unknown
1610799074381,200,-168,-3.691406250000001E-5,0,0,0,878677,89398,28637,16768243,131069,16747283,28886,15824,Tag0,unknown
1610799074404,200,-565,-1.241455078125E-4,0,0,0,878677,89398,28637,16768243,131069,16747283,28886,15824,Tag0,unknown
1610799074414,200,-188,-4.1308593750000004E-5,0,0,0,878677,89398,28637,16768243,131069,16747283,28886,15824,Tag0,unknown
1610799074426,200,-377,-8.28369140625E-5,0,0,0,878677,89398,28637,16768243,131069,16747283,28886,15824,Tag0,unknown
1610799074439,200,-602,-1.3227539062500001E-4,0,0,0,878677,89398,28637,16768243,131069,16747283,28886,15824,Tag0,unknown
1610799074449,200,-141,-3.09814453125E-5,0,0,0,878677,89398,28637,16768243,131069,16747283,28886,15824,Tag0,unknown
1610799074465,200,-203,-4.460449218750001E-5,0,0,0,878677,89398,28637,16768243,131069,16747283,28886,15824,Tag0,unknown
1610799074491,200,-387,-8.50341796875E-5,0,0,0,878677,89398,28637,16768243,131069,16747283,28886,15824,Tag0,unknown
1610799074501,200,-618,-1.35791015625E-4,0,0,0,878677,89398,28637,16768243,131069,16747283,28886,15824,Tag0,unknown
1610799074517,200,-237,-5.2075195312500004E-5,0,0,0,878677,89398,28637,16768243,131069,16747283,28886,15824,Tag0,unknown
1610799074536,200,-171,-3.75732421875E-5,0,0,0,878677,89398,28637,16768243,131069,16747283,28886,15824,Tag0,unknown
1610799074552,200,36,7.91015625E-6,0,0,0,878677,89398,28637,16768243,131069,16747283,28886,15824,Tag0,unknown
1610799074569,200,-123,-2.70263671875E-5,0,0,0,878677,89398,28637,16768243,131069,16747283,28886,15824,Tag0,unknown
1610799074585,200,308,6.767578125E-5,0,0,0,878677,89398,28637,16768243,131069,16747283,28886,15824,Tag0,unknown
1610799074595,200,85,1.86767578125E-5,0,0,0,878677,89398,28637,16768243,131069,16747283,28886,15824,Tag0,unknown
1610799074634,200,78,1.7138671875E-5,0,0,0,878677,89398,28637,16768243,131069,16747283,28886,15824,Tag0,unknown
1610799074650,200,293,6.43798828125E-5,0,0,0,878677,89398,28637,16768243,131069,16747283,28886,15824,Tag0,unknown
1610799074667,200,609,1.338134765625E-4,0,0,0,878677,89398,28637,16768243,131069,16747283,28886,15824,Tag0,unknown
1610799074689,200,824,1.810546875E-4,0,0,0,878677,89398,28637,16768243,131069,16747283,28886,15824,Tag0,unknown
1610799074699,200,795,1.746826171875E-4,0,0,0,878677,89398,28637,16768243,131069,16747283,28886,15824,Tag0,unknown
1610799074748,200,373,8.19580078125E-5,0,0,0,3051339,364146,16766080,16773852,16764843,93544,16753297,23138,Tag0,unknown
1610799074766,200,-7,-1.5380859375E-6,0,0,0,3051339,364146,16766080,16773852,16764843,93544,16753297,23138,Tag0,unknown
1610799074776,200,-401,-8.811035156250001E-5,0,0,0,3051339,364146,16766080,16773852,16764843,93544,16753297,23138,Tag0,unknown
1610799074810,200,-789,-1.7336425781250002E-4,0,0,0,3051339,364146,16766080,16773852,16764843,93544,16753297,23138,Tag0,unknown
1610799074820,200,-593,-1.3029785156250002E-4,0,0,0,3051339,364146,16766080,16773852,16764843,93544,16753297,23138,Tag0,unknown
1610799074835,200,-330,-7.2509765625E-5,0,0,0,3051339,364146,16766080,16773852,16764843,93544,16753297,23138,Tag0,unknown
1610799074869,200,339,7.448730468750001E-5,0,0,0,3051339,364146,16766080,16773852,16764843,93544,16753297,23138,Tag0,unknown
1610799074885,200,354,7.778320312500001E-5,0,0,0,3051339,364146,16766080,16773852,16764843,93544,16753297,23138,Tag0,unknown
1610799074895,200,1188,2.6103515625000004E-4,0,0,0,3051339,364146,16766080,16773852,16764843,93544,16753297,23138,Tag0,unknown
1610799074905,200,557,1.223876953125E-4,0,0,0,3051339,364146,16766080,16773852,16764843,93544,16753297,23138,Tag0,unknown
1610799074929,200,173,3.80126953125E-5,0,0,0,3051339,364146,16766080,16773852,16764843,93544,16753297,23138,Tag0,unknown
1610799074951,200,347,7.62451171875E-5,0,0,0,3051339,364146,16766080,16773852,16764843,93544,16753297,23138,Tag0,unknown
1610799074974,200,1,2.197265625E-7,0,0,0,3051339,364146,16766080,16773852,16764843,93544,16753297,23138,Tag0,unknown
1610799074984,200,-281,-6.17431640625E-5,0,0,0,3051339,364146,16766080,16773852,16764843,93544,16753297,23138,Tag0,unknown
1610799075025,200,-540,-1.1865234375E-4,0,0,0,3051339,364146,16766080,16773852,16764843,93544,16753297,23138,Tag0,unknown
1610799075036,200,-235,-5.16357421875E-5,0,0,0,3051339,364146,16766080,16773852,16764843,93544,16753297,23138,Tag0,unknown
1610799075052,200,-634,-1.39306640625E-4,0,0,0,3051339,364146,16766080,16773852,16764843,93544,16753297,23138,Tag0,unknown
1610799075066,200,-501,-1.100830078125E-4,0,0,0,3051339,364146,16766080,16773852,16764843,93544,16753297,23138,Tag0,unknown
1610799075085,200,-483,-1.061279296875E-4,0,0,0,3051339,364146,16766080,16773852,16764843,93544,16753297,23138,Tag0,unknown
1610799075100,200,-245,-5.38330078125E-5,0,0,0,3051339,364146,16766080,16773852,16764843,93544,16753297,23138,Tag0,unknown
1610799075140,200,307,6.74560546875E-5,0,0,0,3051339,364146,16766080,16773852,16764843,93544,16753297,23138,Tag0,unknown
1610799075160,200,-9,-1.9775390625E-6,0,0,0,3051339,364146,16766080,16773852,16764843,93544,16753297,23138,Tag0,unknown
1610799075170,200,371,8.151855468750001E-5,0,0,0,3051339,364146,16766080,16773852,16764843,93544,16753297,23138,Tag0,unknown
1610799075183,200,192,4.21875E-5,0,0,0,3051339,364146,16766080,16773852,16764843,93544,16753297,23138,Tag0,unknown
1610799075203,200,211,4.63623046875E-5,0,0,0,3051339,364146,16766080,16773852,16764843,93544,16753297,23138,Tag0,unknown
1610799075219,200,200,4.39453125E-5,0,0,0,3051339,364146,16766080,16773852,16764843,93544,16753297,23138,Tag0,unknown
1610799075229,200,25,5.4931640625E-6,0,0,0,3051339,364146,16766080,16773852,16764843,93544,16753297,23138,Tag0,unknown
1610799075256,200,100,2.197265625E-5,0,0,0,3051339,364146,16766080,16773852,16764843,93544,16753297,23138,Tag0,unknown
1610799075270,200,91,1.99951171875E-5,0,0,0,3051339,364146,16766080,16773852,16764843,93544,16753297,23138,Tag0,unknown
1610799075280,200,-302,-6.6357421875E-5,0,0,0,3051339,364146,16766080,16773852,16764843,93544,16753297,23138,Tag0,unknown
1610799075290,200,-524,-1.1513671875E-4,0,0,0,3051339,364146,16766080,16773852,16764843,93544,16753297,23138,Tag0,unknown
1610799075300,200,-559,-1.228271484375E-4,0,0,0,3051339,364146,16766080,16773852,16764843,93544,16753297,23138,Tag0,unknown
1610799075310,200,-251,-5.5151367187500004E-5,0,0,0,3051339,364146,16766080,16773852,16764843,93544,16753297,23138,Tag0,unknown
1610799075335,200,-177,-3.8891601562500006E-5,0,0,0,3051339,364146,16766080,16773852,16764843,93544,16753297,23138,Tag0,unknown
1610799075350,200,-141,-3.09814453125E-5,0,0,0,3051339,364146,16766080,16773852,16764843,93544,16753297,23138,Tag0,unknown
1610799075450,200,105,2.30712890625E-5,0,0,0,3051339,364146,16766080,16773852,16764843,93544,16753297,23138,Tag0,unknown
1610799075470,200,93,2.04345703125E-5,0,0,0,3051339,364146,16766080,16773852,16764843,93544,16753297,23138,Tag0,unknown
1610799075480,200,-73,-1.6040039062500002E-5,0,0,0,3051339,364146,16766080,16773852,16764843,93544,16753297,23138,Tag0,unknown
1610799075566,200,-67,-1.4721679687500002E-5,0,0,0,3051339,364146,16766080,16773852,16764843,93544,16753297,23138,Tag0,unknown
1610799075587,200,-99,-2.1752929687500003E-5,0,0,0,3051339,364146,16766080,16773852,16764843,93544,16753297,23138,Tag0,unknown
1610799075675,200,275,6.04248046875E-5,0,0,0,3051339,364146,16766080,16773852,16764843,93544,16753297,23138,Tag0,unknown
1610799075685,200,296,6.50390625E-5,0,0,0,3051339,364146,16766080,16773852,16764843,93544,16753297,23138,Tag0,unknown
1610799075813,200,337,7.40478515625E-5,0,0,0,3051339,364146,16766080,16773852,16764843,93544,16753297,23138,Tag0,unknown
1610799075842,200,359,7.88818359375E-5,0,0,0,3051339,364146,16766080,16773852,16764843,93544,16753297,23138,Tag0,unknown
1610799075852,200,-55,-1.20849609375E-5,0,0,0,3051339,364146,16766080,16773852,16764843,93544,16753297,23138,Tag0,unknown
1610799075862,200,-108,-2.3730468750000002E-5,0,0,0,3051339,364146,16766080,16773852,16764843,93544,16753297,23138,Tag0,unknown
1610799075880,200,120,2.63671875E-5,0,0,0,3051339,364146,16766080,16773852,16764843,93544,16753297,23138,Tag0,unknown
1610799075904,200,121,2.6586914062500003E-5,0,0,0,3051339,364146,16766080,16773852,16764843,93544,16753297,23138,Tag0,unknown
1610799075951,200,116,2.548828125E-5,0,0,0,3051339,364146,16766080,16773852,16764843,93544,16753297,23138,Tag0,unknown
1610799075974,200,118,2.5927734375E-5,0,0,0,3051339,364146,16766080,16773852,16764843,93544,16753297,23138,Tag0,unknown
1610799075985,200,-343,-7.53662109375E-5,0,0,0,3051339,364146,16766080,16773852,16764843,93544,16753297,23138,Tag0,unknown
1610799076015,200,-155,-3.40576171875E-5,0,0,0,3051339,364146,16766080,16773852,16764843,93544,16753297,23138,Tag0,unknown
1610799076039,200,-330,-7.2509765625E-5,0,0,0,3051339,364146,16766080,16773852,16764843,93544,16753297,23138,Tag0,unknown
1610799076049,200,83,1.82373046875E-5,0,0,0,3051339,364146,16766080,16773852,16764843,93544,16753297,23138,Tag0,unknown
1610799076060,200,-62,-1.3623046875E-5,0,0,0,3051339,364146,16766080,16773852,16764843,93544,16753297,23138,Tag0,unknown
1610799076070,200,89,1.95556640625E-5,0,0,0,3051339,364146,16766080,16773852,16764843,93544,16753297,23138,Tag0,unknown
1610799076080,200,85,1.86767578125E-5,0,0,0,3051339,364146,16766080,16773852,16764843,93544,16753297,23138,Tag0,unknown
1610799076090,200,11,2.4169921875E-6,0,0,0,3051339,364146,16766080,16773852,16764843,93544,16753297,23138,Tag0,unknown
1610799076103,200,69,1.51611328125E-5,0,0,0,3051339,364146,16766080,16773852,16764843,93544,16753297,23138,Tag0,unknown
1610799076118,200,56,1.23046875E-5,0,0,0,3051339,364146,16766080,16773852,16764843,93544,16753297,23138,Tag0,unknown
1610799076137,200,-16,-3.515625E-6,0,0,0,3051339,364146,16766080,16773852,16764843,93544,16753297,23138,Tag0,unknown
1610799076152,200,-58,-1.2744140625E-5,0,0,0,3051339,364146,16766080,16773852,16764843,93544,16753297,23138,Tag0,unknown
1610799076176,200,-354,-7.778320312500001E-5,0,0,0,3051339,364146,16766080,16773852,16764843,93544,16753297,23138,Tag0,unknown
1610799076186,200,-346,-7.6025390625E-5,0,0,0,3051339,364146,16766080,16773852,16764843,93544,16753297,23138,Tag0,unknown
1610799076210,200,-271,-5.95458984375E-5,0,0,0,3051339,364146,16766080,16773852,16764843,93544,16753297,23138,Tag0,unknown
1610799076222,200,-315,-6.92138671875E-5,0,0,0,3051339,364146,16766080,16773852,16764843,93544,16753297,23138,Tag0,unknown
1610799076232,200,-291,-6.39404296875E-5,0,0,0,3051339,364146,16766080,16773852,16764843,93544,16753297,23138,Tag0,unknown
1610799076252,200,37,8.1298828125E-6,0,0,0,3051339,364146,16766080,16773852,16764843,93544,16753297,23138,Tag0,unknown
1610799076269,200,19,4.1748046875E-6,0,0,0,3051339,364146,16766080,16773852,16764843,93544,16753297,23138,Tag0,unknown
1610799076287,200,115,2.52685546875E-5,0,0,0,3051339,364146,16766080,16773852,16764843,93544,16753297,23138,Tag0,unknown
1610799076307,200,107,2.35107421875E-5,0,0,0,3051339,364146,16766080,16773852,16764843,93544,16753297,23138,Tag0,unknown
1610799076317,200,-99,-2.1752929687500003E-5,0,0,0,3051339,364146,16766080,16773852,16764843,93544,16753297,23138,Tag0,unknown
1610799076327,200,-91,-1.99951171875E-5,0,0,0,3051339,364146,16766080,16773852,16764843,93544,16753297,23138,Tag0,unknown
1610799076339,200,-101,-2.2192382812500002E-5,0,0,0,3051339,364146,16766080,16773852,16764843,93544,16753297,23138,Tag0,unknown
1610799076360,200,-52,-1.142578125E-5,0,0,0,3051339,364146,16766080,16773852,16764843,93544,16753297,23138,Tag0,unknown
1610799076372,200,-45,-9.8876953125E-6,0,0,0,3051339,364146,16766080,16773852,16764843,93544,16753297,23138,Tag0,unknown
1610799076382,200,-42,-9.228515625000002E-6,0,0,0,3051339,364146,16766080,16773852,16764843,93544,16753297,23138,Tag0,unknown
1610799076403,200,13,2.8564453125E-6,0,0,0,3051339,364146,16766080,16773852,16764843,93544,16753297,23138,Tag0,unknown
1610799076429,200,-339,-7.448730468750001E-5,0,0,0,3051339,364146,16766080,16773852,16764843,93544,16753297,23138,Tag0,unknown
1610799076439,200,-285,-6.26220703125E-5,0,0,0,3051339,364146,16766080,16773852,16764843,93544,16753297,23138,Tag0,unknown
1610799076453,200,-295,-6.48193359375E-5,0,0,0,3051339,364146,16766080,16773852,16764843,93544,16753297,23138,Tag0,unknown
1610799076471,200,-314,-6.8994140625E-5,0,0,0,3051339,364146,16766080,16773852,16764843,93544,16753297,23138,Tag0,unknown
1610799076488,200,9,1.9775390625E-6,0,0,0,3051339,364146,16766080,16773852,16764843,93544,16753297,23138,Tag0,unknown
1610799076506,200,1,2.197265625E-7,0,0,0,3051339,364146,16766080,16773852,16764843,93544,16753297,23138,Tag0,unknown
1610799076522,200,0,0.0,0,0,0,3051339,364146,16766080,16773852,16764843,93544,16753297,23138,Tag0,unknown
1610799076532,200,118,2.5927734375E-5,0,0,0,3051339,364146,16766080,16773852,16764843,93544,16753297,23138,Tag0,unknown
1610799076543,200,-116,-2.548828125E-5,0,0,0,3051339,364146,16766080,16773852,16764843,93544,16753297,23138,Tag0,unknown
1610799076555,200,-79,-1.7358398437500003E-5,0,0,0,3051339,364146,16766080,16773852,16764843,93544,16753297,23138,Tag0,unknown
1610799076580,200,-85,-1.86767578125E-5,0,0,0,3051339,364146,16766080,16773852,16764843,93544,16753297,23138,Tag0,unknown
1610799076590,200,-79,-1.7358398437500003E-5,0,0,0,3051339,364146,16766080,16773852,16764843,93544,16753297,23138,Tag0,unknown
1610799076603,200,-117,-2.5708007812499998E-5,0,0,0,3051339,364146,16766080,16773852,16764843,93544,16753297,23138,Tag0,unknown
1610799076620,200,-300,-6.591796875E-5,0,0,0,3051339,364146,16766080,16773852,16764843,93544,16753297,23138,Tag0,unknown
1610799076637,200,-276,-6.064453125E-5,0,0,0,3051339,364146,16766080,16773852,16764843,93544,16753297,23138,Tag0,unknown
1610799076659,200,109,2.39501953125E-5,0,0,0,3051339,364146,16766080,16773852,16764843,93544,16753297,23138,Tag0,unknown
1610799076673,200,27,5.9326171875000005E-6,0,0,0,3051339,364146,16766080,16773852,16764843,93544,16753297,23138,Tag0,unknown
1610799076692,200,-280,-6.15234375E-5,0,0,0,3051339,364146,16766080,16773852,16764843,93544,16753297,23138,Tag0,unknown
1610799076702,200,40,8.7890625E-6,0,0,0,3051339,364146,16766080,16773852,16764843,93544,16753297,23138,Tag0,unknown
1610799076712,200,51,1.1206054687499999E-5,0,0,0,3051339,364146,16766080,16773852,16764843,93544,16753297,23138,Tag0,unknown
1610799076731,200,91,1.99951171875E-5,0,0,0,1301288,39673,5339,6164,15000,5735,3769,4733,Tag0,unknown
1610799076765,200,118,2.5927734375E-5,0,0,0,1301288,39673,5339,6164,15000,5735,3769,4733,Tag0,unknown
1610799076791,200,67,1.4721679687500002E-5,0,0,0,1301288,39673,5339,6164,15000,5735,3769,4733,Tag0,unknown
1610799076801,200,12,2.63671875E-6,0,0,0,1301288,39673,5339,6164,15000,5735,3769,4733,Tag0,unknown
1610799076811,200,9,1.9775390625E-6,0,0,0,1301288,39673,5339,6164,15000,5735,3769,4733,Tag0,unknown
1610799076821,200,93,2.04345703125E-5,0,0,0,1301288,39673,5339,6164,15000,5735,3769,4733,Tag0,unknown
1610799076835,200,104,2.28515625E-5,0,0,0,1301288,39673,5339,6164,15000,5735,3769,4733,Tag0,unknown
1610799076854,200,102,2.2412109374999998E-5,0,0,0,1301288,39673,5339,6164,15000,5735,3769,4733,Tag0,unknown
1610799076864,200,-317,-6.96533203125E-5,0,0,0,1301288,39673,5339,6164,15000,5735,3769,4733,Tag0,unknown
1610799076874,200,-257,-5.64697265625E-5,0,0,0,1301288,39673,5339,6164,15000,5735,3769,4733,Tag0,unknown
1610799076889,200,-291,-6.39404296875E-5,0,0,0,1301288,39673,5339,6164,15000,5735,3769,4733,Tag0,unknown
1610799076905,200,87,1.91162109375E-5,0,0,0,1301288,39673,5339,6164,15000,5735,3769,4733,Tag0,unknown
1610799076920,200,87,1.91162109375E-5,0,0,0,1301288,39673,5339,6164,15000,5735,3769,4733,Tag0,unknown
1610799076997,200,69,1.51611328125E-5,0,0,0,1301288,39673,5339,6164,15000,5735,3769,4733,Tag0,unknown
1610799077024,200,71,1.56005859375E-5,0,0,0,1301288,39673,5339,6164,15000,5735,3769,4733,Tag0,unknown
1610799077034,200,73,1.6040039062500002E-5,0,0,0,1301288,39673,5339,6164,15000,5735,3769,4733,Tag0,unknown
1610799077044,200,87,1.91162109375E-5,0,0,0,1301288,39673,5339,6164,15000,5735,3769,4733,Tag0,unknown
1610799077054,200,77,1.69189453125E-5,0,0,0,1301288,39673,5339,6164,15000,5735,3769,4733,Tag0,unknown
1610799077072,200,37,8.1298828125E-6,0,0,0,1301288,39673,5339,6164,15000,5735,3769,4733,Tag0,unknown
1610799077082,200,24,5.2734375E-6,0,0,0,1301288,39673,5339,6164,15000,5735,3769,4733,Tag0,unknown
1610799077114,200,-279,-6.13037109375E-5,0,0,0,1301288,39673,5339,6164,15000,5735,3769,4733,Tag0,unknown
1610799077124,200,-326,-7.163085937500001E-5,0,0,0,1301288,39673,5339,6164,15000,5735,3769,4733,Tag0,unknown
1610799077138,200,-149,-3.27392578125E-5,0,0,0,1301288,39673,5339,6164,15000,5735,3769,4733,Tag0,unknown
1610799077172,200,-363,-7.97607421875E-5,0,0,0,1301288,39673,5339,6164,15000,5735,3769,4733,Tag0,unknown
1610799077190,200,-329,-7.229003906250001E-5,0,0,0,1301288,39673,5339,6164,15000,5735,3769,4733,Tag0,unknown
1610799077200,200,-181,-3.9770507812500004E-5,0,0,0,1301288,39673,5339,6164,15000,5735,3769,4733,Tag0,unknown
1610799077210,200,52,1.142578125E-5,0,0,0,1301288,39673,5339,6164,15000,5735,3769,4733,Tag0,unknown
1610799077224,200,-82,-1.8017578124999998E-5,0,0,0,1301288,39673,5339,6164,15000,5735,3769,4733,Tag0,unknown
1610799077239,200,-25,-5.4931640625E-6,0,0,0,1301288,39673,5339,6164,15000,5735,3769,4733,Tag0,unknown
1610799077249,200,211,4.63623046875E-5,0,0,0,1301288,39673,5339,6164,15000,5735,3769,4733,Tag0,unknown
1610799077263,200,211,4.63623046875E-5,0,0,0,1301288,39673,5339,6164,15000,5735,3769,4733,Tag0,unknown
1610799077273,200,231,5.07568359375E-5,0,0,0,1301288,39673,5339,6164,15000,5735,3769,4733,Tag0,unknown
1610799077298,200,245,5.38330078125E-5,0,0,0,1301288,39673,5339,6164,15000,5735,3769,4733,Tag0,unknown
1610799077308,200,197,4.32861328125E-5,0,0,0,1301288,39673,5339,6164,15000,5735,3769,4733,Tag0,unknown
1610799077322,200,329,7.229003906250001E-5,0,0,0,1301288,39673,5339,6164,15000,5735,3769,4733,Tag0,unknown
1610799077339,200,341,7.492675781250002E-5,0,0,0,1301288,39673,5339,6164,15000,5735,3769,4733,Tag0,unknown
1610799077357,200,259,5.69091796875E-5,0,0,0,1301288,39673,5339,6164,15000,5735,3769,4733,Tag0,unknown
1610799077374,200,-111,-2.43896484375E-5,0,0,0,1301288,39673,5339,6164,15000,5735,3769,4733,Tag0,unknown
1610799077391,200,74,1.6259765625E-5,0,0,0,1301288,39673,5339,6164,15000,5735,3769,4733,Tag0,unknown
1610799077401,200,276,6.064453125E-5,0,0,0,1301288,39673,5339,6164,15000,5735,3769,4733,Tag0,unknown
1610799077411,200,-353,-7.75634765625E-5,0,0,0,1301288,39673,5339,6164,15000,5735,3769,4733,Tag0,unknown
1610799077423,200,-470,-1.03271484375E-4,0,0,0,1301288,39673,5339,6164,15000,5735,3769,4733,Tag0,unknown
1610799077440,200,-584,-1.2832031250000002E-4,0,0,0,1301288,39673,5339,6164,15000,5735,3769,4733,Tag0,unknown
1610799077456,200,-548,-1.2041015624999999E-4,0,0,0,1301288,39673,5339,6164,15000,5735,3769,4733,Tag0,unknown
1610799077466,200,-108,-2.3730468750000002E-5,0,0,0,1301288,39673,5339,6164,15000,5735,3769,4733,Tag0,unknown
1610799077476,200,-286,-6.2841796875E-5,0,0,0,1301288,39673,5339,6164,15000,5735,3769,4733,Tag0,unknown
1610799077487,200,-310,-6.8115234375E-5,0,0,0,1301288,39673,5339,6164,15000,5735,3769,4733,Tag0,unknown
1610799077508,200,-273,-5.998535156250001E-5,0,0,0,1301288,39673,5339,6164,15000,5735,3769,4733,Tag0,unknown
1610799077525,200,-297,-6.525878906250001E-5,0,0,0,1301288,39673,5339,6164,15000,5735,3769,4733,Tag0,unknown
1610799077538,200,-275,-6.04248046875E-5,0,0,0,1301288,39673,5339,6164,15000,5735,3769,4733,Tag0,unknown
1610799077555,200,-201,-4.41650390625E-5,0,0,0,1301288,39673,5339,6164,15000,5735,3769,4733,Tag0,unknown
1610799077572,200,-193,-4.2407226562500005E-5,0,0,0,1301288,39673,5339,6164,15000,5735,3769,4733,Tag0,unknown
1610799077592,200,-289,-6.35009765625E-5,0,0,0,1301288,39673,5339,6164,15000,5735,3769,4733,Tag0,unknown
1610799077607,200,-308,-6.767578125E-5,0,0,0,1301288,39673,5339,6164,15000,5735,3769,4733,Tag0,unknown
1610799077617,200,58,1.2744140625E-5,0,0,0,1301288,39673,5339,6164,15000,5735,3769,4733,Tag0,unknown
1610799077627,200,-321,-7.053222656250001E-5,0,0,0,1301288,39673,5339,6164,15000,5735,3769,4733,Tag0,unknown
1610799077640,200,-153,-3.3618164062500004E-5,0,0,0,1301288,39673,5339,6164,15000,5735,3769,4733,Tag0,unknown
1610799077661,200,-550,-1.20849609375E-4,0,0,0,1301288,39673,5339,6164,15000,5735,3769,4733,Tag0,unknown
1610799077675,200,-553,-1.215087890625E-4,0,0,0,1301288,39673,5339,6164,15000,5735,3769,4733,Tag0,unknown
1610799077685,200,-494,-1.08544921875E-4,0,0,0,1301288,39673,5339,6164,15000,5735,3769,4733,Tag0,unknown
1610799077699,200,-488,-1.072265625E-4,0,0,0,1301288,39673,5339,6164,15000,5735,3769,4733,Tag0,unknown
1610799077725,200,-459,-1.008544921875E-4,0,0,0,771533,99266,12841,22928,16747865,26881,11003,3043,Tag0,unknown
1610799077739,200,-282,-6.1962890625E-5,0,0,0,771533,99266,12841,22928,16747865,26881,11003,3043,Tag0,unknown
1610799077755,200,-80,-1.7578125E-5,0,0,0,771533,99266,12841,22928,16747865,26881,11003,3043,Tag0,unknown
1610799077773,200,437,9.602050781250001E-5,0,0,0,771533,99266,12841,22928,16747865,26881,11003,3043,Tag0,unknown
1610799077794,200,769,1.689697265625E-4,0,0,0,771533,99266,12841,22928,16747865,26881,11003,3043,Tag0,unknown
1610799077804,200,754,1.65673828125E-4,0,0,0,771533,99266,12841,22928,16747865,26881,11003,3043,Tag0,unknown
1610799077817,200,724,1.5908203125000002E-4,0,0,0,771533,99266,12841,22928,16747865,26881,11003,3043,Tag0,unknown
1610799077827,200,448,9.84375E-5,0,0,0,771533,99266,12841,22928,16747865,26881,11003,3043,Tag0,unknown
1610799077859,200,632,1.3886718750000002E-4,0,0,0,771533,99266,12841,22928,16747865,26881,11003,3043,Tag0,unknown
1610799077874,200,630,1.38427734375E-4,0,0,0,771533,99266,12841,22928,16747865,26881,11003,3043,Tag0,unknown
1610799077884,200,-145,-3.18603515625E-5,0,0,0,771533,99266,12841,22928,16747865,26881,11003,3043,Tag0,unknown
1610799077894,200,-219,-4.81201171875E-5,0,0,0,771533,99266,12841,22928,16747865,26881,11003,3043,Tag0,unknown
1610799077907,200,-236,-5.185546875E-5,0,0,0,771533,99266,12841,22928,16747865,26881,11003,3043,Tag0,unknown
1610799077917,200,-51,-1.1206054687499999E-5,0,0,0,771533,99266,12841,22928,16747865,26881,11003,3043,Tag0,unknown
1610799077933,200,128,2.8125E-5,0,0,0,771533,99266,12841,22928,16747865,26881,11003,3043,Tag0,unknown
1610799077970,200,331,7.272949218750001E-5,0,0,0,771533,99266,12841,22928,16747865,26881,11003,3043,Tag0,unknown
1610799077992,200,321,7.053222656250001E-5,0,0,0,771533,99266,12841,22928,16747865,26881,11003,3043,Tag0,unknown
1610799078002,200,305,6.70166015625E-5,0,0,0,771533,99266,12841,22928,16747865,26881,11003,3043,Tag0,unknown
1610799078012,200,-75,-1.64794921875E-5,0,0,0,771533,99266,12841,22928,16747865,26881,11003,3043,Tag0,unknown
1610799078025,200,-22,-4.833984375E-6,0,0,0,771533,99266,12841,22928,16747865,26881,11003,3043,Tag0,unknown
1610799078045,200,-373,-8.19580078125E-5,0,0,0,771533,99266,12841,22928,16747865,26881,11003,3043,Tag0,unknown
1610799078058,200,-295,-6.48193359375E-5,0,0,0,771533,99266,12841,22928,16747865,26881,11003,3043,Tag0,unknown
1610799078068,200,323,7.09716796875E-5,0,0,0,771533,99266,12841,22928,16747865,26881,11003,3043,Tag0,unknown
1610799078081,200,-337,-7.40478515625E-5,0,0,0,771533,99266,12841,22928,16747865,26881,11003,3043,Tag0,unknown
1610799078091,200,-146,-3.2080078125000004E-5,0,0,0,771533,99266,12841,22928,16747865,26881,11003,3043,Tag0,unknown
1610799078115,200,-738,-1.62158203125E-4,0,0,0,771533,99266,12841,22928,16747865,26881,11003,3043,Tag0,unknown
1610799078125,200,-906,-1.99072265625E-4,0,0,0,771533,99266,12841,22928,16747865,26881,11003,3043,Tag0,unknown
1610799078152,200,-582,-1.27880859375E-4,0,0,0,771533,99266,12841,22928,16747865,26881,11003,3043,Tag0,unknown
1610799078162,200,-130,-2.8564453125E-5,0,0,0,771533,99266,12841,22928,16747865,26881,11003,3043,Tag0,unknown
1610799078176,200,-547,-1.201904296875E-4,0,0,0,771533,99266,12841,22928,16747865,26881,11003,3043,Tag0,unknown
1610799078192,200,-235,-5.16357421875E-5,0,0,0,771533,99266,12841,22928,16747865,26881,11003,3043,Tag0,unknown
1610799078202,200,-627,-1.377685546875E-4,0,0,0,771533,99266,12841,22928,16747865,26881,11003,3043,Tag0,unknown
1610799078215,200,-637,-1.399658203125E-4,0,0,0,771533,99266,12841,22928,16747865,26881,11003,3043,Tag0,unknown
1610799078235,200,-374,-8.2177734375E-5,0,0,0,771533,99266,12841,22928,16747865,26881,11003,3043,Tag0,unknown
1610799078245,200,-181,-3.9770507812500004E-5,0,0,0,771533,99266,12841,22928,16747865,26881,11003,3043,Tag0,unknown
1610799078260,200,-127,-2.79052734375E-5,0,0,0,771533,99266,12841,22928,16747865,26881,11003,3043,Tag0,unknown
1610799078273,200,362,7.954101562500001E-5,0,0,0,771533,99266,12841,22928,16747865,26881,11003,3043,Tag0,unknown
1610799078290,200,362,7.954101562500001E-5,0,0,0,771533,99266,12841,22928,16747865,26881,11003,3043,Tag0,unknown
1610799078307,200,345,7.58056640625E-5,0,0,0,771533,99266,12841,22928,16747865,26881,11003,3043,Tag0,unknown
1610799078323,200,363,7.97607421875E-5,0,0,0,771533,99266,12841,22928,16747865,26881,11003,3043,Tag0,unknown
1610799078346,200,217,4.76806640625E-5,0,0,0,771533,99266,12841,22928,16747865,26881,11003,3043,Tag0,unknown
1610799078358,200,231,5.07568359375E-5,0,0,0,771533,99266,12841,22928,16747865,26881,11003,3043,Tag0,unknown
1610799078380,200,187,4.10888671875E-5,0,0,0,771533,99266,12841,22928,16747865,26881,11003,3043,Tag0,unknown
1610799078391,200,171,3.75732421875E-5,0,0,0,771533,99266,12841,22928,16747865,26881,11003,3043,Tag0,unknown
1610799078401,200,146,3.2080078125000004E-5,0,0,0,771533,99266,12841,22928,16747865,26881,11003,3043,Tag0,unknown
1610799078420,200,316,6.943359375000001E-5,0,0,0,771533,99266,12841,22928,16747865,26881,11003,3043,Tag0,unknown
1610799078439,200,323,7.09716796875E-5,0,0,0,771533,99266,12841,22928,16747865,26881,11003,3043,Tag0,unknown
1610799078457,200,283,6.218261718750001E-5,0,0,0,771533,99266,12841,22928,16747865,26881,11003,3043,Tag0,unknown
1610799078474,200,-187,-4.10888671875E-5,0,0,0,771533,99266,12841,22928,16747865,26881,11003,3043,Tag0,unknown
1610799078492,200,-193,-4.2407226562500005E-5,0,0,0,771533,99266,12841,22928,16747865,26881,11003,3043,Tag0,unknown
1610799078508,200,-210,-4.6142578125E-5,0,0,0,771533,99266,12841,22928,16747865,26881,11003,3043,Tag0,unknown
1610799078526,200,-578,-1.27001953125E-4,0,0,0,771533,99266,12841,22928,16747865,26881,11003,3043,Tag0,unknown
1610799078541,200,-533,-1.171142578125E-4,0,0,0,771533,99266,12841,22928,16747865,26881,11003,3043,Tag0,unknown
1610799078551,200,-601,-1.3205566406249998E-4,0,0,0,771533,99266,12841,22928,16747865,26881,11003,3043,Tag0,unknown
1610799078565,200,-629,-1.382080078125E-4,0,0,0,771533,99266,12841,22928,16747865,26881,11003,3043,Tag0,unknown
1610799078577,200,-434,-9.5361328125E-5,0,0,0,771533,99266,12841,22928,16747865,26881,11003,3043,Tag0,unknown
1610799078599,200,-677,-1.4875488281250002E-4,0,0,0,771533,99266,12841,22928,16747865,26881,11003,3043,Tag0,unknown
1610799078609,200,-643,-1.412841796875E-4,0,0,0,771533,99266,12841,22928,16747865,26881,11003,3043,Tag0,unknown
1610799078624,200,-931,-2.045654296875E-4,0,0,0,771533,99266,12841,22928,16747865,26881,11003,3043,Tag0,unknown
1610799078641,200,-731,-1.6062011718749998E-4,0,0,0,771533,99266,12841,22928,16747865,26881,11003,3043,Tag0,unknown
1610799078659,200,-805,-1.768798828125E-4,0,0,0,771533,99266,12841,22928,16747865,26881,11003,3043,Tag0,unknown
1610799078676,200,65,1.42822265625E-5,0,0,0,771533,99266,12841,22928,16747865,26881,11003,3043,Tag0,unknown
1610799078693,200,-93,-2.04345703125E-5,0,0,0,771533,99266,12841,22928,16747865,26881,11003,3043,Tag0,unknown
1610799078703,200,505,1.109619140625E-4,0,0,0,771533,99266,12841,22928,16747865,26881,11003,3043,Tag0,unknown
1610799078717,200,1095,2.406005859375E-4,0,0,0,923986,68146,16752067,11539,12525,8841,2939,3574,Tag0,unknown
1610799078730,200,1085,2.384033203125E-4,0,0,0,923986,68146,16752067,11539,12525,8841,2939,3574,Tag0,unknown
1610799078741,200,1094,2.40380859375E-4,0,0,0,923986,68146,16752067,11539,12525,8841,2939,3574,Tag0,unknown
1610799078763,200,435,9.55810546875E-5,0,0,0,923986,68146,16752067,11539,12525,8841,2939,3574,Tag0,unknown
1610799078774,200,425,9.33837890625E-5,0,0,0,923986,68146,16752067,11539,12525,8841,2939,3574,Tag0,unknown
1610799078800,200,381,8.371582031250001E-5,0,0,0,923986,68146,16752067,11539,12525,8841,2939,3574,Tag0,unknown
1610799078813,200,339,7.448730468750001E-5,0,0,0,923986,68146,16752067,11539,12525,8841,2939,3574,Tag0,unknown
1610799078825,200,-43,-9.448242187500001E-6,0,0,0,923986,68146,16752067,11539,12525,8841,2939,3574,Tag0,unknown
1610799078845,200,-83,-1.82373046875E-5,0,0,0,923986,68146,16752067,11539,12525,8841,2939,3574,Tag0,unknown
1610799078860,200,123,2.70263671875E-5,0,0,0,923986,68146,16752067,11539,12525,8841,2939,3574,Tag0,unknown
1610799078875,200,13,2.8564453125E-6,0,0,0,923986,68146,16752067,11539,12525,8841,2939,3574,Tag0,unknown
1610799078891,200,97,2.13134765625E-5,0,0,0,923986,68146,16752067,11539,12525,8841,2939,3574,Tag0,unknown
1610799078908,200,53,1.1645507812500002E-5,0,0,0,923986,68146,16752067,11539,12525,8841,2939,3574,Tag0,unknown
1610799078924,200,-299,-6.56982421875E-5,0,0,0,923986,68146,16752067,11539,12525,8841,2939,3574,Tag0,unknown
1610799078945,200,70,1.5380859375E-5,0,0,0,923986,68146,16752067,11539,12525,8841,2939,3574,Tag0,unknown
1610799078959,200,71,1.56005859375E-5,0,0,0,923986,68146,16752067,11539,12525,8841,2939,3574,Tag0,unknown
1610799078984,200,-349,-7.668457031250001E-5,0,0,0,923986,68146,16752067,11539,12525,8841,2939,3574,Tag0,unknown
1610799078994,200,-363,-7.97607421875E-5,0,0,0,923986,68146,16752067,11539,12525,8841,2939,3574,Tag0,unknown
1610799079017,200,-229,-5.03173828125E-5,0,0,0,923986,68146,16752067,11539,12525,8841,2939,3574,Tag0,unknown
1610799079028,200,-196,-4.306640625E-5,0,0,0,923986,68146,16752067,11539,12525,8841,2939,3574,Tag0,unknown
1610799079042,200,-312,-6.85546875E-5,0,0,0,923986,68146,16752067,11539,12525,8841,2939,3574,Tag0,unknown
1610799079058,200,-323,-7.09716796875E-5,0,0,0,923986,68146,16752067,11539,12525,8841,2939,3574,Tag0,unknown
1610799079075,200,-331,-7.272949218750001E-5,0,0,0,923986,68146,16752067,11539,12525,8841,2939,3574,Tag0,unknown
1610799079093,200,-338,-7.426757812499999E-5,0,0,0,923986,68146,16752067,11539,12525,8841,2939,3574,Tag0,unknown
1610799079109,200,-297,-6.525878906250001E-5,0,0,0,923986,68146,16752067,11539,12525,8841,2939,3574,Tag0,unknown
1610799079138,200,-126,-2.7685546875E-5,0,0,0,923986,68146,16752067,11539,12525,8841,2939,3574,Tag0,unknown
1610799079148,200,259,5.69091796875E-5,0,0,0,923986,68146,16752067,11539,12525,8841,2939,3574,Tag0,unknown
1610799079163,200,257,5.64697265625E-5,0,0,0,923986,68146,16752067,11539,12525,8841,2939,3574,Tag0,unknown
1610799079180,200,325,7.14111328125E-5,0,0,0,923986,68146,16752067,11539,12525,8841,2939,3574,Tag0,unknown
1610799079192,200,289,6.35009765625E-5,0,0,0,923986,68146,16752067,11539,12525,8841,2939,3574,Tag0,unknown
1610799079213,200,83,1.82373046875E-5,0,0,0,923986,68146,16752067,11539,12525,8841,2939,3574,Tag0,unknown
1610799079225,200,83,1.82373046875E-5,0,0,0,923986,68146,16752067,11539,12525,8841,2939,3574,Tag0,unknown
1610799079248,200,65,1.42822265625E-5,0,0,0,923986,68146,16752067,11539,12525,8841,2939,3574,Tag0,unknown
1610799079265,200,33,7.2509765625E-6,0,0,0,923986,68146,16752067,11539,12525,8841,2939,3574,Tag0,unknown
1610799079275,200,7,1.5380859375E-6,0,0,0,923986,68146,16752067,11539,12525,8841,2939,3574,Tag0,unknown
1610799079285,200,-259,-5.69091796875E-5,0,0,0,923986,68146,16752067,11539,12525,8841,2939,3574,Tag0,unknown
1610799079295,200,-264,-5.80078125E-5,0,0,0,923986,68146,16752067,11539,12525,8841,2939,3574,Tag0,unknown
1610799079305,200,-290,-6.3720703125E-5,0,0,0,923986,68146,16752067,11539,12525,8841,2939,3574,Tag0,unknown
1610799079323,200,-314,-6.8994140625E-5,0,0,0,923986,68146,16752067,11539,12525,8841,2939,3574,Tag0,unknown
1610799079344,200,-337,-7.40478515625E-5,0,0,0,923986,68146,16752067,11539,12525,8841,2939,3574,Tag0,unknown
1610799079354,200,25,5.4931640625E-6,0,0,0,923986,68146,16752067,11539,12525,8841,2939,3574,Tag0,unknown
1610799079364,200,49,1.07666015625E-5,0,0,0,923986,68146,16752067,11539,12525,8841,2939,3574,Tag0,unknown
1610799079375,200,20,4.39453125E-6,0,0,0,923986,68146,16752067,11539,12525,8841,2939,3574,Tag0,unknown
1610799079392,200,11,2.4169921875E-6,0,0,0,923986,68146,16752067,11539,12525,8841,2939,3574,Tag0,unknown
1610799079409,200,0,0.0,0,0,0,923986,68146,16752067,11539,12525,8841,2939,3574,Tag0,unknown
1610799079434,200,-262,-5.7568359375E-5,0,0,0,923986,68146,16752067,11539,12525,8841,2939,3574,Tag0,unknown
1610799079445,200,-261,-5.73486328125E-5,0,0,0,923986,68146,16752067,11539,12525,8841,2939,3574,Tag0,unknown
1610799079455,200,11,2.4169921875E-6,0,0,0,923986,68146,16752067,11539,12525,8841,2939,3574,Tag0,unknown
1610799079469,200,3,6.591796875E-7,0,0,0,923986,68146,16752067,11539,12525,8841,2939,3574,Tag0,unknown
1610799079481,200,41,9.008789062499999E-6,0,0,0,923986,68146,16752067,11539,12525,8841,2939,3574,Tag0,unknown
1610799079491,200,-123,-2.70263671875E-5,0,0,0,923986,68146,16752067,11539,12525,8841,2939,3574,Tag0,unknown
1610799079501,200,51,1.1206054687499999E-5,0,0,0,923986,68146,16752067,11539,12525,8841,2939,3574,Tag0,unknown
1610799079513,200,12,2.63671875E-6,0,0,0,923986,68146,16752067,11539,12525,8841,2939,3574,Tag0,unknown
1610799079529,200,33,7.2509765625E-6,0,0,0,923986,68146,16752067,11539,12525,8841,2939,3574,Tag0,unknown
1610799079546,200,61,1.34033203125E-5,0,0,0,923986,68146,16752067,11539,12525,8841,2939,3574,Tag0,unknown
1610799079561,200,73,1.6040039062500002E-5,0,0,0,923986,68146,16752067,11539,12525,8841,2939,3574,Tag0,unknown
1610799079579,200,-7,-1.5380859375E-6,0,0,0,923986,68146,16752067,11539,12525,8841,2939,3574,Tag0,unknown
1610799079593,200,-28,-6.15234375E-6,0,0,0,923986,68146,16752067,11539,12525,8841,2939,3574,Tag0,unknown
1610799079613,200,-105,-2.30712890625E-5,0,0,0,923986,68146,16752067,11539,12525,8841,2939,3574,Tag0,unknown
1610799079629,200,-87,-1.91162109375E-5,0,0,0,923986,68146,16752067,11539,12525,8841,2939,3574,Tag0,unknown
1610799079639,200,67,1.4721679687500002E-5,0,0,0,923986,68146,16752067,11539,12525,8841,2939,3574,Tag0,unknown
1610799079652,200,11,2.4169921875E-6,0,0,0,923986,68146,16752067,11539,12525,8841,2939,3574,Tag0,unknown
1610799079662,200,72,1.58203125E-5,0,0,0,923986,68146,16752067,11539,12525,8841,2939,3574,Tag0,unknown
1610799079685,200,-293,-6.43798828125E-5,0,0,0,923986,68146,16752067,11539,12525,8841,2939,3574,Tag0,unknown
1610799079695,200,-299,-6.56982421875E-5,0,0,0,923986,68146,16752067,11539,12525,8841,2939,3574,Tag0,unknown
1610799079713,200,-314,-6.8994140625E-5,0,0,0,534973,26754,4988,5410,2769,928,522,556,Tag0,unknown
1610799079726,200,73,1.6040039062500002E-5,0,0,0,534973,26754,4988,5410,2769,928,522,556,Tag0,unknown
1610799079744,200,57,1.2524414062500001E-5,0,0,0,534973,26754,4988,5410,2769,928,522,556,Tag0,unknown
1610799079761,200,-85,-1.86767578125E-5,0,0,0,534973,26754,4988,5410,2769,928,522,556,Tag0,unknown
1610799079778,200,-89,-1.95556640625E-5,0,0,0,534973,26754,4988,5410,2769,928,522,556,Tag0,unknown
1610799079797,200,-63,-1.38427734375E-5,0,0,0,534973,26754,4988,5410,2769,928,522,556,Tag0,unknown
1610799079813,200,-103,-2.26318359375E-5,0,0,0,534973,26754,4988,5410,2769,928,522,556,Tag0,unknown
1610799079831,200,-63,-1.38427734375E-5,0,0,0,534973,26754,4988,5410,2769,928,522,556,Tag0,unknown
1610799079841,200,113,2.48291015625E-5,0,0,0,534973,26754,4988,5410,2769,928,522,556,Tag0,unknown
1610799079851,200,-67,-1.4721679687500002E-5,0,0,0,534973,26754,4988,5410,2769,928,522,556,Tag0,unknown
1610799079865,200,-85,-1.86767578125E-5,0,0,0,534973,26754,4988,5410,2769,928,522,556,Tag0,unknown
1610799079894,200,-295,-6.48193359375E-5,0,0,0,534973,26754,4988,5410,2769,928,522,556,Tag0,unknown
1610799079911,200,-267,-5.86669921875E-5,0,0,0,534973,26754,4988,5410,2769,928,522,556,Tag0,unknown
1610799079927,200,-358,-7.8662109375E-5,0,0,0,534973,26754,4988,5410,2769,928,522,556,Tag0,unknown
1610799079944,200,-378,-8.3056640625E-5,0,0,0,534973,26754,4988,5410,2769,928,522,556,Tag0,unknown
1610799079963,200,-358,-7.8662109375E-5,0,0,0,534973,26754,4988,5410,2769,928,522,556,Tag0,unknown
1610799079979,200,-166,-3.6474609375E-5,0,0,0,534973,26754,4988,5410,2769,928,522,556,Tag0,unknown
1610799079994,200,-141,-3.09814453125E-5,0,0,0,534973,26754,4988,5410,2769,928,522,556,Tag0,unknown
1610799080004,200,-285,-6.26220703125E-5,0,0,0,534973,26754,4988,5410,2769,928,522,556,Tag0,unknown
1610799080027,200,61,1.34033203125E-5,0,0,0,534973,26754,4988,5410,2769,928,522,556,Tag0,unknown
1610799080043,200,-277,-6.0864257812500005E-5,0,0,0,534973,26754,4988,5410,2769,928,522,556,Tag0,unknown
1610799080060,200,5,1.0986328125E-6,0,0,0,534973,26754,4988,5410,2769,928,522,556,Tag0,unknown
1610799080080,200,41,9.008789062499999E-6,0,0,0,534973,26754,4988,5410,2769,928,522,556,Tag0,unknown
1610799080094,200,22,4.833984375E-6,0,0,0,534973,26754,4988,5410,2769,928,522,556,Tag0,unknown
1610799080115,200,24,5.2734375E-6,0,0,0,534973,26754,4988,5410,2769,928,522,556,Tag0,unknown
1610799080129,200,19,4.1748046875E-6,0,0,0,534973,26754,4988,5410,2769,928,522,556,Tag0,unknown
1610799080140,200,-109,-2.39501953125E-5,0,0,0,534973,26754,4988,5410,2769,928,522,556,Tag0,unknown
1610799080156,200,-95,-2.08740234375E-5,0,0,0,534973,26754,4988,5410,2769,928,522,556,Tag0,unknown
1610799080166,200,-101,-2.2192382812500002E-5,0,0,0,534973,26754,4988,5410,2769,928,522,556,Tag0,unknown
1610799080190,200,290,6.3720703125E-5,0,0,0,534973,26754,4988,5410,2769,928,522,556,Tag0,unknown
1610799080200,200,258,5.6689453125000004E-5,0,0,0,534973,26754,4988,5410,2769,928,522,556,Tag0,unknown
1610799080212,200,322,7.0751953125E-5,0,0,0,534973,26754,4988,5410,2769,928,522,556,Tag0,unknown
1610799080236,200,-86,-1.8896484375000003E-5,0,0,0,534973,26754,4988,5410,2769,928,522,556,Tag0,unknown
1610799080246,200,-333,-7.316894531249999E-5,0,0,0,534973,26754,4988,5410,2769,928,522,556,Tag0,unknown
1610799080261,200,-259,-5.69091796875E-5,0,0,0,534973,26754,4988,5410,2769,928,522,556,Tag0,unknown
1610799080279,200,-275,-6.04248046875E-5,0,0,0,534973,26754,4988,5410,2769,928,522,556,Tag0,unknown
1610799080295,200,17,3.7353515625000003E-6,0,0,0,534973,26754,4988,5410,2769,928,522,556,Tag0,unknown
1610799080305,200,343,7.53662109375E-5,0,0,0,534973,26754,4988,5410,2769,928,522,556,Tag0,unknown
1610799080318,200,197,4.32861328125E-5,0,0,0,534973,26754,4988,5410,2769,928,522,556,Tag0,unknown
1610799080330,200,160,3.515625E-5,0,0,0,534973,26754,4988,5410,2769,928,522,556,Tag0,unknown
1610799080347,200,563,1.237060546875E-4,0,0,0,534973,26754,4988,5410,2769,928,522,556,Tag0,unknown
1610799080357,200,52,1.142578125E-5,0,0,0,534973,26754,4988,5410,2769,928,522,556,Tag0,unknown
1610799080469,200,-329,-7.229003906250001E-5,0,0,0,534973,26754,4988,5410,2769,928,522,556,Tag0,unknown
1610799080482,200,-183,-4.02099609375E-5,0,0,0,534973,26754,4988,5410,2769,928,522,556,Tag0,unknown
1610799080492,200,-614,-1.34912109375E-4,0,0,0,534973,26754,4988,5410,2769,928,522,556,Tag0,unknown
1610799080502,200,3,6.591796875E-7,0,0,0,534973,26754,4988,5410,2769,928,522,556,Tag0,unknown
1610799080605,200,107,2.35107421875E-5,0,0,0,534973,26754,4988,5410,2769,928,522,556,Tag0,unknown
1610799080615,200,-265,-5.82275390625E-5,0,0,0,534973,26754,4988,5410,2769,928,522,556,Tag0,unknown
1610799080631,200,256,5.625E-5,0,0,0,534973,26754,4988,5410,2769,928,522,556,Tag0,unknown
1610799080675,200,-541,-1.1887207031250001E-4,0,0,0,534973,26754,4988,5410,2769,928,522,556,Tag0,unknown
1610799080695,200,-385,-8.45947265625E-5,0,0,0,534973,26754,4988,5410,2769,928,522,556,Tag0,unknown
1610799080745,200,-696,-1.529296875E-4,0,0,0,534973,26754,4988,5410,2769,928,522,556,Tag0,unknown
1610799080765,200,-887,-1.9489746093750003E-4,0,0,0,534973,26754,4988,5410,2769,928,522,556,Tag0,unknown
1610799080811,200,-74,-1.6259765625E-5,0,0,0,534973,26754,4988,5410,2769,928,522,556,Tag0,unknown
1610799080829,200,-54,-1.1865234375000001E-5,0,0,0,534973,26754,4988,5410,2769,928,522,556,Tag0,unknown
1610799080880,200,-443,-9.73388671875E-5,0,0,0,534973,26754,4988,5410,2769,928,522,556,Tag0,unknown
1610799080899,200,-488,-1.072265625E-4,0,0,0,534973,26754,4988,5410,2769,928,522,556,Tag0,unknown
1610799080909,200,-232,-5.09765625E-5,0,0,0,534973,26754,4988,5410,2769,928,522,556,Tag0,unknown
1610799080919,200,-343,-7.53662109375E-5,0,0,0,534973,26754,4988,5410,2769,928,522,556,Tag0,unknown
1610799080930,200,118,2.5927734375E-5,0,0,0,534973,26754,4988,5410,2769,928,522,556,Tag0,unknown
1610799080940,200,-123,-2.70263671875E-5,0,0,0,534973,26754,4988,5410,2769,928,522,556,Tag0,unknown
1610799080950,200,-86,-1.8896484375000003E-5,0,0,0,534973,26754,4988,5410,2769,928,522,556,Tag0,unknown
1610799080960,200,-151,-3.31787109375E-5,0,0,0,534973,26754,4988,5410,2769,928,522,556,Tag0,unknown
1610799080970,200,22,4.833984375E-6,0,0,0,534973,26754,4988,5410,2769,928,522,556,Tag0,unknown
1610799080994,200,6,1.318359375E-6,0,0,0,534973,26754,4988,5410,2769,928,522,556,Tag0,unknown
1610799081024,200,277,6.0864257812500005E-5,0,0,0,534973,26754,4988,5410,2769,928,522,556,Tag0,unknown
1610799081034,200,265,5.82275390625E-5,0,0,0,534973,26754,4988,5410,2769,928,522,556,Tag0,unknown
1610799081060,200,-121,-2.6586914062500003E-5,0,0,0,534973,26754,4988,5410,2769,928,522,556,Tag0,unknown
1610799081070,200,123,2.70263671875E-5,0,0,0,534973,26754,4988,5410,2769,928,522,556,Tag0,unknown
1610799081081,200,-15,-3.2958984375E-6,0,0,0,534973,26754,4988,5410,2769,928,522,556,Tag0,unknown
1610799081102,200,23,5.0537109375E-6,0,0,0,534973,26754,4988,5410,2769,928,522,556,Tag0,unknown
1610799081114,200,-278,-6.108398437500001E-5,0,0,0,534973,26754,4988,5410,2769,928,522,556,Tag0,unknown
1610799081135,200,24,5.2734375E-6,0,0,0,534973,26754,4988,5410,2769,928,522,556,Tag0,unknown
1610799081149,200,29,6.3720703125E-6,0,0,0,534973,26754,4988,5410,2769,928,522,556,Tag0,unknown
1610799081159,200,-362,-7.954101562500001E-5,0,0,0,534973,26754,4988,5410,2769,928,522,556,Tag0,unknown
1610799081169,200,21,4.614257812500001E-6,0,0,0,534973,26754,4988,5410,2769,928,522,556,Tag0,unknown
1610799081181,200,-289,-6.35009765625E-5,0,0,0,534973,26754,4988,5410,2769,928,522,556,Tag0,unknown
1610799081196,200,16,3.515625E-6,0,0,0,534973,26754,4988,5410,2769,928,522,556,Tag0,unknown
1610799081233,200,600,1.318359375E-4,0,0,0,534973,26754,4988,5410,2769,928,522,556,Tag0,unknown
1610799081252,200,387,8.50341796875E-5,0,0,0,534973,26754,4988,5410,2769,928,522,556,Tag0,unknown
1610799081262,200,87,1.91162109375E-5,0,0,0,534973,26754,4988,5410,2769,928,522,556,Tag0,unknown
1610799081273,200,-133,-2.92236328125E-5,0,0,0,534973,26754,4988,5410,2769,928,522,556,Tag0,unknown
1610799081283,200,-372,-8.173828125E-5,0,0,0,534973,26754,4988,5410,2769,928,522,556,Tag0,unknown
1610799081305,200,-309,-6.78955078125E-5,0,0,0,534973,26754,4988,5410,2769,928,522,556,Tag0,unknown
1610799081316,200,-369,-8.10791015625E-5,0,0,0,534973,26754,4988,5410,2769,928,522,556,Tag0,unknown
1610799081326,200,-573,-1.259033203125E-4,0,0,0,534973,26754,4988,5410,2769,928,522,556,Tag0,unknown
1610799081348,200,-616,-1.353515625E-4,0,0,0,534973,26754,4988,5410,2769,928,522,556,Tag0,unknown
1610799081376,200,-698,-1.5336914062500002E-4,0,0,0,534973,26754,4988,5410,2769,928,522,556,Tag0,unknown
1610799081398,200,-618,-1.35791015625E-4,0,0,0,534973,26754,4988,5410,2769,928,522,556,Tag0,unknown
1610799081408,200,-244,-5.361328125E-5,0,0,0,534973,26754,4988,5410,2769,928,522,556,Tag0,unknown
1610799081420,200,52,1.142578125E-5,0,0,0,534973,26754,4988,5410,2769,928,522,556,Tag0,unknown
1610799081434,200,-298,-6.5478515625E-5,0,0,0,534973,26754,4988,5410,2769,928,522,556,Tag0,unknown
1610799081452,200,352,7.734375E-5,0,0,0,534973,26754,4988,5410,2769,928,522,556,Tag0,unknown
1610799081467,200,201,4.41650390625E-5,0,0,0,534973,26754,4988,5410,2769,928,522,556,Tag0,unknown
1610799081477,200,413,9.07470703125E-5,0,0,0,534973,26754,4988,5410,2769,928,522,556,Tag0,unknown
1610799081491,200,163,3.5815429687500006E-5,0,0,0,534973,26754,4988,5410,2769,928,522,556,Tag0,unknown
1610799081501,200,346,7.6025390625E-5,0,0,0,534973,26754,4988,5410,2769,928,522,556,Tag0,unknown
1610799081524,200,196,4.306640625E-5,0,0,0,534973,26754,4988,5410,2769,928,522,556,Tag0,unknown
1610799081534,200,324,7.119140625E-5,0,0,0,534973,26754,4988,5410,2769,928,522,556,Tag0,unknown
1610799081550,200,-67,-1.4721679687500002E-5,0,0,0,534973,26754,4988,5410,2769,928,522,556,Tag0,unknown
1610799081565,200,183,4.02099609375E-5,0,0,0,534973,26754,4988,5410,2769,928,522,556,Tag0,unknown
1610799081581,200,-87,-1.91162109375E-5,0,0,0,534973,26754,4988,5410,2769,928,522,556,Tag0,unknown
1610799081598,200,105,2.30712890625E-5,0,0,0,534973,26754,4988,5410,2769,928,522,556,Tag0,unknown
1610799081615,200,109,2.39501953125E-5,0,0,0,534973,26754,4988,5410,2769,928,522,556,Tag0,unknown
1610799081634,200,97,2.13134765625E-5,0,0,0,534973,26754,4988,5410,2769,928,522,556,Tag0,unknown
1610799081650,200,-110,-2.4169921875E-5,0,0,0,534973,26754,4988,5410,2769,928,522,556,Tag0,unknown
1610799081670,200,-162,-3.5595703125E-5,0,0,0,534973,26754,4988,5410,2769,928,522,556,Tag0,unknown
1610799081683,200,-169,-3.7133789062499996E-5,0,0,0,534973,26754,4988,5410,2769,928,522,556,Tag0,unknown
1610799081693,200,-221,-4.85595703125E-5,0,0,0,1202823,77743,10075,5042,10993,4308,2026,4192,Tag0,unknown
1610799081707,200,-365,-8.02001953125E-5,0,0,0,1202823,77743,10075,5042,10993,4308,2026,4192,Tag0,unknown
1610799081731,200,-145,-3.18603515625E-5,0,0,0,1202823,77743,10075,5042,10993,4308,2026,4192,Tag0,unknown
1610799081747,200,-134,-2.9443359375000003E-5,0,0,0,1202823,77743,10075,5042,10993,4308,2026,4192,Tag0,unknown
1610799081772,200,201,4.41650390625E-5,0,0,0,1202823,77743,10075,5042,10993,4308,2026,4192,Tag0,unknown
1610799081782,200,549,1.2062988281250001E-4,0,0,0,1202823,77743,10075,5042,10993,4308,2026,4192,Tag0,unknown
1610799081806,200,217,4.76806640625E-5,0,0,0,1202823,77743,10075,5042,10993,4308,2026,4192,Tag0,unknown
1610799081816,200,325,7.14111328125E-5,0,0,0,1202823,77743,10075,5042,10993,4308,2026,4192,Tag0,unknown
1610799081832,200,-44,-9.66796875E-6,0,0,0,1202823,77743,10075,5042,10993,4308,2026,4192,Tag0,unknown
1610799081849,200,289,6.35009765625E-5,0,0,0,1202823,77743,10075,5042,10993,4308,2026,4192,Tag0,unknown
1610799081865,200,315,6.92138671875E-5,0,0,0,1202823,77743,10075,5042,10993,4308,2026,4192,Tag0,unknown
1610799081883,200,149,3.27392578125E-5,0,0,0,1202823,77743,10075,5042,10993,4308,2026,4192,Tag0,unknown
1610799081899,200,168,3.691406250000001E-5,0,0,0,1202823,77743,10075,5042,10993,4308,2026,4192,Tag0,unknown
1610799081909,200,724,1.5908203125000002E-4,0,0,0,1202823,77743,10075,5042,10993,4308,2026,4192,Tag0,unknown
1610799081919,200,700,1.5380859375E-4,0,0,0,1202823,77743,10075,5042,10993,4308,2026,4192,Tag0,unknown
1610799081932,200,652,1.4326171875000002E-4,0,0,0,1202823,77743,10075,5042,10993,4308,2026,4192,Tag0,unknown
1610799081955,200,-60,-1.318359375E-5,0,0,0,1202823,77743,10075,5042,10993,4308,2026,4192,Tag0,unknown
1610799081966,200,-103,-2.26318359375E-5,0,0,0,1202823,77743,10075,5042,10993,4308,2026,4192,Tag0,unknown
1610799081976,200,121,2.6586914062500003E-5,0,0,0,1202823,77743,10075,5042,10993,4308,2026,4192,Tag0,unknown
1610799081991,200,-1675,-3.680419921875E-4,0,0,0,1202823,77743,10075,5042,10993,4308,2026,4192,Tag0,unknown
1610799082001,200,-2104,-4.6230468750000004E-4,0,0,0,1202823,77743,10075,5042,10993,4308,2026,4192,Tag0,unknown
1610799082025,200,-2048,-4.5E-4,0,0,0,1202823,77743,10075,5042,10993,4308,2026,4192,Tag0,unknown
1610799082035,200,-1523,-3.346435546875E-4,0,0,0,1202823,77743,10075,5042,10993,4308,2026,4192,Tag0,unknown
1610799082049,200,-1420,-3.1201171875E-4,0,0,0,1202823,77743,10075,5042,10993,4308,2026,4192,Tag0,unknown
1610799082065,200,-924,-2.0302734375E-4,0,0,0,1202823,77743,10075,5042,10993,4308,2026,4192,Tag0,unknown
1610799082084,200,-740,-1.6259765625E-4,0,0,0,1202823,77743,10075,5042,10993,4308,2026,4192,Tag0,unknown
1610799082094,200,-410,-9.0087890625E-5,0,0,0,1202823,77743,10075,5042,10993,4308,2026,4192,Tag0,unknown
1610799082104,200,-236,-5.185546875E-5,0,0,0,1202823,77743,10075,5042,10993,4308,2026,4192,Tag0,unknown
1610799082117,200,-247,-5.42724609375E-5,0,0,0,1202823,77743,10075,5042,10993,4308,2026,4192,Tag0,unknown
1610799082127,200,-769,-1.689697265625E-4,0,0,0,1202823,77743,10075,5042,10993,4308,2026,4192,Tag0,unknown
1610799082150,200,-627,-1.377685546875E-4,0,0,0,1202823,77743,10075,5042,10993,4308,2026,4192,Tag0,unknown
1610799082170,200,-313,-6.87744140625E-5,0,0,0,1202823,77743,10075,5042,10993,4308,2026,4192,Tag0,unknown
1610799082183,200,-162,-3.5595703125E-5,0,0,0,1202823,77743,10075,5042,10993,4308,2026,4192,Tag0,unknown
1610799082193,200,-373,-8.19580078125E-5,0,0,0,1202823,77743,10075,5042,10993,4308,2026,4192,Tag0,unknown
1610799082211,200,787,1.729248046875E-4,0,0,0,1202823,77743,10075,5042,10993,4308,2026,4192,Tag0,unknown
1610799082221,200,1850,4.06494140625E-4,0,0,0,1202823,77743,10075,5042,10993,4308,2026,4192,Tag0,unknown
1610799082233,200,1791,3.935302734375E-4,0,0,0,1202823,77743,10075,5042,10993,4308,2026,4192,Tag0,unknown
1610799082250,200,1791,3.935302734375E-4,0,0,0,1202823,77743,10075,5042,10993,4308,2026,4192,Tag0,unknown
1610799082266,200,1780,3.9111328125E-4,0,0,0,1202823,77743,10075,5042,10993,4308,2026,4192,Tag0,unknown
1610799082285,200,1537,3.377197265625E-4,0,0,0,1202823,77743,10075,5042,10993,4308,2026,4192,Tag0,unknown
1610799082299,200,1257,2.761962890625E-4,0,0,0,1202823,77743,10075,5042,10993,4308,2026,4192,Tag0,unknown
1610799082319,200,1040,2.28515625E-4,0,0,0,1202823,77743,10075,5042,10993,4308,2026,4192,Tag0,unknown
1610799082332,200,736,1.6171875E-4,0,0,0,1202823,77743,10075,5042,10993,4308,2026,4192,Tag0,unknown
1610799082355,200,-535,-1.175537109375E-4,0,0,0,1202823,77743,10075,5042,10993,4308,2026,4192,Tag0,unknown
1610799082368,200,-605,-1.329345703125E-4,0,0,0,1202823,77743,10075,5042,10993,4308,2026,4192,Tag0,unknown
1610799082389,200,-1113,-2.445556640625E-4,0,0,0,1202823,77743,10075,5042,10993,4308,2026,4192,Tag0,unknown
1610799082402,200,-1060,-2.3291015625E-4,0,0,0,1202823,77743,10075,5042,10993,4308,2026,4192,Tag0,unknown
1610799082412,200,-427,-9.382324218750001E-5,0,0,0,1202823,77743,10075,5042,10993,4308,2026,4192,Tag0,unknown
1610799082422,200,-532,-1.1689453125E-4,0,0,0,1202823,77743,10075,5042,10993,4308,2026,4192,Tag0,unknown
1610799082434,200,-343,-7.53662109375E-5,0,0,0,1202823,77743,10075,5042,10993,4308,2026,4192,Tag0,unknown
1610799082450,200,-427,-9.382324218750001E-5,0,0,0,1202823,77743,10075,5042,10993,4308,2026,4192,Tag0,unknown
1610799082469,200,-447,-9.82177734375E-5,0,0,0,1202823,77743,10075,5042,10993,4308,2026,4192,Tag0,unknown
1610799082485,200,-722,-1.58642578125E-4,0,0,0,1202823,77743,10075,5042,10993,4308,2026,4192,Tag0,unknown
1610799082495,200,-641,-1.408447265625E-4,0,0,0,1202823,77743,10075,5042,10993,4308,2026,4192,Tag0,unknown
1610799082505,200,-839,-1.843505859375E-4,0,0,0,1202823,77743,10075,5042,10993,4308,2026,4192,Tag0,unknown
1610799082518,200,-589,-1.294189453125E-4,0,0,0,1202823,77743,10075,5042,10993,4308,2026,4192,Tag0,unknown
1610799082535,200,76,1.669921875E-5,0,0,0,1202823,77743,10075,5042,10993,4308,2026,4192,Tag0,unknown
1610799082549,200,-106,-2.3291015625000003E-5,0,0,0,1202823,77743,10075,5042,10993,4308,2026,4192,Tag0,unknown
1610799082574,200,152,3.33984375E-5,0,0,0,1202823,77743,10075,5042,10993,4308,2026,4192,Tag0,unknown
1610799082584,200,553,1.215087890625E-4,0,0,0,1202823,77743,10075,5042,10993,4308,2026,4192,Tag0,unknown
1610799082609,200,630,1.38427734375E-4,0,0,0,1202823,77743,10075,5042,10993,4308,2026,4192,Tag0,unknown
1610799082620,200,435,9.55810546875E-5,0,0,0,1202823,77743,10075,5042,10993,4308,2026,4192,Tag0,unknown
1610799082630,200,812,1.7841796875000003E-4,0,0,0,1202823,77743,10075,5042,10993,4308,2026,4192,Tag0,unknown
1610799082640,200,369,8.10791015625E-5,0,0,0,1202823,77743,10075,5042,10993,4308,2026,4192,Tag0,unknown
1610799082652,200,278,6.108398437500001E-5,0,0,0,1202823,77743,10075,5042,10993,4308,2026,4192,Tag0,unknown
1610799082668,200,-118,-2.5927734375E-5,0,0,0,1202823,77743,10075,5042,10993,4308,2026,4192,Tag0,unknown
1610799082686,200,-290,-6.3720703125E-5,0,0,0,1202823,77743,10075,5042,10993,4308,2026,4192,Tag0,unknown
1610799082703,200,-354,-7.778320312500001E-5,0,0,0,706674,68683,19739,26218,31083,16619,4768,4800,Tag0,unknown
1610799082726,200,60,1.318359375E-5,0,0,0,706674,68683,19739,26218,31083,16619,4768,4800,Tag0,unknown
1610799082750,200,-483,-1.061279296875E-4,0,0,0,706674,68683,19739,26218,31083,16619,4768,4800,Tag0,unknown
1610799082767,200,-406,-8.920898437500001E-5,0,0,0,706674,68683,19739,26218,31083,16619,4768,4800,Tag0,unknown
1610799082786,200,-515,-1.131591796875E-4,0,0,0,706674,68683,19739,26218,31083,16619,4768,4800,Tag0,unknown
1610799082802,200,-535,-1.175537109375E-4,0,0,0,706674,68683,19739,26218,31083,16619,4768,4800,Tag0,unknown
1610799082812,200,-823,-1.808349609375E-4,0,0,0,706674,68683,19739,26218,31083,16619,4768,4800,Tag0,unknown
1610799082834,200,-439,-9.64599609375E-5,0,0,0,706674,68683,19739,26218,31083,16619,4768,4800,Tag0,unknown
1610799082844,200,83,1.82373046875E-5,0,0,0,706674,68683,19739,26218,31083,16619,4768,4800,Tag0,unknown
1610799082868,200,190,4.1748046875E-5,0,0,0,706674,68683,19739,26218,31083,16619,4768,4800,Tag0,unknown
1610799082893,200,-132,-2.900390625E-5,0,0,0,706674,68683,19739,26218,31083,16619,4768,4800,Tag0,unknown
1610799082903,200,103,2.26318359375E-5,0,0,0,706674,68683,19739,26218,31083,16619,4768,4800,Tag0,unknown
1610799082918,200,309,6.78955078125E-5,0,0,0,706674,68683,19739,26218,31083,16619,4768,4800,Tag0,unknown
1610799082933,200,250,5.4931640625E-5,0,0,0,706674,68683,19739,26218,31083,16619,4768,4800,Tag0,unknown
1610799082950,200,344,7.558593750000001E-5,0,0,0,706674,68683,19739,26218,31083,16619,4768,4800,Tag0,unknown
1610799082979,200,489,1.0744628906250001E-4,0,0,0,706674,68683,19739,26218,31083,16619,4768,4800,Tag0,unknown
1610799082989,200,570,1.25244140625E-4,0,0,0,706674,68683,19739,26218,31083,16619,4768,4800,Tag0,unknown
1610799083003,200,499,1.096435546875E-4,0,0,0,706674,68683,19739,26218,31083,16619,4768,4800,Tag0,unknown
1610799083013,200,550,1.20849609375E-4,0,0,0,706674,68683,19739,26218,31083,16619,4768,4800,Tag0,unknown
1610799083023,200,165,3.62548828125E-5,0,0,0,706674,68683,19739,26218,31083,16619,4768,4800,Tag0,unknown
1610799083038,200,332,7.294921875E-5,0,0,0,706674,68683,19739,26218,31083,16619,4768,4800,Tag0,unknown
1610799083051,200,43,9.448242187500001E-6,0,0,0,706674,68683,19739,26218,31083,16619,4768,4800,Tag0,unknown
1610799083066,200,-819,-1.799560546875E-4,0,0,0,706674,68683,19739,26218,31083,16619,4768,4800,Tag0,unknown
1610799083088,200,-376,-8.261718750000001E-5,0,0,0,706674,68683,19739,26218,31083,16619,4768,4800,Tag0,unknown
1610799083101,200,-247,-5.42724609375E-5,0,0,0,706674,68683,19739,26218,31083,16619,4768,4800,Tag0,unknown
1610799083125,200,-681,-1.496337890625E-4,0,0,0,706674,68683,19739,26218,31083,16619,4768,4800,Tag0,unknown
1610799083135,200,-737,-1.6193847656250003E-4,0,0,0,706674,68683,19739,26218,31083,16619,4768,4800,Tag0,unknown
1610799083159,200,-870,-1.91162109375E-4,0,0,0,706674,68683,19739,26218,31083,16619,4768,4800,Tag0,unknown
1610799083170,200,-886,-1.94677734375E-4,0,0,0,706674,68683,19739,26218,31083,16619,4768,4800,Tag0,unknown
1610799083180,200,-285,-6.26220703125E-5,0,0,0,706674,68683,19739,26218,31083,16619,4768,4800,Tag0,unknown
1610799083190,200,-136,-2.9882812500000002E-5,0,0,0,706674,68683,19739,26218,31083,16619,4768,4800,Tag0,unknown
1610799083203,200,259,5.69091796875E-5,0,0,0,706674,68683,19739,26218,31083,16619,4768,4800,Tag0,unknown
1610799083219,200,-77,-1.69189453125E-5,0,0,0,706674,68683,19739,26218,31083,16619,4768,4800,Tag0,unknown
1610799083229,200,-129,-2.8344726562500002E-5,0,0,0,706674,68683,19739,26218,31083,16619,4768,4800,Tag0,unknown
1610799083251,200,-165,-3.62548828125E-5,0,0,0,706674,68683,19739,26218,31083,16619,4768,4800,Tag0,unknown
1610799083274,200,-564,-1.2392578125E-4,0,0,0,706674,68683,19739,26218,31083,16619,4768,4800,Tag0,unknown
1610799083285,200,-208,-4.5703125E-5,0,0,0,706674,68683,19739,26218,31083,16619,4768,4800,Tag0,unknown
1610799083310,200,49,1.07666015625E-5,0,0,0,706674,68683,19739,26218,31083,16619,4768,4800,Tag0,unknown
1610799083323,200,125,2.74658203125E-5,0,0,0,706674,68683,19739,26218,31083,16619,4768,4800,Tag0,unknown
1610799083333,200,228,5.0097656250000005E-5,0,0,0,706674,68683,19739,26218,31083,16619,4768,4800,Tag0,unknown
1610799083343,200,601,1.3205566406249998E-4,0,0,0,706674,68683,19739,26218,31083,16619,4768,4800,Tag0,unknown
1610799083357,200,871,1.9138183593749998E-4,0,0,0,706674,68683,19739,26218,31083,16619,4768,4800,Tag0,unknown
1610799083367,200,589,1.294189453125E-4,0,0,0,706674,68683,19739,26218,31083,16619,4768,4800,Tag0,unknown
1610799083382,200,475,1.043701171875E-4,0,0,0,706674,68683,19739,26218,31083,16619,4768,4800,Tag0,unknown
1610799083403,200,459,1.008544921875E-4,0,0,0,706674,68683,19739,26218,31083,16619,4768,4800,Tag0,unknown
1610799083413,200,285,6.26220703125E-5,0,0,0,706674,68683,19739,26218,31083,16619,4768,4800,Tag0,unknown
1610799083430,200,-34,-7.4707031250000005E-6,0,0,0,706674,68683,19739,26218,31083,16619,4768,4800,Tag0,unknown
1610799083440,200,108,2.3730468750000002E-5,0,0,0,706674,68683,19739,26218,31083,16619,4768,4800,Tag0,unknown
1610799083453,200,-819,-1.799560546875E-4,0,0,0,706674,68683,19739,26218,31083,16619,4768,4800,Tag0,unknown
1610799083468,200,-242,-5.3173828125000005E-5,0,0,0,706674,68683,19739,26218,31083,16619,4768,4800,Tag0,unknown
1610799083484,200,56,1.23046875E-5,0,0,0,706674,68683,19739,26218,31083,16619,4768,4800,Tag0,unknown
1610799083501,200,119,2.6147460937500004E-5,0,0,0,706674,68683,19739,26218,31083,16619,4768,4800,Tag0,unknown
1610799083520,200,-93,-2.04345703125E-5,0,0,0,706674,68683,19739,26218,31083,16619,4768,4800,Tag0,unknown
1610799083541,200,-100,-2.197265625E-5,0,0,0,706674,68683,19739,26218,31083,16619,4768,4800,Tag0,unknown
1610799083553,200,-116,-2.548828125E-5,0,0,0,706674,68683,19739,26218,31083,16619,4768,4800,Tag0,unknown
1610799083574,200,-172,-3.7792968750000005E-5,0,0,0,706674,68683,19739,26218,31083,16619,4768,4800,Tag0,unknown
1610799083587,200,-183,-4.02099609375E-5,0,0,0,706674,68683,19739,26218,31083,16619,4768,4800,Tag0,unknown
1610799083597,200,-581,-1.276611328125E-4,0,0,0,706674,68683,19739,26218,31083,16619,4768,4800,Tag0,unknown
1610799083612,200,-354,-7.778320312500001E-5,0,0,0,706674,68683,19739,26218,31083,16619,4768,4800,Tag0,unknown
1610799083622,200,6,1.318359375E-6,0,0,0,706674,68683,19739,26218,31083,16619,4768,4800,Tag0,unknown
1610799083645,200,-133,-2.92236328125E-5,0,0,0,706674,68683,19739,26218,31083,16619,4768,4800,Tag0,unknown
1610799083655,200,-137,-3.0102539062499998E-5,0,0,0,706674,68683,19739,26218,31083,16619,4768,4800,Tag0,unknown
1610799083670,200,-1220,-2.6806640625E-4,0,0,0,706674,68683,19739,26218,31083,16619,4768,4800,Tag0,unknown
1610799083688,200,-965,-2.120361328125E-4,0,0,0,971058,83674,147280,146189,255833,182511,16766979,16750698,Tag0,unknown
1610799083704,200,166,3.6474609375E-5,0,0,0,971058,83674,147280,146189,255833,182511,16766979,16750698,Tag0,unknown
1610799083726,200,247,5.42724609375E-5,0,0,0,971058,83674,147280,146189,255833,182511,16766979,16750698,Tag0,unknown
1610799083736,200,427,9.382324218750001E-5,0,0,0,971058,83674,147280,146189,255833,182511,16766979,16750698,Tag0,unknown
1610799083766,200,597,1.3117675781250003E-4,0,0,0,971058,83674,147280,146189,255833,182511,16766979,16750698,Tag0,unknown
1610799083786,200,220,4.833984375E-5,0,0,0,971058,83674,147280,146189,255833,182511,16766979,16750698,Tag0,unknown
1610799083796,200,259,5.69091796875E-5,0,0,0,971058,83674,147280,146189,255833,182511,16766979,16750698,Tag0,unknown
1610799083807,200,-301,-6.613769531250001E-5,0,0,0,971058,83674,147280,146189,255833,182511,16766979,16750698,Tag0,unknown
1610799083820,200,-325,-7.14111328125E-5,0,0,0,971058,83674,147280,146189,255833,182511,16766979,16750698,Tag0,unknown
1610799083830,200,-339,-7.448730468750001E-5,0,0,0,971058,83674,147280,146189,255833,182511,16766979,16750698,Tag0,unknown
1610799083840,200,-1033,-2.2697753906250002E-4,0,0,0,971058,83674,147280,146189,255833,182511,16766979,16750698,Tag0,unknown
1610799083854,200,-1037,-2.278564453125E-4,0,0,0,971058,83674,147280,146189,255833,182511,16766979,16750698,Tag0,unknown
1610799083871,200,-541,-1.1887207031250001E-4,0,0,0,971058,83674,147280,146189,255833,182511,16766979,16750698,Tag0,unknown
1610799083889,200,-573,-1.259033203125E-4,0,0,0,971058,83674,147280,146189,255833,182511,16766979,16750698,Tag0,unknown
1610799083904,200,-781,-1.716064453125E-4,0,0,0,971058,83674,147280,146189,255833,182511,16766979,16750698,Tag0,unknown
1610799083914,200,-1068,-2.3466796875E-4,0,0,0,971058,83674,147280,146189,255833,182511,16766979,16750698,Tag0,unknown
1610799083924,200,-959,-2.107177734375E-4,0,0,0,971058,83674,147280,146189,255833,182511,16766979,16750698,Tag0,unknown
1610799083935,200,-1129,-2.480712890625E-4,0,0,0,971058,83674,147280,146189,255833,182511,16766979,16750698,Tag0,unknown
1610799083953,200,-379,-8.32763671875E-5,0,0,0,971058,83674,147280,146189,255833,182511,16766979,16750698,Tag0,unknown
1610799083969,200,-259,-5.69091796875E-5,0,0,0,971058,83674,147280,146189,255833,182511,16766979,16750698,Tag0,unknown
1610799083995,200,907,1.992919921875E-4,0,0,0,971058,83674,147280,146189,255833,182511,16766979,16750698,Tag0,unknown
1610799084005,200,1089,2.392822265625E-4,0,0,0,971058,83674,147280,146189,255833,182511,16766979,16750698,Tag0,unknown
1610799084030,200,1081,2.375244140625E-4,0,0,0,971058,83674,147280,146189,255833,182511,16766979,16750698,Tag0,unknown
1610799084040,200,1114,2.44775390625E-4,0,0,0,971058,83674,147280,146189,255833,182511,16766979,16750698,Tag0,unknown
1610799084055,200,695,1.527099609375E-4,0,0,0,971058,83674,147280,146189,255833,182511,16766979,16750698,Tag0,unknown
1610799084068,200,665,1.461181640625E-4,0,0,0,971058,83674,147280,146189,255833,182511,16766979,16750698,Tag0,unknown
1610799084101,200,441,9.689941406250001E-5,0,0,0,971058,83674,147280,146189,255833,182511,16766979,16750698,Tag0,unknown
1610799084120,200,633,1.3908691406250002E-4,0,0,0,971058,83674,147280,146189,255833,182511,16766979,16750698,Tag0,unknown
1610799084130,200,307,6.74560546875E-5,0,0,0,971058,83674,147280,146189,255833,182511,16766979,16750698,Tag0,unknown
1610799084140,200,-44,-9.66796875E-6,0,0,0,971058,83674,147280,146189,255833,182511,16766979,16750698,Tag0,unknown
1610799084153,200,-374,-8.2177734375E-5,0,0,0,971058,83674,147280,146189,255833,182511,16766979,16750698,Tag0,unknown
1610799084163,200,-234,-5.1416015624999996E-5,0,0,0,971058,83674,147280,146189,255833,182511,16766979,16750698,Tag0,unknown
1610799084176,200,-213,-4.68017578125E-5,0,0,0,971058,83674,147280,146189,255833,182511,16766979,16750698,Tag0,unknown
1610799084187,200,-227,-4.98779296875E-5,0,0,0,971058,83674,147280,146189,255833,182511,16766979,16750698,Tag0,unknown
1610799084197,200,-845,-1.856689453125E-4,0,0,0,971058,83674,147280,146189,255833,182511,16766979,16750698,Tag0,unknown
1610799084220,200,-339,-7.448730468750001E-5,0,0,0,971058,83674,147280,146189,255833,182511,16766979,16750698,Tag0,unknown
1610799084239,200,-2048,-4.5E-4,0,0,0,971058,83674,147280,146189,255833,182511,16766979,16750698,Tag0,unknown
1610799084253,200,-2048,-4.5E-4,0,0,0,971058,83674,147280,146189,255833,182511,16766979,16750698,Tag0,unknown
1610799084273,200,-2119,-4.6560058593750006E-4,0,0,0,971058,83674,147280,146189,255833,182511,16766979,16750698,Tag0,unknown
1610799084289,200,-1677,-3.6848144531249997E-4,0,0,0,971058,83674,147280,146189,255833,182511,16766979,16750698,Tag0,unknown
1610799084299,200,330,7.2509765625E-5,0,0,0,971058,83674,147280,146189,255833,182511,16766979,16750698,Tag0,unknown
1610799084309,200,504,1.107421875E-4,0,0,0,971058,83674,147280,146189,255833,182511,16766979,16750698,Tag0,unknown
1610799084322,200,822,1.80615234375E-4,0,0,0,971058,83674,147280,146189,255833,182511,16766979,16750698,Tag0,unknown
1610799084343,200,1047,2.300537109375E-4,0,0,0,971058,83674,147280,146189,255833,182511,16766979,16750698,Tag0,unknown
1610799084353,200,667,1.4655761718750001E-4,0,0,0,971058,83674,147280,146189,255833,182511,16766979,16750698,Tag0,unknown
1610799084381,200,310,6.8115234375E-5,0,0,0,971058,83674,147280,146189,255833,182511,16766979,16750698,Tag0,unknown
1610799084404,200,481,1.056884765625E-4,0,0,0,971058,83674,147280,146189,255833,182511,16766979,16750698,Tag0,unknown
1610799084424,200,396,8.701171875000001E-5,0,0,0,971058,83674,147280,146189,255833,182511,16766979,16750698,Tag0,unknown
1610799084434,200,563,1.237060546875E-4,0,0,0,971058,83674,147280,146189,255833,182511,16766979,16750698,Tag0,unknown
1610799084448,200,224,4.921875E-5,0,0,0,971058,83674,147280,146189,255833,182511,16766979,16750698,Tag0,unknown
1610799084460,200,296,6.50390625E-5,0,0,0,971058,83674,147280,146189,255833,182511,16766979,16750698,Tag0,unknown
1610799084471,200,371,8.151855468750001E-5,0,0,0,971058,83674,147280,146189,255833,182511,16766979,16750698,Tag0,unknown
1610799084488,200,611,1.3425292968749999E-4,0,0,0,971058,83674,147280,146189,255833,182511,16766979,16750698,Tag0,unknown
1610799084503,200,545,1.197509765625E-4,0,0,0,971058,83674,147280,146189,255833,182511,16766979,16750698,Tag0,unknown
1610799084529,200,139,3.0541992187500004E-5,0,0,0,971058,83674,147280,146189,255833,182511,16766979,16750698,Tag0,unknown
1610799084539,200,534,1.17333984375E-4,0,0,0,971058,83674,147280,146189,255833,182511,16766979,16750698,Tag0,unknown
1610799084563,200,361,7.93212890625E-5,0,0,0,971058,83674,147280,146189,255833,182511,16766979,16750698,Tag0,unknown
1610799084573,200,379,8.32763671875E-5,0,0,0,971058,83674,147280,146189,255833,182511,16766979,16750698,Tag0,unknown
1610799084583,200,-276,-6.064453125E-5,0,0,0,971058,83674,147280,146189,255833,182511,16766979,16750698,Tag0,unknown
1610799084593,200,-553,-1.215087890625E-4,0,0,0,971058,83674,147280,146189,255833,182511,16766979,16750698,Tag0,unknown
1610799084606,200,-305,-6.70166015625E-5,0,0,0,971058,83674,147280,146189,255833,182511,16766979,16750698,Tag0,unknown
1610799084623,200,-203,-4.460449218750001E-5,0,0,0,971058,83674,147280,146189,255833,182511,16766979,16750698,Tag0,unknown
1610799084641,200,-599,-1.316162109375E-4,0,0,0,971058,83674,147280,146189,255833,182511,16766979,16750698,Tag0,unknown
1610799084656,200,-629,-1.382080078125E-4,0,0,0,971058,83674,147280,146189,255833,182511,16766979,16750698,Tag0,unknown
1610799084666,200,-989,-2.173095703125E-4,0,0,0,971058,83674,147280,146189,255833,182511,16766979,16750698,Tag0,unknown
1610799084691,200,-1141,-2.5070800781250004E-4,0,0,0,971058,83674,147280,146189,255833,182511,16766979,16750698,Tag0,unknown
1610799084702,200,-859,-1.887451171875E-4,0,0,0,1166322,332268,65825,66063,77834,20077,21046,9245,Tag0,unknown
1610799084717,200,-477,-1.048095703125E-4,0,0,0,1166322,332268,65825,66063,77834,20077,21046,9245,Tag0,unknown
1610799084737,200,-451,-9.909667968750001E-5,0,0,0,1166322,332268,65825,66063,77834,20077,21046,9245,Tag0,unknown
1610799084765,200,325,7.14111328125E-5,0,0,0,1166322,332268,65825,66063,77834,20077,21046,9245,Tag0,unknown
1610799084775,200,-38,-8.349609375E-6,0,0,0,1166322,332268,65825,66063,77834,20077,21046,9245,Tag0,unknown
1610799084788,200,330,7.2509765625E-5,0,0,0,1166322,332268,65825,66063,77834,20077,21046,9245,Tag0,unknown
1610799084806,200,155,3.40576171875E-5,0,0,0,1166322,332268,65825,66063,77834,20077,21046,9245,Tag0,unknown
1610799084823,200,305,6.70166015625E-5,0,0,0,1166322,332268,65825,66063,77834,20077,21046,9245,Tag0,unknown
1610799084833,200,157,3.44970703125E-5,0,0,0,1166322,332268,65825,66063,77834,20077,21046,9245,Tag0,unknown
1610799084843,200,-10,-2.197265625E-6,0,0,0,1166322,332268,65825,66063,77834,20077,21046,9245,Tag0,unknown
1610799084855,200,61,1.34033203125E-5,0,0,0,1166322,332268,65825,66063,77834,20077,21046,9245,Tag0,unknown
1610799084872,200,-355,-7.80029296875E-5,0,0,0,1166322,332268,65825,66063,77834,20077,21046,9245,Tag0,unknown
1610799084889,200,-587,-1.2897949218750003E-4,0,0,0,1166322,332268,65825,66063,77834,20077,21046,9245,Tag0,unknown
1610799084911,200,-220,-4.833984375E-5,0,0,0,1166322,332268,65825,66063,77834,20077,21046,9245,Tag0,unknown
1610799084921,200,-165,-3.62548828125E-5,0,0,0,1166322,332268,65825,66063,77834,20077,21046,9245,Tag0,unknown
1610799084945,200,-103,-2.26318359375E-5,0,0,0,1166322,332268,65825,66063,77834,20077,21046,9245,Tag0,unknown
1610799084955,200,328,7.207031249999999E-5,0,0,0,1166322,332268,65825,66063,77834,20077,21046,9245,Tag0,unknown
1610799084983,200,486,1.06787109375E-4,0,0,0,1166322,332268,65825,66063,77834,20077,21046,9245,Tag0,unknown
1610799084994,200,419,9.206542968750001E-5,0,0,0,1166322,332268,65825,66063,77834,20077,21046,9245,Tag0,unknown
1610799085004,200,602,1.3227539062500001E-4,0,0,0,1166322,332268,65825,66063,77834,20077,21046,9245,Tag0,unknown
1610799085025,200,854,1.8764648437500001E-4,0,0,0,1166322,332268,65825,66063,77834,20077,21046,9245,Tag0,unknown
1610799085040,200,370,8.1298828125E-5,0,0,0,1166322,332268,65825,66063,77834,20077,21046,9245,Tag0,unknown
1610799085057,200,-380,-8.349609375E-5,0,0,0,1166322,332268,65825,66063,77834,20077,21046,9245,Tag0,unknown
1610799085086,200,-227,-4.98779296875E-5,0,0,0,1166322,332268,65825,66063,77834,20077,21046,9245,Tag0,unknown
1610799085104,200,-523,-1.149169921875E-4,0,0,0,1166322,332268,65825,66063,77834,20077,21046,9245,Tag0,unknown
1610799085114,200,-778,-1.70947265625E-4,0,0,0,1166322,332268,65825,66063,77834,20077,21046,9245,Tag0,unknown
1610799085129,200,-722,-1.58642578125E-4,0,0,0,1166322,332268,65825,66063,77834,20077,21046,9245,Tag0,unknown
1610799085141,200,-678,-1.4897460937500002E-4,0,0,0,1166322,332268,65825,66063,77834,20077,21046,9245,Tag0,unknown
1610799085161,200,-599,-1.316162109375E-4,0,0,0,1166322,332268,65825,66063,77834,20077,21046,9245,Tag0,unknown
1610799085174,200,-587,-1.2897949218750003E-4,0,0,0,1166322,332268,65825,66063,77834,20077,21046,9245,Tag0,unknown
1610799085184,200,-298,-6.5478515625E-5,0,0,0,1166322,332268,65825,66063,77834,20077,21046,9245,Tag0,unknown
1610799085194,200,-53,-1.1645507812500002E-5,0,0,0,1166322,332268,65825,66063,77834,20077,21046,9245,Tag0,unknown
1610799085206,200,-7,-1.5380859375E-6,0,0,0,1166322,332268,65825,66063,77834,20077,21046,9245,Tag0,unknown
1610799085275,200,552,1.212890625E-4,0,0,0,1166322,332268,65825,66063,77834,20077,21046,9245,Tag0,unknown
1610799085295,200,233,5.1196289062500006E-5,0,0,0,1166322,332268,65825,66063,77834,20077,21046,9245,Tag0,unknown
1610799085305,200,147,3.22998046875E-5,0,0,0,1166322,332268,65825,66063,77834,20077,21046,9245,Tag0,unknown
1610799085319,200,-41,-9.008789062499999E-6,0,0,0,1166322,332268,65825,66063,77834,20077,21046,9245,Tag0,unknown
1610799085329,200,519,1.140380859375E-4,0,0,0,1166322,332268,65825,66063,77834,20077,21046,9245,Tag0,unknown
1610799085354,200,-262,-5.7568359375E-5,0,0,0,1166322,332268,65825,66063,77834,20077,21046,9245,Tag0,unknown
1610799085371,200,59,1.29638671875E-5,0,0,0,1166322,332268,65825,66063,77834,20077,21046,9245,Tag0,unknown
1610799085529,200,177,3.8891601562500006E-5,0,0,0,1166322,332268,65825,66063,77834,20077,21046,9245,Tag0,unknown
1610799085550,200,541,1.1887207031250001E-4,0,0,0,1166322,332268,65825,66063,77834,20077,21046,9245,Tag0,unknown
1610799085560,200,-69,-1.51611328125E-5,0,0,0,1166322,332268,65825,66063,77834,20077,21046,9245,Tag0,unknown
1610799085592,200,259,5.69091796875E-5,0,0,0,1166322,332268,65825,66063,77834,20077,21046,9245,Tag0,unknown
1610799085608,200,-15,-3.2958984375E-6,0,0,0,1166322,332268,65825,66063,77834,20077,21046,9245,Tag0,unknown
1610799085733,200,-309,-6.78955078125E-5,0,0,0,1166322,332268,65825,66063,77834,20077,21046,9245,Tag0,unknown
1610799085750,200,-365,-8.02001953125E-5,0,0,0,1166322,332268,65825,66063,77834,20077,21046,9245,Tag0,unknown
1610799085760,200,-354,-7.778320312500001E-5,0,0,0,1166322,332268,65825,66063,77834,20077,21046,9245,Tag0,unknown
1610799085770,200,-130,-2.8564453125E-5,0,0,0,1166322,332268,65825,66063,77834,20077,21046,9245,Tag0,unknown
1610799085797,200,40,8.7890625E-6,0,0,0,1166322,332268,65825,66063,77834,20077,21046,9245,Tag0,unknown
1610799085808,200,85,1.86767578125E-5,0,0,0,1166322,332268,65825,66063,77834,20077,21046,9245,Tag0,unknown
1610799085818,200,49,1.07666015625E-5,0,0,0,1166322,332268,65825,66063,77834,20077,21046,9245,Tag0,unknown
1610799085867,200,26,5.712890625E-6,0,0,0,1166322,332268,65825,66063,77834,20077,21046,9245,Tag0,unknown
1610799085877,200,104,2.28515625E-5,0,0,0,1166322,332268,65825,66063,77834,20077,21046,9245,Tag0,unknown
1610799085938,200,-39,-8.5693359375E-6,0,0,0,1166322,332268,65825,66063,77834,20077,21046,9245,Tag0,unknown
1610799085972,200,278,6.108398437500001E-5,0,0,0,1166322,332268,65825,66063,77834,20077,21046,9245,Tag0,unknown
1610799085983,200,105,2.30712890625E-5,0,0,0,1166322,332268,65825,66063,77834,20077,21046,9245,Tag0,unknown
1610799085993,200,-282,-6.1962890625E-5,0,0,0,1166322,332268,65825,66063,77834,20077,21046,9245,Tag0,unknown
1610799086012,200,-123,-2.70263671875E-5,0,0,0,233801,4220,4338,4792,3514,4194,1768,931,Tag0,unknown
1610799086022,200,-289,-6.35009765625E-5,0,0,0,233801,4220,4338,4792,3514,4194,1768,931,Tag0,unknown
1610799086032,200,-198,-4.3505859375000006E-5,0,0,0,233801,4220,4338,4792,3514,4194,1768,931,Tag0,unknown
1610799086042,200,-313,-6.87744140625E-5,0,0,0,233801,4220,4338,4792,3514,4194,1768,931,Tag0,unknown
1610799086054,200,-309,-6.78955078125E-5,0,0,0,233801,4220,4338,4792,3514,4194,1768,931,Tag0,unknown
1610799086073,200,39,8.5693359375E-6,0,0,0,233801,4220,4338,4792,3514,4194,1768,931,Tag0,unknown
1610799086114,200,-109,-2.39501953125E-5,0,0,0,233801,4220,4338,4792,3514,4194,1768,931,Tag0,unknown
1610799086125,200,-261,-5.73486328125E-5,0,0,0,233801,4220,4338,4792,3514,4194,1768,931,Tag0,unknown
1610799086135,200,82,1.8017578124999998E-5,0,0,0,233801,4220,4338,4792,3514,4194,1768,931,Tag0,unknown
1610799086173,200,-59,-1.29638671875E-5,0,0,0,233801,4220,4338,4792,3514,4194,1768,931,Tag0,unknown
1610799086192,200,-28,-6.15234375E-6,0,0,0,233801,4220,4338,4792,3514,4194,1768,931,Tag0,unknown
1610799086202,200,27,5.9326171875000005E-6,0,0,0,233801,4220,4338,4792,3514,4194,1768,931,Tag0,unknown
1610799086231,200,-300,-6.591796875E-5,0,0,0,233801,4220,4338,4792,3514,4194,1768,931,Tag0,unknown
1610799086242,200,-313,-6.87744140625E-5,0,0,0,233801,4220,4338,4792,3514,4194,1768,931,Tag0,unknown
1610799086252,200,-292,-6.416015625000001E-5,0,0,0,233801,4220,4338,4792,3514,4194,1768,931,Tag0,unknown
1610799086262,200,-267,-5.86669921875E-5,0,0,0,233801,4220,4338,4792,3514,4194,1768,931,Tag0,unknown
1610799086291,200,55,1.20849609375E-5,0,0,0,233801,4220,4338,4792,3514,4194,1768,931,Tag0,unknown
1610799086309,200,90,1.9775390625E-5,0,0,0,233801,4220,4338,4792,3514,4194,1768,931,Tag0,unknown
1610799086319,200,39,8.5693359375E-6,0,0,0,233801,4220,4338,4792,3514,4194,1768,931,Tag0,unknown
1610799086351,200,121,2.6586914062500003E-5,0,0,0,233801,4220,4338,4792,3514,4194,1768,931,Tag0,unknown
1610799086361,200,-71,-1.56005859375E-5,0,0,0,233801,4220,4338,4792,3514,4194,1768,931,Tag0,unknown
1610799086371,200,-277,-6.0864257812500005E-5,0,0,0,233801,4220,4338,4792,3514,4194,1768,931,Tag0,unknown
1610799086381,200,-356,-7.822265625E-5,0,0,0,233801,4220,4338,4792,3514,4194,1768,931,Tag0,unknown
1610799086404,200,-297,-6.525878906250001E-5,0,0,0,233801,4220,4338,4792,3514,4194,1768,931,Tag0,unknown
1610799086424,200,-305,-6.70166015625E-5,0,0,0,233801,4220,4338,4792,3514,4194,1768,931,Tag0,unknown
1610799086441,200,-259,-5.69091796875E-5,0,0,0,233801,4220,4338,4792,3514,4194,1768,931,Tag0,unknown
1610799086457,200,-277,-6.0864257812500005E-5,0,0,0,233801,4220,4338,4792,3514,4194,1768,931,Tag0,unknown
1610799086477,200,-45,-9.8876953125E-6,0,0,0,233801,4220,4338,4792,3514,4194,1768,931,Tag0,unknown
1610799086494,200,20,4.39453125E-6,0,0,0,233801,4220,4338,4792,3514,4194,1768,931,Tag0,unknown
1610799086504,200,-306,-6.723632812500001E-5,0,0,0,233801,4220,4338,4792,3514,4194,1768,931,Tag0,unknown
1610799086514,200,-78,-1.7138671875E-5,0,0,0,233801,4220,4338,4792,3514,4194,1768,931,Tag0,unknown
1610799086526,200,-259,-5.69091796875E-5,0,0,0,233801,4220,4338,4792,3514,4194,1768,931,Tag0,unknown
1610799086545,200,118,2.5927734375E-5,0,0,0,233801,4220,4338,4792,3514,4194,1768,931,Tag0,unknown
1610799086559,200,29,6.3720703125E-6,0,0,0,233801,4220,4338,4792,3514,4194,1768,931,Tag0,unknown
1610799086569,200,354,7.778320312500001E-5,0,0,0,233801,4220,4338,4792,3514,4194,1768,931,Tag0,unknown
1610799086616,200,51,1.1206054687499999E-5,0,0,0,233801,4220,4338,4792,3514,4194,1768,931,Tag0,unknown
1610799086626,200,-277,-6.0864257812500005E-5,0,0,0,233801,4220,4338,4792,3514,4194,1768,931,Tag0,unknown
1610799086640,200,82,1.8017578124999998E-5,0,0,0,233801,4220,4338,4792,3514,4194,1768,931,Tag0,unknown
1610799086650,200,-307,-6.74560546875E-5,0,0,0,233801,4220,4338,4792,3514,4194,1768,931,Tag0,unknown
1610799086678,200,33,7.2509765625E-6,0,0,0,233801,4220,4338,4792,3514,4194,1768,931,Tag0,unknown
1610799086692,200,-279,-6.13037109375E-5,0,0,0,233801,4220,4338,4792,3514,4194,1768,931,Tag0,unknown
1610799086703,200,-562,-1.23486328125E-4,0,0,0,815767,23410,4913,8432,2975,4555,1769,5839,Tag0,unknown
1610799086720,200,-637,-1.399658203125E-4,0,0,0,815767,23410,4913,8432,2975,4555,1769,5839,Tag0,unknown
1610799086740,200,-663,-1.456787109375E-4,0,0,0,815767,23410,4913,8432,2975,4555,1769,5839,Tag0,unknown
1610799086759,200,628,1.3798828125E-4,0,0,0,815767,23410,4913,8432,2975,4555,1769,5839,Tag0,unknown
1610799086813,200,529,1.162353515625E-4,0,0,0,815767,23410,4913,8432,2975,4555,1769,5839,Tag0,unknown
1610799086826,200,194,4.2626953125E-5,0,0,0,815767,23410,4913,8432,2975,4555,1769,5839,Tag0,unknown
1610799086836,200,-116,-2.548828125E-5,0,0,0,815767,23410,4913,8432,2975,4555,1769,5839,Tag0,unknown
1610799086846,200,203,4.460449218750001E-5,0,0,0,815767,23410,4913,8432,2975,4555,1769,5839,Tag0,unknown
1610799086856,200,580,1.2744140625E-4,0,0,0,815767,23410,4913,8432,2975,4555,1769,5839,Tag0,unknown
1610799086887,200,305,6.70166015625E-5,0,0,0,815767,23410,4913,8432,2975,4555,1769,5839,Tag0,unknown
1610799086908,200,-630,-1.38427734375E-4,0,0,0,815767,23410,4913,8432,2975,4555,1769,5839,Tag0,unknown
1610799086947,200,-476,-1.0458984375000001E-4,0,0,0,815767,23410,4913,8432,2975,4555,1769,5839,Tag0,unknown
1610799086961,200,-460,-1.0107421875E-4,0,0,0,815767,23410,4913,8432,2975,4555,1769,5839,Tag0,unknown
1610799086971,200,-394,-8.6572265625E-5,0,0,0,815767,23410,4913,8432,2975,4555,1769,5839,Tag0,unknown
1610799086984,200,120,2.63671875E-5,0,0,0,815767,23410,4913,8432,2975,4555,1769,5839,Tag0,unknown
1610799087010,200,267,5.86669921875E-5,0,0,0,815767,23410,4913,8432,2975,4555,1769,5839,Tag0,unknown
1610799087029,200,285,6.26220703125E-5,0,0,0,815767,23410,4913,8432,2975,4555,1769,5839,Tag0,unknown
1610799087039,200,180,3.955078125E-5,0,0,0,815767,23410,4913,8432,2975,4555,1769,5839,Tag0,unknown
1610799087065,200,868,1.9072265625E-4,0,0,0,815767,23410,4913,8432,2975,4555,1769,5839,Tag0,unknown
1610799087078,200,694,1.52490234375E-4,0,0,0,815767,23410,4913,8432,2975,4555,1769,5839,Tag0,unknown
1610799087088,200,564,1.2392578125E-4,0,0,0,815767,23410,4913,8432,2975,4555,1769,5839,Tag0,unknown
1610799087117,200,-142,-3.1201171875E-5,0,0,0,815767,23410,4913,8432,2975,4555,1769,5839,Tag0,unknown
1610799087129,200,-633,-1.3908691406250002E-4,0,0,0,815767,23410,4913,8432,2975,4555,1769,5839,Tag0,unknown
1610799087139,200,-1623,-3.566162109375E-4,0,0,0,815767,23410,4913,8432,2975,4555,1769,5839,Tag0,unknown
1610799087149,200,-532,-1.1689453125E-4,0,0,0,815767,23410,4913,8432,2975,4555,1769,5839,Tag0,unknown
1610799087176,200,141,3.09814453125E-5,0,0,0,815767,23410,4913,8432,2975,4555,1769,5839,Tag0,unknown
1610799087192,200,353,7.75634765625E-5,0,0,0,815767,23410,4913,8432,2975,4555,1769,5839,Tag0,unknown
1610799087226,200,-6,-1.318359375E-6,0,0,0,815767,23410,4913,8432,2975,4555,1769,5839,Tag0,unknown
1610799087245,200,-12,-2.63671875E-6,0,0,0,815767,23410,4913,8432,2975,4555,1769,5839,Tag0,unknown
1610799087255,200,-265,-5.82275390625E-5,0,0,0,815767,23410,4913,8432,2975,4555,1769,5839,Tag0,unknown
1610799087284,200,-109,-2.39501953125E-5,0,0,0,815767,23410,4913,8432,2975,4555,1769,5839,Tag0,unknown
1610799087295,200,-29,-6.3720703125E-6,0,0,0,815767,23410,4913,8432,2975,4555,1769,5839,Tag0,unknown
1610799087305,200,887,1.9489746093750003E-4,0,0,0,815767,23410,4913,8432,2975,4555,1769,5839,Tag0,unknown
1610799087318,200,180,3.955078125E-5,0,0,0,815767,23410,4913,8432,2975,4555,1769,5839,Tag0,unknown
1610799087328,200,25,5.4931640625E-6,0,0,0,815767,23410,4913,8432,2975,4555,1769,5839,Tag0,unknown
1610799087338,200,-283,-6.218261718750001E-5,0,0,0,815767,23410,4913,8432,2975,4555,1769,5839,Tag0,unknown
1610799087354,200,3,6.591796875E-7,0,0,0,815767,23410,4913,8432,2975,4555,1769,5839,Tag0,unknown
1610799087388,200,-93,-2.04345703125E-5,0,0,0,815767,23410,4913,8432,2975,4555,1769,5839,Tag0,unknown
1610799087410,200,569,1.250244140625E-4,0,0,0,815767,23410,4913,8432,2975,4555,1769,5839,Tag0,unknown
1610799087426,200,-317,-6.96533203125E-5,0,0,0,815767,23410,4913,8432,2975,4555,1769,5839,Tag0,unknown
1610799087444,200,-426,-9.3603515625E-5,0,0,0,815767,23410,4913,8432,2975,4555,1769,5839,Tag0,unknown
1610799087463,200,-629,-1.382080078125E-4,0,0,0,815767,23410,4913,8432,2975,4555,1769,5839,Tag0,unknown
1610799087480,200,-177,-3.8891601562500006E-5,0,0,0,815767,23410,4913,8432,2975,4555,1769,5839,Tag0,unknown
1610799087491,200,-537,-1.179931640625E-4,0,0,0,815767,23410,4913,8432,2975,4555,1769,5839,Tag0,unknown
1610799087501,200,-580,-1.2744140625E-4,0,0,0,815767,23410,4913,8432,2975,4555,1769,5839,Tag0,unknown
1610799087513,200,-532,-1.1689453125E-4,0,0,0,815767,23410,4913,8432,2975,4555,1769,5839,Tag0,unknown
1610799087536,200,93,2.04345703125E-5,0,0,0,815767,23410,4913,8432,2975,4555,1769,5839,Tag0,unknown
1610799087547,200,-21,-4.614257812500001E-6,0,0,0,815767,23410,4913,8432,2975,4555,1769,5839,Tag0,unknown
1610799087558,200,261,5.73486328125E-5,0,0,0,815767,23410,4913,8432,2975,4555,1769,5839,Tag0,unknown
1610799087576,200,557,1.223876953125E-4,0,0,0,815767,23410,4913,8432,2975,4555,1769,5839,Tag0,unknown
1610799087594,200,312,6.85546875E-5,0,0,0,815767,23410,4913,8432,2975,4555,1769,5839,Tag0,unknown
1610799087611,200,-124,-2.724609375E-5,0,0,0,815767,23410,4913,8432,2975,4555,1769,5839,Tag0,unknown
1610799087631,200,-277,-6.0864257812500005E-5,0,0,0,815767,23410,4913,8432,2975,4555,1769,5839,Tag0,unknown
1610799087641,200,19,4.1748046875E-6,0,0,0,815767,23410,4913,8432,2975,4555,1769,5839,Tag0,unknown
1610799087652,200,-294,-6.4599609375E-5,0,0,0,815767,23410,4913,8432,2975,4555,1769,5839,Tag0,unknown
1610799087662,200,-199,-4.3725585937499995E-5,0,0,0,815767,23410,4913,8432,2975,4555,1769,5839,Tag0,unknown
1610799087679,200,-285,-6.26220703125E-5,0,0,0,916499,151402,16761517,31922,22384,14848,6618,6252,Tag0,unknown
1610799087693,200,-369,-8.10791015625E-5,0,0,0,916499,151402,16761517,31922,22384,14848,6618,6252,Tag0,unknown
1610799087723,200,-171,-3.75732421875E-5,0,0,0,916499,151402,16761517,31922,22384,14848,6618,6252,Tag0,unknown
1610799087743,200,-355,-7.80029296875E-5,0,0,0,916499,151402,16761517,31922,22384,14848,6618,6252,Tag0,unknown
1610799087753,200,45,9.8876953125E-6,0,0,0,916499,151402,16761517,31922,22384,14848,6618,6252,Tag0,unknown
1610799087765,200,-93,-2.04345703125E-5,0,0,0,916499,151402,16761517,31922,22384,14848,6618,6252,Tag0,unknown
1610799087775,200,-68,-1.4941406250000001E-5,0,0,0,916499,151402,16761517,31922,22384,14848,6618,6252,Tag0,unknown
1610799087795,200,-39,-8.5693359375E-6,0,0,0,916499,151402,16761517,31922,22384,14848,6618,6252,Tag0,unknown
1610799087811,200,-73,-1.6040039062500002E-5,0,0,0,916499,151402,16761517,31922,22384,14848,6618,6252,Tag0,unknown
1610799087821,200,204,4.4824218749999996E-5,0,0,0,916499,151402,16761517,31922,22384,14848,6618,6252,Tag0,unknown
1610799087832,200,-105,-2.30712890625E-5,0,0,0,916499,151402,16761517,31922,22384,14848,6618,6252,Tag0,unknown
1610799087845,200,85,1.86767578125E-5,0,0,0,916499,151402,16761517,31922,22384,14848,6618,6252,Tag0,unknown
1610799087869,200,-264,-5.80078125E-5,0,0,0,916499,151402,16761517,31922,22384,14848,6618,6252,Tag0,unknown
1610799087879,200,35,7.6904296875E-6,0,0,0,916499,151402,16761517,31922,22384,14848,6618,6252,Tag0,unknown
1610799087889,200,73,1.6040039062500002E-5,0,0,0,916499,151402,16761517,31922,22384,14848,6618,6252,Tag0,unknown
1610799087899,200,107,2.35107421875E-5,0,0,0,916499,151402,16761517,31922,22384,14848,6618,6252,Tag0,unknown
1610799087912,200,-346,-7.6025390625E-5,0,0,0,916499,151402,16761517,31922,22384,14848,6618,6252,Tag0,unknown
1610799087928,200,73,1.6040039062500002E-5,0,0,0,916499,151402,16761517,31922,22384,14848,6618,6252,Tag0,unknown
1610799087945,200,-315,-6.92138671875E-5,0,0,0,916499,151402,16761517,31922,22384,14848,6618,6252,Tag0,unknown
1610799087955,200,-153,-3.3618164062500004E-5,0,0,0,916499,151402,16761517,31922,22384,14848,6618,6252,Tag0,unknown
1610799087965,200,-131,-2.87841796875E-5,0,0,0,916499,151402,16761517,31922,22384,14848,6618,6252,Tag0,unknown
1610799087977,200,74,1.6259765625E-5,0,0,0,916499,151402,16761517,31922,22384,14848,6618,6252,Tag0,unknown
1610799087993,200,-77,-1.69189453125E-5,0,0,0,916499,151402,16761517,31922,22384,14848,6618,6252,Tag0,unknown
1610799088011,200,150,3.2958984375E-5,0,0,0,916499,151402,16761517,31922,22384,14848,6618,6252,Tag0,unknown
1610799088030,200,167,3.6694335937500004E-5,0,0,0,916499,151402,16761517,31922,22384,14848,6618,6252,Tag0,unknown
1610799088044,200,388,8.525390625E-5,0,0,0,916499,151402,16761517,31922,22384,14848,6618,6252,Tag0,unknown
1610799088061,200,197,4.32861328125E-5,0,0,0,916499,151402,16761517,31922,22384,14848,6618,6252,Tag0,unknown
1610799088100,200,291,6.39404296875E-5,0,0,0,916499,151402,16761517,31922,22384,14848,6618,6252,Tag0,unknown
1610799088112,200,-21,-4.614257812500001E-6,0,0,0,916499,151402,16761517,31922,22384,14848,6618,6252,Tag0,unknown
1610799088122,200,-212,-4.6582031250000006E-5,0,0,0,916499,151402,16761517,31922,22384,14848,6618,6252,Tag0,unknown
1610799088136,200,-141,-3.09814453125E-5,0,0,0,916499,151402,16761517,31922,22384,14848,6618,6252,Tag0,unknown
1610799088146,200,-133,-2.92236328125E-5,0,0,0,916499,151402,16761517,31922,22384,14848,6618,6252,Tag0,unknown
1610799088156,200,-273,-5.998535156250001E-5,0,0,0,916499,151402,16761517,31922,22384,14848,6618,6252,Tag0,unknown
1610799088166,200,-523,-1.149169921875E-4,0,0,0,916499,151402,16761517,31922,22384,14848,6618,6252,Tag0,unknown
1610799088177,200,-135,-2.96630859375E-5,0,0,0,916499,151402,16761517,31922,22384,14848,6618,6252,Tag0,unknown
1610799088205,200,-363,-7.97607421875E-5,0,0,0,916499,151402,16761517,31922,22384,14848,6618,6252,Tag0,unknown
1610799088227,200,-123,-2.70263671875E-5,0,0,0,916499,151402,16761517,31922,22384,14848,6618,6252,Tag0,unknown
1610799088258,200,283,6.218261718750001E-5,0,0,0,916499,151402,16761517,31922,22384,14848,6618,6252,Tag0,unknown
1610799088269,200,371,8.151855468750001E-5,0,0,0,916499,151402,16761517,31922,22384,14848,6618,6252,Tag0,unknown
1610799088280,200,-106,-2.3291015625000003E-5,0,0,0,916499,151402,16761517,31922,22384,14848,6618,6252,Tag0,unknown
1610799088290,200,-402,-8.8330078125E-5,0,0,0,916499,151402,16761517,31922,22384,14848,6618,6252,Tag0,unknown
1610799088300,200,-563,-1.237060546875E-4,0,0,0,916499,151402,16761517,31922,22384,14848,6618,6252,Tag0,unknown
1610799088310,200,-312,-6.85546875E-5,0,0,0,916499,151402,16761517,31922,22384,14848,6618,6252,Tag0,unknown
1610799088374,200,-79,-1.7358398437500003E-5,0,0,0,916499,151402,16761517,31922,22384,14848,6618,6252,Tag0,unknown
1610799088394,200,-75,-1.64794921875E-5,0,0,0,916499,151402,16761517,31922,22384,14848,6618,6252,Tag0,unknown
1610799088404,200,-135,-2.96630859375E-5,0,0,0,916499,151402,16761517,31922,22384,14848,6618,6252,Tag0,unknown
1610799088414,200,119,2.6147460937500004E-5,0,0,0,916499,151402,16761517,31922,22384,14848,6618,6252,Tag0,unknown
1610799088428,200,-117,-2.5708007812499998E-5,0,0,0,916499,151402,16761517,31922,22384,14848,6618,6252,Tag0,unknown
1610799088445,200,-51,-1.1206054687499999E-5,0,0,0,916499,151402,16761517,31922,22384,14848,6618,6252,Tag0,unknown
1610799088455,200,297,6.525878906250001E-5,0,0,0,916499,151402,16761517,31922,22384,14848,6618,6252,Tag0,unknown
1610799088465,200,229,5.03173828125E-5,0,0,0,916499,151402,16761517,31922,22384,14848,6618,6252,Tag0,unknown
1610799088487,200,348,7.646484375E-5,0,0,0,916499,151402,16761517,31922,22384,14848,6618,6252,Tag0,unknown
1610799088497,200,294,6.4599609375E-5,0,0,0,916499,151402,16761517,31922,22384,14848,6618,6252,Tag0,unknown
1610799088540,200,-21,-4.614257812500001E-6,0,0,0,916499,151402,16761517,31922,22384,14848,6618,6252,Tag0,unknown
1610799088562,200,-31,-6.8115234375E-6,0,0,0,916499,151402,16761517,31922,22384,14848,6618,6252,Tag0,unknown
1610799088572,200,-15,-3.2958984375E-6,0,0,0,916499,151402,16761517,31922,22384,14848,6618,6252,Tag0,unknown
1610799088582,200,97,2.13134765625E-5,0,0,0,916499,151402,16761517,31922,22384,14848,6618,6252,Tag0,unknown
1610799088596,200,-365,-8.02001953125E-5,0,0,0,916499,151402,16761517,31922,22384,14848,6618,6252,Tag0,unknown
1610799088621,200,-471,-1.0349121093750001E-4,0,0,0,916499,151402,16761517,31922,22384,14848,6618,6252,Tag0,unknown
1610799088631,200,-394,-8.6572265625E-5,0,0,0,916499,151402,16761517,31922,22384,14848,6618,6252,Tag0,unknown
1610799088645,200,-637,-1.399658203125E-4,0,0,0,916499,151402,16761517,31922,22384,14848,6618,6252,Tag0,unknown
1610799088662,200,-476,-1.0458984375000001E-4,0,0,0,916499,151402,16761517,31922,22384,14848,6618,6252,Tag0,unknown
1610799088686,200,-513,-1.127197265625E-4,0,0,0,548510,343024,16770654,71181,77640,16745815,15431,22387,Tag0,unknown
1610799088701,200,-165,-3.62548828125E-5,0,0,0,548510,343024,16770654,71181,77640,16745815,15431,22387,Tag0,unknown
1610799088712,200,-329,-7.229003906250001E-5,0,0,0,548510,343024,16770654,71181,77640,16745815,15431,22387,Tag0,unknown
1610799088755,200,-31,-6.8115234375E-6,0,0,0,548510,343024,16770654,71181,77640,16745815,15431,22387,Tag0,unknown
1610799088765,200,215,4.72412109375E-5,0,0,0,548510,343024,16770654,71181,77640,16745815,15431,22387,Tag0,unknown
1610799088779,200,365,8.02001953125E-5,0,0,0,548510,343024,16770654,71181,77640,16745815,15431,22387,Tag0,unknown
1610799088815,200,594,1.3051757812500002E-4,0,0,0,548510,343024,16770654,71181,77640,16745815,15431,22387,Tag0,unknown
1610799088830,200,614,1.34912109375E-4,0,0,0,548510,343024,16770654,71181,77640,16745815,15431,22387,Tag0,unknown
1610799088840,200,280,6.15234375E-5,0,0,0,548510,343024,16770654,71181,77640,16745815,15431,22387,Tag0,unknown
1610799088872,200,114,2.5048828125000003E-5,0,0,0,548510,343024,16770654,71181,77640,16745815,15431,22387,Tag0,unknown
1610799088882,200,125,2.74658203125E-5,0,0,0,548510,343024,16770654,71181,77640,16745815,15431,22387,Tag0,unknown
1610799088895,200,17,3.7353515625000003E-6,0,0,0,548510,343024,16770654,71181,77640,16745815,15431,22387,Tag0,unknown
1610799088933,200,-130,-2.8564453125E-5,0,0,0,548510,343024,16770654,71181,77640,16745815,15431,22387,Tag0,unknown
1610799088947,200,-133,-2.92236328125E-5,0,0,0,548510,343024,16770654,71181,77640,16745815,15431,22387,Tag0,unknown
1610799088958,200,-129,-2.8344726562500002E-5,0,0,0,548510,343024,16770654,71181,77640,16745815,15431,22387,Tag0,unknown
1610799088968,200,-373,-8.19580078125E-5,0,0,0,548510,343024,16770654,71181,77640,16745815,15431,22387,Tag0,unknown
1610799088991,200,-357,-7.844238281250001E-5,0,0,0,548510,343024,16770654,71181,77640,16745815,15431,22387,Tag0,unknown
1610799089014,200,-371,-8.151855468750001E-5,0,0,0,548510,343024,16770654,71181,77640,16745815,15431,22387,Tag0,unknown
1610799089024,200,45,9.8876953125E-6,0,0,0,548510,343024,16770654,71181,77640,16745815,15431,22387,Tag0,unknown
1610799089034,200,-340,-7.470703125E-5,0,0,0,548510,343024,16770654,71181,77640,16745815,15431,22387,Tag0,unknown
1610799089048,200,84,1.8457031250000004E-5,0,0,0,548510,343024,16770654,71181,77640,16745815,15431,22387,Tag0,unknown
1610799089064,200,115,2.52685546875E-5,0,0,0,548510,343024,16770654,71181,77640,16745815,15431,22387,Tag0,unknown
1610799089074,200,-93,-2.04345703125E-5,0,0,0,548510,343024,16770654,71181,77640,16745815,15431,22387,Tag0,unknown
1610799089090,200,266,5.8447265625E-5,0,0,0,548510,343024,16770654,71181,77640,16745815,15431,22387,Tag0,unknown
1610799089108,200,-117,-2.5708007812499998E-5,0,0,0,548510,343024,16770654,71181,77640,16745815,15431,22387,Tag0,unknown
1610799089118,200,-128,-2.8125E-5,0,0,0,548510,343024,16770654,71181,77640,16745815,15431,22387,Tag0,unknown
1610799089131,200,100,2.197265625E-5,0,0,0,548510,343024,16770654,71181,77640,16745815,15431,22387,Tag0,unknown
1610799089166,200,75,1.64794921875E-5,0,0,0,548510,343024,16770654,71181,77640,16745815,15431,22387,Tag0,unknown
1610799089179,200,75,1.64794921875E-5,0,0,0,548510,343024,16770654,71181,77640,16745815,15431,22387,Tag0,unknown
1610799089196,200,-365,-8.02001953125E-5,0,0,0,548510,343024,16770654,71181,77640,16745815,15431,22387,Tag0,unknown
1610799089213,200,-129,-2.8344726562500002E-5,0,0,0,548510,343024,16770654,71181,77640,16745815,15431,22387,Tag0,unknown
1610799089235,200,-134,-2.9443359375000003E-5,0,0,0,548510,343024,16770654,71181,77640,16745815,15431,22387,Tag0,unknown
1610799089254,200,-273,-5.998535156250001E-5,0,0,0,548510,343024,16770654,71181,77640,16745815,15431,22387,Tag0,unknown
1610799089264,200,-127,-2.79052734375E-5,0,0,0,548510,343024,16770654,71181,77640,16745815,15431,22387,Tag0,unknown
1610799089274,200,40,8.7890625E-6,0,0,0,548510,343024,16770654,71181,77640,16745815,15431,22387,Tag0,unknown
1610799089284,200,-47,-1.0327148437500001E-5,0,0,0,548510,343024,16770654,71181,77640,16745815,15431,22387,Tag0,unknown
1610799089296,200,113,2.48291015625E-5,0,0,0,548510,343024,16770654,71181,77640,16745815,15431,22387,Tag0,unknown
1610799089316,200,-83,-1.82373046875E-5,0,0,0,548510,343024,16770654,71181,77640,16745815,15431,22387,Tag0,unknown
1610799089331,200,-103,-2.26318359375E-5,0,0,0,548510,343024,16770654,71181,77640,16745815,15431,22387,Tag0,unknown
1610799089373,200,39,8.5693359375E-6,0,0,0,548510,343024,16770654,71181,77640,16745815,15431,22387,Tag0,unknown
1610799089388,200,96,2.109375E-5,0,0,0,548510,343024,16770654,71181,77640,16745815,15431,22387,Tag0,unknown
1610799089398,200,-29,-6.3720703125E-6,0,0,0,548510,343024,16770654,71181,77640,16745815,15431,22387,Tag0,unknown
1610799089408,200,28,6.15234375E-6,0,0,0,548510,343024,16770654,71181,77640,16745815,15431,22387,Tag0,unknown
1610799089431,200,-374,-8.2177734375E-5,0,0,0,548510,343024,16770654,71181,77640,16745815,15431,22387,Tag0,unknown
1610799089445,200,-369,-8.10791015625E-5,0,0,0,548510,343024,16770654,71181,77640,16745815,15431,22387,Tag0,unknown
1610799089455,200,-373,-8.19580078125E-5,0,0,0,548510,343024,16770654,71181,77640,16745815,15431,22387,Tag0,unknown
1610799089492,200,3,6.591796875E-7,0,0,0,548510,343024,16770654,71181,77640,16745815,15431,22387,Tag0,unknown
1610799089513,200,4,8.7890625E-7,0,0,0,548510,343024,16770654,71181,77640,16745815,15431,22387,Tag0,unknown
1610799089523,200,55,1.20849609375E-5,0,0,0,548510,343024,16770654,71181,77640,16745815,15431,22387,Tag0,unknown
1610799089552,200,80,1.7578125E-5,0,0,0,548510,343024,16770654,71181,77640,16745815,15431,22387,Tag0,unknown
1610799089563,200,99,2.1752929687500003E-5,0,0,0,548510,343024,16770654,71181,77640,16745815,15431,22387,Tag0,unknown
1610799089573,200,82,1.8017578124999998E-5,0,0,0,548510,343024,16770654,71181,77640,16745815,15431,22387,Tag0,unknown
1610799089583,200,121,2.6586914062500003E-5,0,0,0,548510,343024,16770654,71181,77640,16745815,15431,22387,Tag0,unknown
1610799089596,200,3,6.591796875E-7,0,0,0,548510,343024,16770654,71181,77640,16745815,15431,22387,Tag0,unknown
1610799089621,200,99,2.1752929687500003E-5,0,0,0,548510,343024,16770654,71181,77640,16745815,15431,22387,Tag0,unknown
1610799089631,200,-292,-6.416015625000001E-5,0,0,0,548510,343024,16770654,71181,77640,16745815,15431,22387,Tag0,unknown
1610799089655,200,67,1.4721679687500002E-5,0,0,0,548510,343024,16770654,71181,77640,16745815,15431,22387,Tag0,unknown
1610799089670,200,82,1.8017578124999998E-5,0,0,0,548510,343024,16770654,71181,77640,16745815,15431,22387,Tag0,unknown
1610799089688,200,-327,-7.18505859375E-5,0,0,0,743516,74553,22246,11305,7716,8463,3521,3323,Tag0,unknown
1610799089698,200,46,1.0107421875E-5,0,0,0,743516,74553,22246,11305,7716,8463,3521,3323,Tag0,unknown
1610799089712,200,-274,-6.0205078124999997E-5,0,0,0,743516,74553,22246,11305,7716,8463,3521,3323,Tag0,unknown
1610799089734,200,35,7.6904296875E-6,0,0,0,743516,74553,22246,11305,7716,8463,3521,3323,Tag0,unknown
1610799089746,200,10,2.197265625E-6,0,0,0,743516,74553,22246,11305,7716,8463,3521,3323,Tag0,unknown
1610799089763,200,-290,-6.3720703125E-5,0,0,0,743516,74553,22246,11305,7716,8463,3521,3323,Tag0,unknown
1610799089773,200,75,1.64794921875E-5,0,0,0,743516,74553,22246,11305,7716,8463,3521,3323,Tag0,unknown
1610799089785,200,60,1.318359375E-5,0,0,0,743516,74553,22246,11305,7716,8463,3521,3323,Tag0,unknown
1610799089800,200,51,1.1206054687499999E-5,0,0,0,743516,74553,22246,11305,7716,8463,3521,3323,Tag0,unknown
1610799089817,200,71,1.56005859375E-5,0,0,0,743516,74553,22246,11305,7716,8463,3521,3323,Tag0,unknown
1610799089831,200,11,2.4169921875E-6,0,0,0,743516,74553,22246,11305,7716,8463,3521,3323,Tag0,unknown
1610799089846,200,-85,-1.86767578125E-5,0,0,0,743516,74553,22246,11305,7716,8463,3521,3323,Tag0,unknown
1610799089863,200,116,2.548828125E-5,0,0,0,743516,74553,22246,11305,7716,8463,3521,3323,Tag0,unknown
1610799089891,200,-120,-2.63671875E-5,0,0,0,743516,74553,22246,11305,7716,8463,3521,3323,Tag0,unknown
1610799089901,200,117,2.5708007812499998E-5,0,0,0,743516,74553,22246,11305,7716,8463,3521,3323,Tag0,unknown
1610799089915,200,-20,-4.39453125E-6,0,0,0,743516,74553,22246,11305,7716,8463,3521,3323,Tag0,unknown
1610799089931,200,-66,-1.4501953125E-5,0,0,0,743516,74553,22246,11305,7716,8463,3521,3323,Tag0,unknown
1610799089948,200,116,2.548828125E-5,0,0,0,743516,74553,22246,11305,7716,8463,3521,3323,Tag0,unknown
1610799089964,200,-355,-7.80029296875E-5,0,0,0,743516,74553,22246,11305,7716,8463,3521,3323,Tag0,unknown
1610799089984,200,11,2.4169921875E-6,0,0,0,743516,74553,22246,11305,7716,8463,3521,3323,Tag0,unknown
1610799089994,200,33,7.2509765625E-6,0,0,0,743516,74553,22246,11305,7716,8463,3521,3323,Tag0,unknown
1610799090013,200,113,2.48291015625E-5,0,0,0,743516,74553,22246,11305,7716,8463,3521,3323,Tag0,unknown
1610799090040,200,-277,-6.0864257812500005E-5,0,0,0,743516,74553,22246,11305,7716,8463,3521,3323,Tag0,unknown
1610799090066,200,-337,-7.40478515625E-5,0,0,0,743516,74553,22246,11305,7716,8463,3521,3323,Tag0,unknown
1610799090081,200,85,1.86767578125E-5,0,0,0,743516,74553,22246,11305,7716,8463,3521,3323,Tag0,unknown
1610799090098,200,-309,-6.78955078125E-5,0,0,0,743516,74553,22246,11305,7716,8463,3521,3323,Tag0,unknown
1610799090113,200,-265,-5.82275390625E-5,0,0,0,743516,74553,22246,11305,7716,8463,3521,3323,Tag0,unknown
1610799090130,200,116,2.548828125E-5,0,0,0,743516,74553,22246,11305,7716,8463,3521,3323,Tag0,unknown
1610799090188,200,53,1.1645507812500002E-5,0,0,0,743516,74553,22246,11305,7716,8463,3521,3323,Tag0,unknown
1610799090200,200,41,9.008789062499999E-6,0,0,0,743516,74553,22246,11305,7716,8463,3521,3323,Tag0,unknown
1610799090210,200,-262,-5.7568359375E-5,0,0,0,743516,74553,22246,11305,7716,8463,3521,3323,Tag0,unknown
1610799090220,200,37,8.1298828125E-6,0,0,0,743516,74553,22246,11305,7716,8463,3521,3323,Tag0,unknown
1610799090230,200,-55,-1.20849609375E-5,0,0,0,743516,74553,22246,11305,7716,8463,3521,3323,Tag0,unknown
1610799090250,200,-64,-1.40625E-5,0,0,0,743516,74553,22246,11305,7716,8463,3521,3323,Tag0,unknown
1610799090265,200,-75,-1.64794921875E-5,0,0,0,743516,74553,22246,11305,7716,8463,3521,3323,Tag0,unknown
1610799090275,200,58,1.2744140625E-5,0,0,0,743516,74553,22246,11305,7716,8463,3521,3323,Tag0,unknown
1610799090285,200,-199,-4.3725585937499995E-5,0,0,0,743516,74553,22246,11305,7716,8463,3521,3323,Tag0,unknown
1610799090308,200,-135,-2.96630859375E-5,0,0,0,743516,74553,22246,11305,7716,8463,3521,3323,Tag0,unknown
1610799090330,200,82,1.8017578124999998E-5,0,0,0,743516,74553,22246,11305,7716,8463,3521,3323,Tag0,unknown
1610799090386,200,105,2.30712890625E-5,0,0,0,743516,74553,22246,11305,7716,8463,3521,3323,Tag0,unknown
1610799090400,200,-80,-1.7578125E-5,0,0,0,743516,74553,22246,11305,7716,8463,3521,3323,Tag0,unknown
1610799090503,200,339,7.448730468750001E-5,0,0,0,743516,74553,22246,11305,7716,8463,3521,3323,Tag0,unknown
1610799090527,200,343,7.53662109375E-5,0,0,0,743516,74553,22246,11305,7716,8463,3521,3323,Tag0,unknown
1610799090537,200,-11,-2.4169921875E-6,0,0,0,743516,74553,22246,11305,7716,8463,3521,3323,Tag0,unknown
1610799090547,200,-69,-1.51611328125E-5,0,0,0,743516,74553,22246,11305,7716,8463,3521,3323,Tag0,unknown
1610799090615,200,-110,-2.4169921875E-5,0,0,0,743516,74553,22246,11305,7716,8463,3521,3323,Tag0,unknown
1610799090632,200,-116,-2.548828125E-5,0,0,0,743516,74553,22246,11305,7716,8463,3521,3323,Tag0,unknown
1610799090642,200,-64,-1.40625E-5,0,0,0,743516,74553,22246,11305,7716,8463,3521,3323,Tag0,unknown
1610799090704,200,119,2.6147460937500004E-5,0,0,0,743516,74553,22246,11305,7716,8463,3521,3323,Tag0,unknown
1610799090730,200,-108,-2.3730468750000002E-5,0,0,0,743516,74553,22246,11305,7716,8463,3521,3323,Tag0,unknown
1610799090740,200,-267,-5.86669921875E-5,0,0,0,743516,74553,22246,11305,7716,8463,3521,3323,Tag0,unknown
1610799090768,200,-323,-7.09716796875E-5,0,0,0,743516,74553,22246,11305,7716,8463,3521,3323,Tag0,unknown
1610799090782,200,-309,-6.78955078125E-5,0,0,0,743516,74553,22246,11305,7716,8463,3521,3323,Tag0,unknown
1610799090836,200,-282,-6.1962890625E-5,0,0,0,743516,74553,22246,11305,7716,8463,3521,3323,Tag0,unknown
1610799090851,200,-297,-6.525878906250001E-5,0,0,0,743516,74553,22246,11305,7716,8463,3521,3323,Tag0,unknown
1610799090903,200,11,2.4169921875E-6,0,0,0,743516,74553,22246,11305,7716,8463,3521,3323,Tag0,unknown
1610799090922,200,39,8.5693359375E-6,0,0,0,743516,74553,22246,11305,7716,8463,3521,3323,Tag0,unknown
1610799090971,200,-121,-2.6586914062500003E-5,0,0,0,743516,74553,22246,11305,7716,8463,3521,3323,Tag0,unknown
1610799090984,200,123,2.70263671875E-5,0,0,0,743516,74553,22246,11305,7716,8463,3521,3323,Tag0,unknown
1610799090994,200,92,2.021484375E-5,0,0,0,743516,74553,22246,11305,7716,8463,3521,3323,Tag0,unknown
1610799091004,200,-279,-6.13037109375E-5,0,0,0,743516,74553,22246,11305,7716,8463,3521,3323,Tag0,unknown
1610799091018,200,11,2.4169921875E-6,0,0,0,743516,74553,22246,11305,7716,8463,3521,3323,Tag0,unknown
1610799091036,200,7,1.5380859375E-6,0,0,0,743516,74553,22246,11305,7716,8463,3521,3323,Tag0,unknown
1610799091046,200,121,2.6586914062500003E-5,0,0,0,743516,74553,22246,11305,7716,8463,3521,3323,Tag0,unknown
1610799091056,200,-280,-6.15234375E-5,0,0,0,743516,74553,22246,11305,7716,8463,3521,3323,Tag0,unknown
1610799091066,200,-137,-3.0102539062499998E-5,0,0,0,743516,74553,22246,11305,7716,8463,3521,3323,Tag0,unknown
1610799091083,200,9,1.9775390625E-6,0,0,0,743516,74553,22246,11305,7716,8463,3521,3323,Tag0,unknown
1610799091098,200,-263,-5.7788085937500005E-5,0,0,0,743516,74553,22246,11305,7716,8463,3521,3323,Tag0,unknown
1610799091140,200,-345,-7.58056640625E-5,0,0,0,743516,74553,22246,11305,7716,8463,3521,3323,Tag0,unknown
1610799091150,200,-354,-7.778320312500001E-5,0,0,0,743516,74553,22246,11305,7716,8463,3521,3323,Tag0,unknown
1610799091201,200,97,2.13134765625E-5,0,0,0,743516,74553,22246,11305,7716,8463,3521,3323,Tag0,unknown
1610799091221,200,82,1.8017578124999998E-5,0,0,0,743516,74553,22246,11305,7716,8463,3521,3323,Tag0,unknown
1610799091231,200,-123,-2.70263671875E-5,0,0,0,743516,74553,22246,11305,7716,8463,3521,3323,Tag0,unknown
1610799091241,200,-61,-1.34033203125E-5,0,0,0,743516,74553,22246,11305,7716,8463,3521,3323,Tag0,unknown
1610799091251,200,-55,-1.20849609375E-5,0,0,0,743516,74553,22246,11305,7716,8463,3521,3323,Tag0,unknown
1610799091273,200,121,2.6586914062500003E-5,0,0,0,743516,74553,22246,11305,7716,8463,3521,3323,Tag0,unknown
1610799091284,200,98,2.1533203125E-5,0,0,0,743516,74553,22246,11305,7716,8463,3521,3323,Tag0,unknown
1610799091294,200,80,1.7578125E-5,0,0,0,743516,74553,22246,11305,7716,8463,3521,3323,Tag0,unknown
1610799091323,200,26,5.712890625E-6,0,0,0,743516,74553,22246,11305,7716,8463,3521,3323,Tag0,unknown
1610799091335,200,-262,-5.7568359375E-5,0,0,0,743516,74553,22246,11305,7716,8463,3521,3323,Tag0,unknown
1610799091345,200,87,1.91162109375E-5,0,0,0,743516,74553,22246,11305,7716,8463,3521,3323,Tag0,unknown
1610799091356,200,-311,-6.833496093750001E-5,0,0,0,743516,74553,22246,11305,7716,8463,3521,3323,Tag0,unknown
1610799091390,200,41,9.008789062499999E-6,0,0,0,743516,74553,22246,11305,7716,8463,3521,3323,Tag0,unknown
1610799091400,200,73,1.6040039062500002E-5,0,0,0,743516,74553,22246,11305,7716,8463,3521,3323,Tag0,unknown
1610799091416,200,-259,-5.69091796875E-5,0,0,0,743516,74553,22246,11305,7716,8463,3521,3323,Tag0,unknown
1610799091435,200,-102,-2.2412109374999998E-5,0,0,0,743516,74553,22246,11305,7716,8463,3521,3323,Tag0,unknown
1610799091450,200,88,1.93359375E-5,0,0,0,743516,74553,22246,11305,7716,8463,3521,3323,Tag0,unknown
1610799091470,200,-96,-2.109375E-5,0,0,0,743516,74553,22246,11305,7716,8463,3521,3323,Tag0,unknown
1610799091485,200,119,2.6147460937500004E-5,0,0,0,743516,74553,22246,11305,7716,8463,3521,3323,Tag0,unknown
1610799091495,200,126,2.7685546875E-5,0,0,0,743516,74553,22246,11305,7716,8463,3521,3323,Tag0,unknown
1610799091512,200,-43,-9.448242187500001E-6,0,0,0,743516,74553,22246,11305,7716,8463,3521,3323,Tag0,unknown
1610799091522,200,-77,-1.69189453125E-5,0,0,0,743516,74553,22246,11305,7716,8463,3521,3323,Tag0,unknown
1610799091535,200,65,1.42822265625E-5,0,0,0,743516,74553,22246,11305,7716,8463,3521,3323,Tag0,unknown
1610799091552,200,37,8.1298828125E-6,0,0,0,743516,74553,22246,11305,7716,8463,3521,3323,Tag0,unknown
1610799091562,200,23,5.0537109375E-6,0,0,0,743516,74553,22246,11305,7716,8463,3521,3323,Tag0,unknown
1610799091572,200,-297,-6.525878906250001E-5,0,0,0,743516,74553,22246,11305,7716,8463,3521,3323,Tag0,unknown
1610799091583,200,-301,-6.613769531250001E-5,0,0,0,743516,74553,22246,11305,7716,8463,3521,3323,Tag0,unknown
1610799091599,200,-291,-6.39404296875E-5,0,0,0,743516,74553,22246,11305,7716,8463,3521,3323,Tag0,unknown
1610799091618,200,-285,-6.26220703125E-5,0,0,0,743516,74553,22246,11305,7716,8463,3521,3323,Tag0,unknown
1610799091634,200,-274,-6.0205078124999997E-5,0,0,0,743516,74553,22246,11305,7716,8463,3521,3323,Tag0,unknown
1610799091670,200,-289,-6.35009765625E-5,0,0,0,398695,16756929,9634,11293,10766,6083,5095,4498,Tag0,unknown
1610799091693,200,-112,-2.4609375E-5,0,0,0,398695,16756929,9634,11293,10766,6083,5095,4498,Tag0,unknown
1610799091703,200,-93,-2.04345703125E-5,0,0,0,398695,16756929,9634,11293,10766,6083,5095,4498,Tag0,unknown
1610799091757,200,-59,-1.29638671875E-5,0,0,0,398695,16756929,9634,11293,10766,6083,5095,4498,Tag0,unknown
1610799091767,200,121,2.6586914062500003E-5,0,0,0,398695,16756929,9634,11293,10766,6083,5095,4498,Tag0,unknown
1610799091783,200,74,1.6259765625E-5,0,0,0,398695,16756929,9634,11293,10766,6083,5095,4498,Tag0,unknown
1610799091811,200,28,6.15234375E-6,0,0,0,398695,16756929,9634,11293,10766,6083,5095,4498,Tag0,unknown
1610799091833,200,-273,-5.998535156250001E-5,0,0,0,398695,16756929,9634,11293,10766,6083,5095,4498,Tag0,unknown
1610799091870,200,-327,-7.18505859375E-5,0,0,0,398695,16756929,9634,11293,10766,6083,5095,4498,Tag0,unknown
1610799091885,200,-293,-6.43798828125E-5,0,0,0,398695,16756929,9634,11293,10766,6083,5095,4498,Tag0,unknown
1610799091895,200,54,1.1865234375000001E-5,0,0,0,398695,16756929,9634,11293,10766,6083,5095,4498,Tag0,unknown
1610799091905,200,103,2.26318359375E-5,0,0,0,398695,16756929,9634,11293,10766,6083,5095,4498,Tag0,unknown
1610799091932,200,-117,-2.5708007812499998E-5,0,0,0,398695,16756929,9634,11293,10766,6083,5095,4498,Tag0,unknown
1610799091953,200,-104,-2.28515625E-5,0,0,0,398695,16756929,9634,11293,10766,6083,5095,4498,Tag0,unknown
1610799091963,200,-48,-1.0546875E-5,0,0,0,398695,16756929,9634,11293,10766,6083,5095,4498,Tag0,unknown
1610799091983,200,109,2.39501953125E-5,0,0,0,398695,16756929,9634,11293,10766,6083,5095,4498,Tag0,unknown
1610799092002,200,-127,-2.79052734375E-5,0,0,0,398695,16756929,9634,11293,10766,6083,5095,4498,Tag0,unknown
1610799092012,200,41,9.008789062499999E-6,0,0,0,398695,16756929,9634,11293,10766,6083,5095,4498,Tag0,unknown
1610799092043,200,41,9.008789062499999E-6,0,0,0,398695,16756929,9634,11293,10766,6083,5095,4498,Tag0,unknown
1610799092053,200,69,1.51611328125E-5,0,0,0,398695,16756929,9634,11293,10766,6083,5095,4498,Tag0,unknown
1610799092063,200,73,1.6040039062500002E-5,0,0,0,398695,16756929,9634,11293,10766,6083,5095,4498,Tag0,unknown
1610799092073,200,-283,-6.218261718750001E-5,0,0,0,398695,16756929,9634,11293,10766,6083,5095,4498,Tag0,unknown
1610799092098,200,-125,-2.74658203125E-5,0,0,0,398695,16756929,9634,11293,10766,6083,5095,4498,Tag0,unknown
1610799092117,200,-267,-5.86669921875E-5,0,0,0,398695,16756929,9634,11293,10766,6083,5095,4498,Tag0,unknown
1610799092134,200,44,9.66796875E-6,0,0,0,398695,16756929,9634,11293,10766,6083,5095,4498,Tag0,unknown
1610799092153,200,-265,-5.82275390625E-5,0,0,0,398695,16756929,9634,11293,10766,6083,5095,4498,Tag0,unknown
1610799092163,200,-277,-6.0864257812500005E-5,0,0,0,398695,16756929,9634,11293,10766,6083,5095,4498,Tag0,unknown
1610799092174,200,-299,-6.56982421875E-5,0,0,0,398695,16756929,9634,11293,10766,6083,5095,4498,Tag0,unknown
1610799092187,200,25,5.4931640625E-6,0,0,0,398695,16756929,9634,11293,10766,6083,5095,4498,Tag0,unknown
1610799092203,200,-260,-5.712890625E-5,0,0,0,398695,16756929,9634,11293,10766,6083,5095,4498,Tag0,unknown
1610799092244,200,-310,-6.8115234375E-5,0,0,0,398695,16756929,9634,11293,10766,6083,5095,4498,Tag0,unknown
1610799092254,200,-308,-6.767578125E-5,0,0,0,398695,16756929,9634,11293,10766,6083,5095,4498,Tag0,unknown
1610799092271,200,4,8.7890625E-7,0,0,0,398695,16756929,9634,11293,10766,6083,5095,4498,Tag0,unknown
1610799092281,200,93,2.04345703125E-5,0,0,0,398695,16756929,9634,11293,10766,6083,5095,4498,Tag0,unknown
1610799092304,200,-109,-2.39501953125E-5,0,0,0,398695,16756929,9634,11293,10766,6083,5095,4498,Tag0,unknown
1610799092318,200,-87,-1.91162109375E-5,0,0,0,398695,16756929,9634,11293,10766,6083,5095,4498,Tag0,unknown
1610799092361,200,70,1.5380859375E-5,0,0,0,398695,16756929,9634,11293,10766,6083,5095,4498,Tag0,unknown
1610799092372,200,36,7.91015625E-6,0,0,0,398695,16756929,9634,11293,10766,6083,5095,4498,Tag0,unknown
1610799092382,200,-54,-1.1865234375000001E-5,0,0,0,398695,16756929,9634,11293,10766,6083,5095,4498,Tag0,unknown
1610799092394,200,49,1.07666015625E-5,0,0,0,398695,16756929,9634,11293,10766,6083,5095,4498,Tag0,unknown
1610799092404,200,73,1.6040039062500002E-5,0,0,0,398695,16756929,9634,11293,10766,6083,5095,4498,Tag0,unknown
1610799092416,200,113,2.48291015625E-5,0,0,0,398695,16756929,9634,11293,10766,6083,5095,4498,Tag0,unknown
1610799092434,200,-126,-2.7685546875E-5,0,0,0,398695,16756929,9634,11293,10766,6083,5095,4498,Tag0,unknown
1610799092455,200,99,2.1752929687500003E-5,0,0,0,398695,16756929,9634,11293,10766,6083,5095,4498,Tag0,unknown
