timestampMs,poorSignal,eegRawValue,eegRawValueVolts,attention,meditation,blinkStrength,delta,theta,alphaLow,alphaHigh,betaLow,betaHigh,gammaLow,gammaMid,tagEvent,location
1605697425386,51,905,1.988525390625E-4,57,57,46,571671,16769203,29632,16751,16746258,15222,11203,7638,Tag0,unknown
1605697425401,51,676,1.4853515624999999E-4,57,57,46,571671,16769203,29632,16751,16746258,15222,11203,7638,Tag0,unknown
1605697425411,51,516,1.1337890625000001E-4,57,57,46,571671,16769203,29632,16751,16746258,15222,11203,7638,Tag0,unknown
1605697425426,51,380,8.349609375E-5,57,57,46,571671,16769203,29632,16751,16746258,15222,11203,7638,Tag0,unknown
1605697425436,51,291,6.39404296875E-5,57,57,46,571671,16769203,29632,16751,16746258,15222,11203,7638,Tag0,unknown
1605697425459,51,260,5.712890625E-5,57,57,46,571671,16769203,29632,16751,16746258,15222,11203,7638,Tag0,unknown
1605697425469,51,259,5.69091796875E-5,57,57,46,571671,16769203,29632,16751,16746258,15222,11203,7638,Tag0,unknown
1605697425479,51,-110,-2.4169921875E-5,57,57,46,571671,16769203,29632,16751,16746258,15222,11203,7638,Tag0,unknown
1605697425497,51,89,1.95556640625E-5,57,57,46,571671,16769203,29632,16751,16746258,15222,11203,7638,Tag0,unknown
1605697425517,51,67,1.4721679687500002E-5,57,57,46,571671,16769203,29632,16751,16746258,15222,11203,7638,Tag0,unknown
1605697425533,51,28,6.15234375E-6,57,57,46,571671,16769203,29632,16751,16746258,15222,11203,7638,Tag0,unknown
1605697425549,51,19,4.1748046875E-6,57,57,46,571671,16769203,29632,16751,16746258,15222,11203,7638,Tag0,unknown
1605697425571,51,116,2.548828125E-5,57,57,46,571671,16769203,29632,16751,16746258,15222,11203,7638,Tag0,unknown
1605697425583,51,-102,-2.2412109374999998E-5,57,57,46,571671,16769203,29632,16751,16746258,15222,11203,7638,Tag0,unknown
1605697425605,51,353,7.75634765625E-5,57,57,46,571671,16769203,29632,16751,16746258,15222,11203,7638,Tag0,unknown
1605697425617,51,346,7.6025390625E-5,57,57,46,571671,16769203,29632,16751,16746258,15222,11203,7638,Tag0,unknown
1605697425627,51,-67,-1.4721679687500002E-5,57,57,46,571671,16769203,29632,16751,16746258,15222,11203,7638,Tag0,unknown
1605697425643,51,-71,-1.56005859375E-5,57,57,46,571671,16769203,29632,16751,16746258,15222,11203,7638,Tag0,unknown
1605697425653,51,-90,-1.9775390625E-5,57,57,46,571671,16769203,29632,16751,16746258,15222,11203,7638,Tag0,unknown
1605697425677,51,-110,-2.4169921875E-5,57,57,46,571671,16769203,29632,16751,16746258,15222,11203,7638,Tag0,unknown
1605697425687,51,-377,-8.28369140625E-5,57,57,46,571671,16769203,29632,16751,16746258,15222,11203,7638,Tag0,unknown
1605697425702,51,-2048,-4.5E-4,57,57,46,571671,16769203,29632,16751,16746258,15222,11203,7638,Tag0,unknown
1605697425720,51,-2048,-4.5E-4,57,57,46,571671,16769203,29632,16751,16746258,15222,11203,7638,Tag0,unknown
1605697425734,51,-2048,-4.5E-4,57,57,46,571671,16769203,29632,16751,16746258,15222,11203,7638,Tag0,unknown
1605697425756,51,-1987,-4.365966796875E-4,57,57,46,571671,16769203,29632,16751,16746258,15222,11203,7638,Tag0,unknown
1605697425769,51,-2174,-4.7768554687500003E-4,57,57,46,571671,16769203,29632,16751,16746258,15222,11203,7638,Tag0,unknown
1605697425779,51,-979,-2.151123046875E-4,57,57,46,571671,16769203,29632,16751,16746258,15222,11203,7638,Tag0,unknown
1605697425790,51,-868,-1.9072265625E-4,57,57,46,571671,16769203,29632,16751,16746258,15222,11203,7638,Tag0,unknown
1605697425801,51,-775,-1.702880859375E-4,57,57,46,571671,16769203,29632,16751,16746258,15222,11203,7638,Tag0,unknown
1605697425820,51,-370,-8.1298828125E-5,57,57,46,571671,16769203,29632,16751,16746258,15222,11203,7638,Tag0,unknown
1605697425834,51,329,7.229003906250001E-5,57,57,46,571671,16769203,29632,16751,16746258,15222,11203,7638,Tag0,unknown
1605697425864,51,164,3.6035156249999995E-5,57,57,46,571671,16769203,29632,16751,16746258,15222,11203,7638,Tag0,unknown
1605697425885,51,254,5.5810546875E-5,57,57,46,571671,16769203,29632,16751,16746258,15222,11203,7638,Tag0,unknown
1605697425902,51,169,3.7133789062499996E-5,57,57,46,571671,16769203,29632,16751,16746258,15222,11203,7638,Tag0,unknown
1605697425912,51,518,1.13818359375E-4,57,57,46,1113624,169301,17742,16750896,14970,31341,5603,926,Tag0,unknown
1605697425925,51,480,1.0546875E-4,57,57,46,1113624,169301,17742,16750896,14970,31341,5603,926,Tag0,unknown
1605697425935,51,461,1.0129394531250001E-4,57,57,46,1113624,169301,17742,16750896,14970,31341,5603,926,Tag0,unknown
1605697425952,51,600,1.318359375E-4,57,57,46,1113624,169301,17742,16750896,14970,31341,5603,926,Tag0,unknown
1605697425962,51,73,1.6040039062500002E-5,57,57,46,1113624,169301,17742,16750896,14970,31341,5603,926,Tag0,unknown
1605697425972,51,-89,-1.95556640625E-5,57,57,46,1113624,169301,17742,16750896,14970,31341,5603,926,Tag0,unknown
1605697426003,51,149,3.27392578125E-5,57,57,46,1113624,169301,17742,16750896,14970,31341,5603,926,Tag0,unknown
1605697426018,51,133,2.92236328125E-5,57,57,46,1113624,169301,17742,16750896,14970,31341,5603,926,Tag0,unknown
1605697426037,51,523,1.149169921875E-4,57,57,46,1113624,169301,17742,16750896,14970,31341,5603,926,Tag0,unknown
1605697426053,51,537,1.179931640625E-4,57,57,46,1113624,169301,17742,16750896,14970,31341,5603,926,Tag0,unknown
1605697426063,51,235,5.16357421875E-5,57,57,46,1113624,169301,17742,16750896,14970,31341,5603,926,Tag0,unknown
1605697426076,51,445,9.77783203125E-5,57,57,46,1113624,169301,17742,16750896,14970,31341,5603,926,Tag0,unknown
1605697426111,51,363,7.97607421875E-5,57,57,46,1113624,169301,17742,16750896,14970,31341,5603,926,Tag0,unknown
1605697426121,51,-13,-2.8564453125E-6,57,57,46,1113624,169301,17742,16750896,14970,31341,5603,926,Tag0,unknown
1605697426147,51,-299,-6.56982421875E-5,57,57,46,1113624,169301,17742,16750896,14970,31341,5603,926,Tag0,unknown
1605697426181,51,-275,-6.04248046875E-5,57,57,46,1113624,169301,17742,16750896,14970,31341,5603,926,Tag0,unknown
1605697426191,51,109,2.39501953125E-5,57,57,46,1113624,169301,17742,16750896,14970,31341,5603,926,Tag0,unknown
1605697426209,51,363,7.97607421875E-5,57,57,46,1113624,169301,17742,16750896,14970,31341,5603,926,Tag0,unknown
1605697426219,51,273,5.998535156250001E-5,57,57,46,1113624,169301,17742,16750896,14970,31341,5603,926,Tag0,unknown
1605697426236,51,342,7.5146484375E-5,57,57,46,1113624,169301,17742,16750896,14970,31341,5603,926,Tag0,unknown
1605697426267,51,373,8.19580078125E-5,57,57,46,1113624,169301,17742,16750896,14970,31341,5603,926,Tag0,unknown
1605697426286,51,282,6.1962890625E-5,57,57,46,1113624,169301,17742,16750896,14970,31341,5603,926,Tag0,unknown
1605697426303,51,-35,-7.6904296875E-6,57,57,46,1113624,169301,17742,16750896,14970,31341,5603,926,Tag0,unknown
1605697426319,51,-121,-2.6586914062500003E-5,57,57,46,1113624,169301,17742,16750896,14970,31341,5603,926,Tag0,unknown
1605697426343,51,57,1.2524414062500001E-5,57,57,46,1113624,169301,17742,16750896,14970,31341,5603,926,Tag0,unknown
1605697426353,51,9,1.9775390625E-6,57,57,46,1113624,169301,17742,16750896,14970,31341,5603,926,Tag0,unknown
1605697426376,51,-854,-1.8764648437500001E-4,57,57,46,1113624,169301,17742,16750896,14970,31341,5603,926,Tag0,unknown
1605697426387,51,-1034,-2.27197265625E-4,57,57,46,1113624,169301,17742,16750896,14970,31341,5603,926,Tag0,unknown
1605697426413,51,-534,-1.17333984375E-4,57,57,46,1113624,169301,17742,16750896,14970,31341,5603,926,Tag0,unknown
1605697426423,51,-151,-3.31787109375E-5,57,57,46,1113624,169301,17742,16750896,14970,31341,5603,926,Tag0,unknown
1605697426447,51,-295,-6.48193359375E-5,57,57,46,1113624,169301,17742,16750896,14970,31341,5603,926,Tag0,unknown
1605697426457,51,-257,-5.64697265625E-5,57,57,46,1113624,169301,17742,16750896,14970,31341,5603,926,Tag0,unknown
1605697426485,51,-201,-4.41650390625E-5,57,57,46,1113624,169301,17742,16750896,14970,31341,5603,926,Tag0,unknown
1605697426503,51,-185,-4.06494140625E-5,57,57,46,1113624,169301,17742,16750896,14970,31341,5603,926,Tag0,unknown
1605697426522,51,105,2.30712890625E-5,57,57,46,1113624,169301,17742,16750896,14970,31341,5603,926,Tag0,unknown
1605697426539,51,108,2.3730468750000002E-5,57,57,46,1113624,169301,17742,16750896,14970,31341,5603,926,Tag0,unknown
1605697426549,51,-717,-1.5754394531250002E-4,57,57,46,1113624,169301,17742,16750896,14970,31341,5603,926,Tag0,unknown
1605697426560,51,-1100,-2.4169921875E-4,57,57,46,1113624,169301,17742,16750896,14970,31341,5603,926,Tag0,unknown
1605697426592,51,-1268,-2.7861328125E-4,57,57,46,1113624,169301,17742,16750896,14970,31341,5603,926,Tag0,unknown
1605697426605,51,-1544,-3.3925781250000004E-4,57,57,46,1113624,169301,17742,16750896,14970,31341,5603,926,Tag0,unknown
1605697426632,51,-797,-1.751220703125E-4,57,57,46,1113624,169301,17742,16750896,14970,31341,5603,926,Tag0,unknown
1605697426642,51,797,1.751220703125E-4,57,57,46,1113624,169301,17742,16750896,14970,31341,5603,926,Tag0,unknown
1605697426665,51,1085,2.384033203125E-4,57,57,46,1113624,169301,17742,16750896,14970,31341,5603,926,Tag0,unknown
1605697426675,51,1791,3.935302734375E-4,57,57,46,1113624,169301,17742,16750896,14970,31341,5603,926,Tag0,unknown
1605697426687,51,1791,3.935302734375E-4,57,57,46,1113624,169301,17742,16750896,14970,31341,5603,926,Tag0,unknown
1605697426713,51,1791,3.935302734375E-4,57,57,46,1113624,169301,17742,16750896,14970,31341,5603,926,Tag0,unknown
1605697426723,51,1720,3.779296875E-4,57,57,46,1113624,169301,17742,16750896,14970,31341,5603,926,Tag0,unknown
1605697426752,51,1127,2.476318359375E-4,57,57,46,1113624,169301,17742,16750896,14970,31341,5603,926,Tag0,unknown
1605697426771,51,1091,2.397216796875E-4,57,57,46,1113624,169301,17742,16750896,14970,31341,5603,926,Tag0,unknown
1605697426788,51,507,1.1140136718750001E-4,57,57,46,1113624,169301,17742,16750896,14970,31341,5603,926,Tag0,unknown
1605697426804,51,553,1.215087890625E-4,57,57,46,1113624,169301,17742,16750896,14970,31341,5603,926,Tag0,unknown
1605697426827,51,352,7.734375E-5,57,57,46,1113624,169301,17742,16750896,14970,31341,5603,926,Tag0,unknown
1605697426854,51,291,6.39404296875E-5,57,57,46,1113624,169301,17742,16750896,14970,31341,5603,926,Tag0,unknown
1605697426872,51,-51,-1.1206054687499999E-5,57,57,46,1113624,169301,17742,16750896,14970,31341,5603,926,Tag0,unknown
1605697426882,51,73,1.6040039062500002E-5,57,57,46,1113624,169301,17742,16750896,14970,31341,5603,926,Tag0,unknown
1605697426899,51,98,2.1533203125E-5,57,57,46,1113624,169301,17742,16750896,14970,31341,5603,926,Tag0,unknown
1605697426913,51,94,2.0654296875000002E-5,57,57,46,1113624,169301,17742,16750896,14970,31341,5603,926,Tag0,unknown
1605697426923,51,-56,-1.23046875E-5,57,57,46,267576,16853,1842,4018,3792,4541,797,313,Tag0,unknown
1605697426944,51,-19,-4.1748046875E-6,57,57,46,267576,16853,1842,4018,3792,4541,797,313,Tag0,unknown
1605697426955,51,-6,-1.318359375E-6,57,57,46,267576,16853,1842,4018,3792,4541,797,313,Tag0,unknown
1605697426978,51,-55,-1.20849609375E-5,57,57,46,267576,16853,1842,4018,3792,4541,797,313,Tag0,unknown
1605697426989,51,-63,-1.38427734375E-5,57,57,46,267576,16853,1842,4018,3792,4541,797,313,Tag0,unknown
1605697427014,51,113,2.48291015625E-5,57,57,46,267576,16853,1842,4018,3792,4541,797,313,Tag0,unknown
1605697427024,51,-282,-6.1962890625E-5,57,57,46,267576,16853,1842,4018,3792,4541,797,313,Tag0,unknown
1605697427047,51,-1946,-4.27587890625E-4,57,57,46,267576,16853,1842,4018,3792,4541,797,313,Tag0,unknown
1605697427057,51,-2048,-4.5E-4,57,57,46,267576,16853,1842,4018,3792,4541,797,313,Tag0,unknown
1605697427086,51,-2093,-4.5988769531250004E-4,57,57,46,267576,16853,1842,4018,3792,4541,797,313,Tag0,unknown
1605697427105,51,-1733,-3.807861328125E-4,57,57,46,267576,16853,1842,4018,3792,4541,797,313,Tag0,unknown
1605697427123,51,-985,-2.164306640625E-4,57,57,46,267576,16853,1842,4018,3792,4541,797,313,Tag0,unknown
1605697427140,51,-219,-4.81201171875E-5,57,57,46,267576,16853,1842,4018,3792,4541,797,313,Tag0,unknown
1605697427160,51,-74,-1.6259765625E-5,57,57,46,267576,16853,1842,4018,3792,4541,797,313,Tag0,unknown
1605697427186,51,-63,-1.38427734375E-5,57,57,46,267576,16853,1842,4018,3792,4541,797,313,Tag0,unknown
1605697427206,51,-108,-2.3730468750000002E-5,57,57,46,267576,16853,1842,4018,3792,4541,797,313,Tag0,unknown
1605697427216,51,256,5.625E-5,57,57,46,267576,16853,1842,4018,3792,4541,797,313,Tag0,unknown
1605697427249,51,433,9.51416015625E-5,57,57,46,267576,16853,1842,4018,3792,4541,797,313,Tag0,unknown
1605697427259,51,519,1.140380859375E-4,57,57,46,267576,16853,1842,4018,3792,4541,797,313,Tag0,unknown
1605697427286,51,-280,-6.15234375E-5,57,57,46,267576,16853,1842,4018,3792,4541,797,313,Tag0,unknown
1605697427322,51,-111,-2.43896484375E-5,57,57,46,267576,16853,1842,4018,3792,4541,797,313,Tag0,unknown
1605697427340,51,258,5.6689453125000004E-5,57,57,46,267576,16853,1842,4018,3792,4541,797,313,Tag0,unknown
1605697427350,51,132,2.900390625E-5,57,57,46,267576,16853,1842,4018,3792,4541,797,313,Tag0,unknown
1605697427362,51,369,8.10791015625E-5,57,57,46,267576,16853,1842,4018,3792,4541,797,313,Tag0,unknown
1605697427375,51,551,1.210693359375E-4,57,57,46,267576,16853,1842,4018,3792,4541,797,313,Tag0,unknown
1605697427395,51,562,1.23486328125E-4,57,57,46,267576,16853,1842,4018,3792,4541,797,313,Tag0,unknown
1605697427407,51,210,4.6142578125E-5,57,57,46,267576,16853,1842,4018,3792,4541,797,313,Tag0,unknown
1605697427429,51,-61,-1.34033203125E-5,57,57,46,267576,16853,1842,4018,3792,4541,797,313,Tag0,unknown
1605697427440,51,-73,-1.6040039062500002E-5,57,57,46,267576,16853,1842,4018,3792,4541,797,313,Tag0,unknown
1605697427463,51,52,1.142578125E-5,57,57,46,267576,16853,1842,4018,3792,4541,797,313,Tag0,unknown
1605697427473,51,-261,-5.73486328125E-5,57,57,46,267576,16853,1842,4018,3792,4541,797,313,Tag0,unknown
1605697427499,51,41,9.008789062499999E-6,57,57,46,267576,16853,1842,4018,3792,4541,797,313,Tag0,unknown
1605697427509,51,-279,-6.13037109375E-5,57,57,46,267576,16853,1842,4018,3792,4541,797,313,Tag0,unknown
1605697427532,51,-111,-2.43896484375E-5,57,57,46,267576,16853,1842,4018,3792,4541,797,313,Tag0,unknown
1605697427542,51,-111,-2.43896484375E-5,57,57,46,267576,16853,1842,4018,3792,4541,797,313,Tag0,unknown
1605697427574,51,545,1.197509765625E-4,57,57,46,267576,16853,1842,4018,3792,4541,797,313,Tag0,unknown
1605697427591,51,541,1.1887207031250001E-4,57,57,46,267576,16853,1842,4018,3792,4541,797,313,Tag0,unknown
1605697427622,51,198,4.3505859375000006E-5,57,57,46,267576,16853,1842,4018,3792,4541,797,313,Tag0,unknown
1605697427642,51,195,4.28466796875E-5,57,57,46,267576,16853,1842,4018,3792,4541,797,313,Tag0,unknown
1605697427659,51,-94,-2.0654296875000002E-5,57,57,46,267576,16853,1842,4018,3792,4541,797,313,Tag0,unknown
1605697427676,51,-47,-1.0327148437500001E-5,57,57,46,267576,16853,1842,4018,3792,4541,797,313,Tag0,unknown
1605697427686,51,123,2.70263671875E-5,57,57,46,267576,16853,1842,4018,3792,4541,797,313,Tag0,unknown
1605697427696,51,97,2.13134765625E-5,57,57,46,267576,16853,1842,4018,3792,4541,797,313,Tag0,unknown
1605697427709,51,40,8.7890625E-6,57,57,46,267576,16853,1842,4018,3792,4541,797,313,Tag0,unknown
1605697427729,51,-577,-1.2678222656250002E-4,57,57,46,267576,16853,1842,4018,3792,4541,797,313,Tag0,unknown
1605697427743,51,-598,-1.31396484375E-4,57,57,46,267576,16853,1842,4018,3792,4541,797,313,Tag0,unknown
1605697427753,51,-552,-1.212890625E-4,57,57,46,267576,16853,1842,4018,3792,4541,797,313,Tag0,unknown
1605697427768,51,-376,-8.261718750000001E-5,57,57,46,267576,16853,1842,4018,3792,4541,797,313,Tag0,unknown
1605697427780,51,49,1.07666015625E-5,57,57,46,267576,16853,1842,4018,3792,4541,797,313,Tag0,unknown
1605697427803,51,265,5.82275390625E-5,57,57,46,267576,16853,1842,4018,3792,4541,797,313,Tag0,unknown
1605697427813,51,-68,-1.4941406250000001E-5,57,57,46,267576,16853,1842,4018,3792,4541,797,313,Tag0,unknown
1605697427839,51,73,1.6040039062500002E-5,57,57,46,267576,16853,1842,4018,3792,4541,797,313,Tag0,unknown
1605697427858,51,86,1.8896484375000003E-5,57,57,46,267576,16853,1842,4018,3792,4541,797,313,Tag0,unknown
1605697427876,51,51,1.1206054687499999E-5,57,57,46,267576,16853,1842,4018,3792,4541,797,313,Tag0,unknown
1605697427894,51,23,5.0537109375E-6,57,57,46,267576,16853,1842,4018,3792,4541,797,313,Tag0,unknown
1605697427917,25,80,1.7578125E-5,57,57,46,2731475,183920,3846,16748500,16760552,16757363,21218,1689,Tag0,unknown
1605697427929,25,24,5.2734375E-6,57,57,46,2731475,183920,3846,16748500,16760552,16757363,21218,1689,Tag0,unknown
1605697427952,25,-301,-6.613769531250001E-5,57,57,46,2731475,183920,3846,16748500,16760552,16757363,21218,1689,Tag0,unknown
1605697427962,25,-266,-5.8447265625E-5,57,57,46,2731475,183920,3846,16748500,16760552,16757363,21218,1689,Tag0,unknown
1605697427986,25,-168,-3.691406250000001E-5,57,57,46,2731475,183920,3846,16748500,16760552,16757363,21218,1689,Tag0,unknown
1605697427996,25,-155,-3.40576171875E-5,57,57,46,2731475,183920,3846,16748500,16760552,16757363,21218,1689,Tag0,unknown
1605697428017,25,-302,-6.6357421875E-5,57,57,46,2731475,183920,3846,16748500,16760552,16757363,21218,1689,Tag0,unknown
1605697428030,25,-83,-1.82373046875E-5,57,57,46,2731475,183920,3846,16748500,16760552,16757363,21218,1689,Tag0,unknown
1605697428059,25,306,6.723632812500001E-5,57,57,46,2731475,183920,3846,16748500,16760552,16757363,21218,1689,Tag0,unknown
1605697428076,25,305,6.70166015625E-5,57,57,46,2731475,183920,3846,16748500,16760552,16757363,21218,1689,Tag0,unknown
1605697428086,25,373,8.19580078125E-5,57,57,46,2731475,183920,3846,16748500,16760552,16757363,21218,1689,Tag0,unknown
1605697428100,25,381,8.371582031250001E-5,57,57,46,2731475,183920,3846,16748500,16760552,16757363,21218,1689,Tag0,unknown
1605697428131,25,-9,-1.9775390625E-6,57,57,46,2731475,183920,3846,16748500,16760552,16757363,21218,1689,Tag0,unknown
1605697428143,25,-93,-2.04345703125E-5,57,57,46,2731475,183920,3846,16748500,16760552,16757363,21218,1689,Tag0,unknown
1605697428160,25,38,8.349609375E-6,57,57,46,2731475,183920,3846,16748500,16760552,16757363,21218,1689,Tag0,unknown
1605697428180,25,-229,-5.03173828125E-5,57,57,46,2731475,183920,3846,16748500,16760552,16757363,21218,1689,Tag0,unknown
1605697428194,25,-645,-1.417236328125E-4,57,57,46,2731475,183920,3846,16748500,16760552,16757363,21218,1689,Tag0,unknown
1605697428216,25,-1093,-2.401611328125E-4,57,57,46,2731475,183920,3846,16748500,16760552,16757363,21218,1689,Tag0,unknown
1605697428245,25,-2084,-4.5791015625000004E-4,57,57,46,2731475,183920,3846,16748500,16760552,16757363,21218,1689,Tag0,unknown
1605697428261,25,-2087,-4.5856933593749997E-4,57,57,46,2731475,183920,3846,16748500,16760552,16757363,21218,1689,Tag0,unknown
1605697428279,25,-1721,-3.7814941406250004E-4,57,57,46,2731475,183920,3846,16748500,16760552,16757363,21218,1689,Tag0,unknown
1605697428301,25,-1893,-4.159423828125E-4,57,57,46,2731475,183920,3846,16748500,16760552,16757363,21218,1689,Tag0,unknown
1605697428311,25,314,6.8994140625E-5,57,57,46,2731475,183920,3846,16748500,16760552,16757363,21218,1689,Tag0,unknown
1605697428321,25,1333,2.928955078125E-4,57,57,46,2731475,183920,3846,16748500,16760552,16757363,21218,1689,Tag0,unknown
1605697428350,25,1791,3.935302734375E-4,57,57,46,2731475,183920,3846,16748500,16760552,16757363,21218,1689,Tag0,unknown
1605697428361,25,1791,3.935302734375E-4,57,57,46,2731475,183920,3846,16748500,16760552,16757363,21218,1689,Tag0,unknown
1605697428384,25,1676,3.6826171875000005E-4,57,57,46,2731475,183920,3846,16748500,16760552,16757363,21218,1689,Tag0,unknown
1605697428395,25,1450,3.18603515625E-4,57,57,46,2731475,183920,3846,16748500,16760552,16757363,21218,1689,Tag0,unknown
1605697428420,25,736,1.6171875E-4,57,57,46,2731475,183920,3846,16748500,16760552,16757363,21218,1689,Tag0,unknown
1605697428431,25,885,1.944580078125E-4,57,57,46,2731475,183920,3846,16748500,16760552,16757363,21218,1689,Tag0,unknown
1605697428444,25,393,8.63525390625E-5,57,57,46,2731475,183920,3846,16748500,16760552,16757363,21218,1689,Tag0,unknown
1605697428461,25,155,3.40576171875E-5,57,57,46,2731475,183920,3846,16748500,16760552,16757363,21218,1689,Tag0,unknown
1605697428528,25,273,5.998535156250001E-5,57,57,46,2731475,183920,3846,16748500,16760552,16757363,21218,1689,Tag0,unknown
1605697428545,25,265,5.82275390625E-5,57,57,46,2731475,183920,3846,16748500,16760552,16757363,21218,1689,Tag0,unknown
1605697428596,25,-90,-1.9775390625E-5,57,57,46,2731475,183920,3846,16748500,16760552,16757363,21218,1689,Tag0,unknown
1605697428613,25,-85,-1.86767578125E-5,57,57,46,2731475,183920,3846,16748500,16760552,16757363,21218,1689,Tag0,unknown
1605697428663,25,-349,-7.668457031250001E-5,57,57,46,2731475,183920,3846,16748500,16760552,16757363,21218,1689,Tag0,unknown
1605697428680,25,-189,-4.15283203125E-5,57,57,46,2731475,183920,3846,16748500,16760552,16757363,21218,1689,Tag0,unknown
1605697428731,25,-385,-8.45947265625E-5,57,57,46,2731475,183920,3846,16748500,16760552,16757363,21218,1689,Tag0,unknown
1605697428747,25,-615,-1.351318359375E-4,57,57,46,2731475,183920,3846,16748500,16760552,16757363,21218,1689,Tag0,unknown
1605697428798,25,-237,-5.2075195312500004E-5,57,57,46,2731475,183920,3846,16748500,16760552,16757363,21218,1689,Tag0,unknown
1605697428814,25,-246,-5.4052734375E-5,57,57,46,2731475,183920,3846,16748500,16760552,16757363,21218,1689,Tag0,unknown
1605697428866,25,-179,-3.93310546875E-5,57,57,46,2731475,183920,3846,16748500,16760552,16757363,21218,1689,Tag0,unknown
1605697428881,25,-219,-4.81201171875E-5,57,57,46,2731475,183920,3846,16748500,16760552,16757363,21218,1689,Tag0,unknown
1605697428933,25,-249,-5.47119140625E-5,57,57,46,2731475,183920,3846,16748500,16760552,16757363,21218,1689,Tag0,unknown
1605697428948,25,-202,-4.4384765625000004E-5,57,57,46,2731475,183920,3846,16748500,16760552,16757363,21218,1689,Tag0,unknown
1605697429001,25,62,1.3623046875E-5,57,57,46,2731475,183920,3846,16748500,16760552,16757363,21218,1689,Tag0,unknown
1605697429015,25,123,2.70263671875E-5,57,57,46,2731475,183920,3846,16748500,16760552,16757363,21218,1689,Tag0,unknown
1605697429068,25,166,3.6474609375E-5,57,57,46,2731475,183920,3846,16748500,16760552,16757363,21218,1689,Tag0,unknown
1605697429080,25,214,4.7021484375E-5,57,57,46,2731475,183920,3846,16748500,16760552,16757363,21218,1689,Tag0,unknown
1605697429136,25,556,1.2216796875000002E-4,57,57,46,2731475,183920,3846,16748500,16760552,16757363,21218,1689,Tag0,unknown
1605697429151,25,545,1.197509765625E-4,57,57,46,2731475,183920,3846,16748500,16760552,16757363,21218,1689,Tag0,unknown
1605697429163,25,201,4.41650390625E-5,57,57,46,2731475,183920,3846,16748500,16760552,16757363,21218,1689,Tag0,unknown
1605697429173,25,357,7.844238281250001E-5,57,57,46,2731475,183920,3846,16748500,16760552,16757363,21218,1689,Tag0,unknown
1605697429183,51,-1110,-2.43896484375E-4,57,57,46,1758834,56644,81983,16754834,76100,67135,18653,4293,Tag0,unknown
1605697429195,51,586,1.28759765625E-4,57,57,46,1758834,56644,81983,16754834,76100,67135,18653,4293,Tag0,unknown
1605697429205,51,779,1.7116699218750001E-4,57,57,46,1758834,56644,81983,16754834,76100,67135,18653,4293,Tag0,unknown
1605697429215,51,348,7.646484375E-5,57,57,46,1758834,56644,81983,16754834,76100,67135,18653,4293,Tag0,unknown
1605697429225,51,1,2.197265625E-7,57,57,46,1758834,56644,81983,16754834,76100,67135,18653,4293,Tag0,unknown
1605697429235,51,6,1.318359375E-6,57,57,46,1758834,56644,81983,16754834,76100,67135,18653,4293,Tag0,unknown
1605697429265,51,-343,-7.53662109375E-5,57,57,46,1758834,56644,81983,16754834,76100,67135,18653,4293,Tag0,unknown
1605697429280,51,0,0.0,57,57,46,1758834,56644,81983,16754834,76100,67135,18653,4293,Tag0,unknown
1605697429299,51,-493,-1.083251953125E-4,57,57,46,1758834,56644,81983,16754834,76100,67135,18653,4293,Tag0,unknown
1605697429317,51,-817,-1.7951660156250002E-4,57,57,46,1758834,56644,81983,16754834,76100,67135,18653,4293,Tag0,unknown
1605697429327,51,-339,-7.448730468750001E-5,57,57,46,1758834,56644,81983,16754834,76100,67135,18653,4293,Tag0,unknown
1605697429340,51,106,2.3291015625000003E-5,57,57,46,1758834,56644,81983,16754834,76100,67135,18653,4293,Tag0,unknown
1605697429350,51,125,2.74658203125E-5,57,57,46,1758834,56644,81983,16754834,76100,67135,18653,4293,Tag0,unknown
1605697429373,51,-147,-3.22998046875E-5,57,57,46,1758834,56644,81983,16754834,76100,67135,18653,4293,Tag0,unknown
1605697429383,51,-284,-6.240234375E-5,57,57,46,1758834,56644,81983,16754834,76100,67135,18653,4293,Tag0,unknown
1605697429412,51,-199,-4.3725585937499995E-5,57,57,46,1758834,56644,81983,16754834,76100,67135,18653,4293,Tag0,unknown
1605697429431,51,-171,-3.75732421875E-5,57,57,46,1758834,56644,81983,16754834,76100,67135,18653,4293,Tag0,unknown
1605697429451,51,327,7.18505859375E-5,57,57,46,1758834,56644,81983,16754834,76100,67135,18653,4293,Tag0,unknown
1605697429461,51,-88,-1.93359375E-5,57,57,46,1758834,56644,81983,16754834,76100,67135,18653,4293,Tag0,unknown
1605697429485,51,-280,-6.15234375E-5,57,57,46,1758834,56644,81983,16754834,76100,67135,18653,4293,Tag0,unknown
1605697429498,51,-316,-6.943359375000001E-5,57,57,46,1758834,56644,81983,16754834,76100,67135,18653,4293,Tag0,unknown
1605697429519,51,-306,-6.723632812500001E-5,57,57,46,1758834,56644,81983,16754834,76100,67135,18653,4293,Tag0,unknown
1605697429532,51,-316,-6.943359375000001E-5,57,57,46,1758834,56644,81983,16754834,76100,67135,18653,4293,Tag0,unknown
1605697429542,51,119,2.6147460937500004E-5,57,57,46,1758834,56644,81983,16754834,76100,67135,18653,4293,Tag0,unknown
1605697429557,51,348,7.646484375E-5,57,57,46,1758834,56644,81983,16754834,76100,67135,18653,4293,Tag0,unknown
1605697429567,51,293,6.43798828125E-5,57,57,46,1758834,56644,81983,16754834,76100,67135,18653,4293,Tag0,unknown
1605697429593,51,94,2.0654296875000002E-5,57,57,46,1758834,56644,81983,16754834,76100,67135,18653,4293,Tag0,unknown
1605697429603,51,-405,-8.89892578125E-5,57,57,46,1758834,56644,81983,16754834,76100,67135,18653,4293,Tag0,unknown
1605697429627,51,-504,-1.107421875E-4,57,57,46,1758834,56644,81983,16754834,76100,67135,18653,4293,Tag0,unknown
1605697429637,51,357,7.844238281250001E-5,57,57,46,1758834,56644,81983,16754834,76100,67135,18653,4293,Tag0,unknown
1605697429661,51,137,3.0102539062499998E-5,57,57,46,1758834,56644,81983,16754834,76100,67135,18653,4293,Tag0,unknown
1605697429671,51,535,1.175537109375E-4,57,57,46,1758834,56644,81983,16754834,76100,67135,18653,4293,Tag0,unknown
1605697429700,51,187,4.10888671875E-5,57,57,46,1758834,56644,81983,16754834,76100,67135,18653,4293,Tag0,unknown
1605697429716,51,381,8.371582031250001E-5,57,57,46,1758834,56644,81983,16754834,76100,67135,18653,4293,Tag0,unknown
1605697429734,51,8,1.7578125E-6,57,57,46,1758834,56644,81983,16754834,76100,67135,18653,4293,Tag0,unknown
1605697429750,51,-183,-4.02099609375E-5,57,57,46,1758834,56644,81983,16754834,76100,67135,18653,4293,Tag0,unknown
1605697429773,51,-71,-1.56005859375E-5,57,57,46,1758834,56644,81983,16754834,76100,67135,18653,4293,Tag0,unknown
1605697429783,51,-42,-9.228515625000002E-6,57,57,46,1758834,56644,81983,16754834,76100,67135,18653,4293,Tag0,unknown
1605697429809,51,-23,-5.0537109375E-6,57,57,46,1758834,56644,81983,16754834,76100,67135,18653,4293,Tag0,unknown
1605697429819,51,-29,-6.3720703125E-6,57,57,46,1758834,56644,81983,16754834,76100,67135,18653,4293,Tag0,unknown
1605697429847,51,-506,-1.11181640625E-4,57,57,46,1758834,56644,81983,16754834,76100,67135,18653,4293,Tag0,unknown
1605697429867,51,-888,-1.951171875E-4,57,57,46,1758834,56644,81983,16754834,76100,67135,18653,4293,Tag0,unknown
1605697429884,51,-492,-1.0810546875E-4,57,57,46,1758834,56644,81983,16754834,76100,67135,18653,4293,Tag0,unknown
1605697429905,26,589,1.294189453125E-4,57,57,46,1976703,82819,22031,16744939,22977,31108,8294,4380,Tag0,unknown
1605697429924,26,461,1.0129394531250001E-4,57,57,46,1976703,82819,22031,16744939,22977,31108,8294,4380,Tag0,unknown
1605697429950,26,1224,2.6894531250000003E-4,57,57,46,1976703,82819,22031,16744939,22977,31108,8294,4380,Tag0,unknown
1605697429967,26,995,2.186279296875E-4,57,57,46,1976703,82819,22031,16744939,22977,31108,8294,4380,Tag0,unknown
1605697429977,26,-353,-7.75634765625E-5,57,57,46,1976703,82819,22031,16744939,22977,31108,8294,4380,Tag0,unknown
1605697429989,26,-347,-7.62451171875E-5,57,57,46,1976703,82819,22031,16744939,22977,31108,8294,4380,Tag0,unknown
1605697430001,26,-482,-1.05908203125E-4,57,57,46,1976703,82819,22031,16744939,22977,31108,8294,4380,Tag0,unknown
1605697430022,26,-1076,-2.3642578124999998E-4,57,57,46,1976703,82819,22031,16744939,22977,31108,8294,4380,Tag0,unknown
1605697430035,26,-1033,-2.2697753906250002E-4,57,57,46,1976703,82819,22031,16744939,22977,31108,8294,4380,Tag0,unknown
1605697430059,26,-772,-1.6962890625000002E-4,57,57,46,1976703,82819,22031,16744939,22977,31108,8294,4380,Tag0,unknown
1605697430069,26,-245,-5.38330078125E-5,57,57,46,1976703,82819,22031,16744939,22977,31108,8294,4380,Tag0,unknown
1605697430091,26,84,1.8457031250000004E-5,57,57,46,1976703,82819,22031,16744939,22977,31108,8294,4380,Tag0,unknown
1605697430101,26,-86,-1.8896484375000003E-5,57,57,46,1976703,82819,22031,16744939,22977,31108,8294,4380,Tag0,unknown
1605697430111,26,-39,-8.5693359375E-6,57,57,46,1976703,82819,22031,16744939,22977,31108,8294,4380,Tag0,unknown
1605697430133,26,-345,-7.58056640625E-5,57,57,46,1976703,82819,22031,16744939,22977,31108,8294,4380,Tag0,unknown
1605697430168,26,-460,-1.0107421875E-4,57,57,46,1976703,82819,22031,16744939,22977,31108,8294,4380,Tag0,unknown
1605697430186,26,-488,-1.072265625E-4,57,57,46,1976703,82819,22031,16744939,22977,31108,8294,4380,Tag0,unknown
1605697430196,26,-507,-1.1140136718750001E-4,57,57,46,1976703,82819,22031,16744939,22977,31108,8294,4380,Tag0,unknown
1605697430206,26,-722,-1.58642578125E-4,57,57,46,1976703,82819,22031,16744939,22977,31108,8294,4380,Tag0,unknown
1605697430225,26,343,7.53662109375E-5,57,57,46,1976703,82819,22031,16744939,22977,31108,8294,4380,Tag0,unknown
1605697430236,26,593,1.3029785156250002E-4,57,57,46,1976703,82819,22031,16744939,22977,31108,8294,4380,Tag0,unknown
1605697430258,26,402,8.8330078125E-5,57,57,46,1976703,82819,22031,16744939,22977,31108,8294,4380,Tag0,unknown
1605697430271,26,437,9.602050781250001E-5,57,57,46,1976703,82819,22031,16744939,22977,31108,8294,4380,Tag0,unknown
1605697430300,26,1080,2.373046875E-4,57,57,46,1976703,82819,22031,16744939,22977,31108,8294,4380,Tag0,unknown
1605697430318,26,955,2.098388671875E-4,57,57,46,1976703,82819,22031,16744939,22977,31108,8294,4380,Tag0,unknown
1605697430335,26,1099,2.414794921875E-4,57,57,46,1976703,82819,22031,16744939,22977,31108,8294,4380,Tag0,unknown
1605697430353,26,161,3.53759765625E-5,57,57,46,1976703,82819,22031,16744939,22977,31108,8294,4380,Tag0,unknown
1605697430373,26,-539,-1.1843261718750001E-4,57,57,46,1976703,82819,22031,16744939,22977,31108,8294,4380,Tag0,unknown
1605697430385,26,-427,-9.382324218750001E-5,57,57,46,1976703,82819,22031,16744939,22977,31108,8294,4380,Tag0,unknown
1605697430406,26,-645,-1.417236328125E-4,57,57,46,1976703,82819,22031,16744939,22977,31108,8294,4380,Tag0,unknown
1605697430422,26,-716,-1.5732421875E-4,57,57,46,1976703,82819,22031,16744939,22977,31108,8294,4380,Tag0,unknown
1605697430448,26,-297,-6.525878906250001E-5,57,57,46,1976703,82819,22031,16744939,22977,31108,8294,4380,Tag0,unknown
1605697430486,26,-56,-1.23046875E-5,57,57,46,1976703,82819,22031,16744939,22977,31108,8294,4380,Tag0,unknown
1605697430502,26,151,3.31787109375E-5,57,57,46,1976703,82819,22031,16744939,22977,31108,8294,4380,Tag0,unknown
1605697430512,26,636,1.3974609375E-4,57,57,46,1976703,82819,22031,16744939,22977,31108,8294,4380,Tag0,unknown
1605697430523,26,537,1.179931640625E-4,57,57,46,1976703,82819,22031,16744939,22977,31108,8294,4380,Tag0,unknown
1605697430542,26,194,4.2626953125E-5,57,57,46,1976703,82819,22031,16744939,22977,31108,8294,4380,Tag0,unknown
1605697430561,26,-148,-3.251953125E-5,57,57,46,1976703,82819,22031,16744939,22977,31108,8294,4380,Tag0,unknown
1605697430574,26,-637,-1.399658203125E-4,57,57,46,1976703,82819,22031,16744939,22977,31108,8294,4380,Tag0,unknown
1605697430593,26,-851,-1.869873046875E-4,57,57,46,1976703,82819,22031,16744939,22977,31108,8294,4380,Tag0,unknown
1605697430603,26,-507,-1.1140136718750001E-4,57,57,46,1976703,82819,22031,16744939,22977,31108,8294,4380,Tag0,unknown
1605697430626,26,356,7.822265625E-5,57,57,46,1976703,82819,22031,16744939,22977,31108,8294,4380,Tag0,unknown
1605697430637,26,355,7.80029296875E-5,57,57,46,1976703,82819,22031,16744939,22977,31108,8294,4380,Tag0,unknown
1605697430647,26,583,1.281005859375E-4,57,57,46,1976703,82819,22031,16744939,22977,31108,8294,4380,Tag0,unknown
1605697430676,26,248,5.44921875E-5,57,57,46,1976703,82819,22031,16744939,22977,31108,8294,4380,Tag0,unknown
1605697430703,26,209,4.59228515625E-5,57,57,46,1976703,82819,22031,16744939,22977,31108,8294,4380,Tag0,unknown
1605697430720,26,167,3.6694335937500004E-5,57,57,46,1976703,82819,22031,16744939,22977,31108,8294,4380,Tag0,unknown
1605697430730,26,73,1.6040039062500002E-5,57,57,46,1976703,82819,22031,16744939,22977,31108,8294,4380,Tag0,unknown
1605697430740,26,-369,-8.10791015625E-5,57,57,46,1976703,82819,22031,16744939,22977,31108,8294,4380,Tag0,unknown
1605697430753,26,-373,-8.19580078125E-5,57,57,46,1976703,82819,22031,16744939,22977,31108,8294,4380,Tag0,unknown
1605697430774,26,289,6.35009765625E-5,57,57,46,1976703,82819,22031,16744939,22977,31108,8294,4380,Tag0,unknown
1605697430787,26,650,1.42822265625E-4,57,57,46,1976703,82819,22031,16744939,22977,31108,8294,4380,Tag0,unknown
1605697430812,26,310,6.8115234375E-5,57,57,46,1976703,82819,22031,16744939,22977,31108,8294,4380,Tag0,unknown
1605697430822,26,108,2.3730468750000002E-5,57,57,46,1976703,82819,22031,16744939,22977,31108,8294,4380,Tag0,unknown
1605697430846,26,-121,-2.6586914062500003E-5,57,57,46,1976703,82819,22031,16744939,22977,31108,8294,4380,Tag0,unknown
1605697430856,26,-53,-1.1645507812500002E-5,57,57,46,1976703,82819,22031,16744939,22977,31108,8294,4380,Tag0,unknown
1605697430884,26,-808,-1.7753906250000002E-4,57,57,46,1976703,82819,22031,16744939,22977,31108,8294,4380,Tag0,unknown
1605697430905,0,-386,-8.481445312500001E-5,78,54,46,128714,16734,5705,2218,10267,11658,4327,1603,Tag0,unknown
1605697430928,0,-251,-5.5151367187500004E-5,78,54,46,128714,16734,5705,2218,10267,11658,4327,1603,Tag0,unknown
1605697430938,0,-250,-5.4931640625E-5,78,54,46,128714,16734,5705,2218,10267,11658,4327,1603,Tag0,unknown
1605697430961,0,-165,-3.62548828125E-5,78,54,46,128714,16734,5705,2218,10267,11658,4327,1603,Tag0,unknown
1605697430971,0,-531,-1.1667480468750001E-4,78,54,46,128714,16734,5705,2218,10267,11658,4327,1603,Tag0,unknown
1605697430981,0,-636,-1.3974609375E-4,78,54,46,128714,16734,5705,2218,10267,11658,4327,1603,Tag0,unknown
1605697430998,0,-1323,-2.906982421875E-4,78,54,46,128714,16734,5705,2218,10267,11658,4327,1603,Tag0,unknown
1605697431008,0,-1688,-3.708984375E-4,78,54,46,128714,16734,5705,2218,10267,11658,4327,1603,Tag0,unknown
1605697431031,0,-2048,-4.5E-4,78,54,46,128714,16734,5705,2218,10267,11658,4327,1603,Tag0,unknown
1605697431041,0,-2048,-4.5E-4,78,54,46,128714,16734,5705,2218,10267,11658,4327,1603,Tag0,unknown
1605697431055,0,-1876,-4.1220703125000003E-4,78,54,46,128714,16734,5705,2218,10267,11658,4327,1603,Tag0,unknown
1605697431089,0,-1590,-3.49365234375E-4,78,54,46,128714,16734,5705,2218,10267,11658,4327,1603,Tag0,unknown
1605697431105,0,-1227,-2.696044921875E-4,78,54,46,128714,16734,5705,2218,10267,11658,4327,1603,Tag0,unknown
1605697431125,0,723,1.5886230468750001E-4,78,54,46,128714,16734,5705,2218,10267,11658,4327,1603,Tag0,unknown
1605697431145,0,698,1.5336914062500002E-4,78,54,46,128714,16734,5705,2218,10267,11658,4327,1603,Tag0,unknown
1605697431155,0,1791,3.935302734375E-4,78,54,46,128714,16734,5705,2218,10267,11658,4327,1603,Tag0,unknown
1605697431172,0,1791,3.935302734375E-4,78,54,46,128714,16734,5705,2218,10267,11658,4327,1603,Tag0,unknown
1605697431202,0,1251,2.7487792968750003E-4,78,54,46,128714,16734,5705,2218,10267,11658,4327,1603,Tag0,unknown
1605697431222,0,1197,2.630126953125E-4,78,54,46,128714,16734,5705,2218,10267,11658,4327,1603,Tag0,unknown
1605697431232,0,423,9.29443359375E-5,78,54,46,128714,16734,5705,2218,10267,11658,4327,1603,Tag0,unknown
1605697431242,0,633,1.3908691406250002E-4,78,54,46,128714,16734,5705,2218,10267,11658,4327,1603,Tag0,unknown
1605697431279,0,176,3.8671875E-5,78,54,46,128714,16734,5705,2218,10267,11658,4327,1603,Tag0,unknown
1605697431290,0,148,3.251953125E-5,78,54,46,128714,16734,5705,2218,10267,11658,4327,1603,Tag0,unknown
1605697431300,0,258,5.6689453125000004E-5,78,54,46,128714,16734,5705,2218,10267,11658,4327,1603,Tag0,unknown
1605697431313,0,-50,-1.0986328125E-5,78,54,46,128714,16734,5705,2218,10267,11658,4327,1603,Tag0,unknown
1605697431324,0,-54,-1.1865234375000001E-5,78,54,46,128714,16734,5705,2218,10267,11658,4327,1603,Tag0,unknown
1605697431350,0,-105,-2.30712890625E-5,78,54,46,128714,16734,5705,2218,10267,11658,4327,1603,Tag0,unknown
1605697431360,0,-117,-2.5708007812499998E-5,78,54,46,128714,16734,5705,2218,10267,11658,4327,1603,Tag0,unknown
1605697431394,0,99,2.1752929687500003E-5,78,54,46,128714,16734,5705,2218,10267,11658,4327,1603,Tag0,unknown
1605697431405,0,60,1.318359375E-5,78,54,46,128714,16734,5705,2218,10267,11658,4327,1603,Tag0,unknown
1605697431435,0,-2048,-4.5E-4,78,54,46,128714,16734,5705,2218,10267,11658,4327,1603,Tag0,unknown
1605697431445,0,-2048,-4.5E-4,78,54,46,128714,16734,5705,2218,10267,11658,4327,1603,Tag0,unknown
1605697431469,0,-2048,-4.5E-4,78,54,46,128714,16734,5705,2218,10267,11658,4327,1603,Tag0,unknown
1605697431489,0,-2048,-4.5E-4,78,54,46,128714,16734,5705,2218,10267,11658,4327,1603,Tag0,unknown
1605697431509,0,-765,-1.680908203125E-4,78,54,46,128714,16734,5705,2218,10267,11658,4327,1603,Tag0,unknown
1605697431524,0,-707,-1.5534667968750002E-4,78,54,46,128714,16734,5705,2218,10267,11658,4327,1603,Tag0,unknown
1605697431547,0,-145,-3.18603515625E-5,78,54,46,128714,16734,5705,2218,10267,11658,4327,1603,Tag0,unknown
1605697431562,0,595,1.307373046875E-4,78,54,46,128714,16734,5705,2218,10267,11658,4327,1603,Tag0,unknown
1605697431581,0,757,1.663330078125E-4,78,54,46,128714,16734,5705,2218,10267,11658,4327,1603,Tag0,unknown
1605697431591,0,1037,2.278564453125E-4,78,54,46,128714,16734,5705,2218,10267,11658,4327,1603,Tag0,unknown
1605697431615,0,708,1.5556640625000002E-4,78,54,46,128714,16734,5705,2218,10267,11658,4327,1603,Tag0,unknown
1605697431625,0,773,1.6984863281250002E-4,78,54,46,128714,16734,5705,2218,10267,11658,4327,1603,Tag0,unknown
1605697431658,0,290,6.3720703125E-5,78,54,46,128714,16734,5705,2218,10267,11658,4327,1603,Tag0,unknown
1605697431673,0,272,5.9765625000000004E-5,78,54,46,128714,16734,5705,2218,10267,11658,4327,1603,Tag0,unknown
1605697431693,0,266,5.8447265625E-5,78,54,46,128714,16734,5705,2218,10267,11658,4327,1603,Tag0,unknown
1605697431708,0,152,3.33984375E-5,78,54,46,128714,16734,5705,2218,10267,11658,4327,1603,Tag0,unknown
1605697431730,0,-51,-1.1206054687499999E-5,78,54,46,128714,16734,5705,2218,10267,11658,4327,1603,Tag0,unknown
1605697431762,0,-27,-5.9326171875000005E-6,78,54,46,128714,16734,5705,2218,10267,11658,4327,1603,Tag0,unknown
1605697431774,0,-47,-1.0327148437500001E-5,78,54,46,128714,16734,5705,2218,10267,11658,4327,1603,Tag0,unknown
1605697431800,0,-45,-9.8876953125E-6,78,54,46,128714,16734,5705,2218,10267,11658,4327,1603,Tag0,unknown
1605697431812,0,-105,-2.30712890625E-5,78,54,46,128714,16734,5705,2218,10267,11658,4327,1603,Tag0,unknown
1605697431834,0,369,8.10791015625E-5,78,54,46,128714,16734,5705,2218,10267,11658,4327,1603,Tag0,unknown
1605697431844,0,375,8.23974609375E-5,78,54,46,128714,16734,5705,2218,10267,11658,4327,1603,Tag0,unknown
1605697431874,0,-198,-4.3505859375000006E-5,78,54,46,128714,16734,5705,2218,10267,11658,4327,1603,Tag0,unknown
1605697431896,51,-347,-7.62451171875E-5,78,54,46,749012,97197,5618,29680,15976,29440,23817,1994,Tag0,unknown
1605697431915,51,-343,-7.53662109375E-5,78,54,46,749012,97197,5618,29680,15976,29440,23817,1994,Tag0,unknown
1605697431925,51,-284,-6.240234375E-5,78,54,46,749012,97197,5618,29680,15976,29440,23817,1994,Tag0,unknown
1605697431941,51,23,5.0537109375E-6,78,54,46,749012,97197,5618,29680,15976,29440,23817,1994,Tag0,unknown
1605697431963,51,33,7.2509765625E-6,78,54,46,749012,97197,5618,29680,15976,29440,23817,1994,Tag0,unknown
1605697431975,51,75,1.64794921875E-5,78,54,46,749012,97197,5618,29680,15976,29440,23817,1994,Tag0,unknown
1605697431994,51,-84,-1.8457031250000004E-5,78,54,46,749012,97197,5618,29680,15976,29440,23817,1994,Tag0,unknown
1605697432008,51,-5,-1.0986328125E-6,78,54,46,749012,97197,5618,29680,15976,29440,23817,1994,Tag0,unknown
1605697432034,51,-39,-8.5693359375E-6,78,54,46,749012,97197,5618,29680,15976,29440,23817,1994,Tag0,unknown
1605697432060,51,-75,-1.64794921875E-5,78,54,46,749012,97197,5618,29680,15976,29440,23817,1994,Tag0,unknown
1605697432093,51,738,1.62158203125E-4,78,54,46,749012,97197,5618,29680,15976,29440,23817,1994,Tag0,unknown
1605697432103,51,320,7.03125E-5,78,54,46,749012,97197,5618,29680,15976,29440,23817,1994,Tag0,unknown
1605697432113,51,59,1.29638671875E-5,78,54,46,749012,97197,5618,29680,15976,29440,23817,1994,Tag0,unknown
1605697432123,51,-133,-2.92236328125E-5,78,54,46,749012,97197,5618,29680,15976,29440,23817,1994,Tag0,unknown
1605697432142,51,-361,-7.93212890625E-5,78,54,46,749012,97197,5618,29680,15976,29440,23817,1994,Tag0,unknown
1605697432160,51,-214,-4.7021484375E-5,78,54,46,749012,97197,5618,29680,15976,29440,23817,1994,Tag0,unknown
1605697432170,51,-659,-1.4479980468750002E-4,78,54,46,749012,97197,5618,29680,15976,29440,23817,1994,Tag0,unknown
1605697432182,51,-484,-1.0634765625000001E-4,78,54,46,749012,97197,5618,29680,15976,29440,23817,1994,Tag0,unknown
1605697432214,51,-373,-8.19580078125E-5,78,54,46,749012,97197,5618,29680,15976,29440,23817,1994,Tag0,unknown
1605697432225,51,18,3.955078125E-6,78,54,46,749012,97197,5618,29680,15976,29440,23817,1994,Tag0,unknown
1605697432255,51,-459,-1.008544921875E-4,78,54,46,749012,97197,5618,29680,15976,29440,23817,1994,Tag0,unknown
1605697432275,51,-470,-1.03271484375E-4,78,54,46,749012,97197,5618,29680,15976,29440,23817,1994,Tag0,unknown
1605697432293,51,-727,-1.5974121093750003E-4,78,54,46,749012,97197,5618,29680,15976,29440,23817,1994,Tag0,unknown
1605697432310,51,-215,-4.72412109375E-5,78,54,46,749012,97197,5618,29680,15976,29440,23817,1994,Tag0,unknown
1605697432320,51,-53,-1.1645507812500002E-5,78,54,46,749012,97197,5618,29680,15976,29440,23817,1994,Tag0,unknown
1605697432330,51,-84,-1.8457031250000004E-5,78,54,46,749012,97197,5618,29680,15976,29440,23817,1994,Tag0,unknown
1605697432369,51,381,8.371582031250001E-5,78,54,46,749012,97197,5618,29680,15976,29440,23817,1994,Tag0,unknown
1605697432379,51,154,3.3837890625E-5,78,54,46,749012,97197,5618,29680,15976,29440,23817,1994,Tag0,unknown
1605697432407,51,1194,2.6235351562500005E-4,78,54,46,749012,97197,5618,29680,15976,29440,23817,1994,Tag0,unknown
1605697432426,51,1171,2.572998046875E-4,78,54,46,749012,97197,5618,29680,15976,29440,23817,1994,Tag0,unknown
1605697432436,51,594,1.3051757812500002E-4,78,54,46,749012,97197,5618,29680,15976,29440,23817,1994,Tag0,unknown
1605697432447,51,-313,-6.87744140625E-5,78,54,46,749012,97197,5618,29680,15976,29440,23817,1994,Tag0,unknown
1605697432462,51,-124,-2.724609375E-5,78,54,46,749012,97197,5618,29680,15976,29440,23817,1994,Tag0,unknown
1605697432483,51,429,9.42626953125E-5,78,54,46,749012,97197,5618,29680,15976,29440,23817,1994,Tag0,unknown
1605697432500,51,848,1.8632812500000002E-4,78,54,46,749012,97197,5618,29680,15976,29440,23817,1994,Tag0,unknown
1605697432523,51,103,2.26318359375E-5,78,54,46,749012,97197,5618,29680,15976,29440,23817,1994,Tag0,unknown
1605697432556,51,16,3.515625E-6,78,54,46,749012,97197,5618,29680,15976,29440,23817,1994,Tag0,unknown
1605697432577,51,123,2.70263671875E-5,78,54,46,749012,97197,5618,29680,15976,29440,23817,1994,Tag0,unknown
1605697432587,51,-101,-2.2192382812500002E-5,78,54,46,749012,97197,5618,29680,15976,29440,23817,1994,Tag0,unknown
1605697432598,51,117,2.5708007812499998E-5,78,54,46,749012,97197,5618,29680,15976,29440,23817,1994,Tag0,unknown
1605697432610,51,53,1.1645507812500002E-5,78,54,46,749012,97197,5618,29680,15976,29440,23817,1994,Tag0,unknown
1605697432631,51,-316,-6.943359375000001E-5,78,54,46,749012,97197,5618,29680,15976,29440,23817,1994,Tag0,unknown
1605697432644,51,-297,-6.525878906250001E-5,78,54,46,749012,97197,5618,29680,15976,29440,23817,1994,Tag0,unknown
1605697432674,51,-234,-5.1416015624999996E-5,78,54,46,749012,97197,5618,29680,15976,29440,23817,1994,Tag0,unknown
1605697432709,51,-318,-6.9873046875E-5,78,54,46,749012,97197,5618,29680,15976,29440,23817,1994,Tag0,unknown
1605697432727,51,-341,-7.492675781250002E-5,78,54,46,749012,97197,5618,29680,15976,29440,23817,1994,Tag0,unknown
1605697432748,51,-85,-1.86767578125E-5,78,54,46,749012,97197,5618,29680,15976,29440,23817,1994,Tag0,unknown
1605697432760,51,-45,-9.8876953125E-6,78,54,46,749012,97197,5618,29680,15976,29440,23817,1994,Tag0,unknown
1605697432788,51,547,1.201904296875E-4,78,54,46,749012,97197,5618,29680,15976,29440,23817,1994,Tag0,unknown
1605697432798,51,339,7.448730468750001E-5,78,54,46,749012,97197,5618,29680,15976,29440,23817,1994,Tag0,unknown
1605697432823,51,331,7.272949218750001E-5,78,54,46,749012,97197,5618,29680,15976,29440,23817,1994,Tag0,unknown
1605697432833,51,275,6.04248046875E-5,78,54,46,749012,97197,5618,29680,15976,29440,23817,1994,Tag0,unknown
1605697432845,51,53,1.1645507812500002E-5,78,54,46,749012,97197,5618,29680,15976,29440,23817,1994,Tag0,unknown
1605697432867,51,-177,-3.8891601562500006E-5,78,54,46,749012,97197,5618,29680,15976,29440,23817,1994,Tag0,unknown
1605697432879,51,-186,-4.0869140625E-5,78,54,46,749012,97197,5618,29680,15976,29440,23817,1994,Tag0,unknown
1605697432889,0,-999,-2.195068359375E-4,90,48,46,2101624,78719,22705,68658,40002,66016,16767106,23483,Tag0,unknown
1605697432902,0,-1175,-2.581787109375E-4,90,48,46,2101624,78719,22705,68658,40002,66016,16767106,23483,Tag0,unknown
1605697432912,0,-706,-1.55126953125E-4,90,48,46,2101624,78719,22705,68658,40002,66016,16767106,23483,Tag0,unknown
1605697432935,0,-777,-1.707275390625E-4,90,48,46,2101624,78719,22705,68658,40002,66016,16767106,23483,Tag0,unknown
1605697432945,0,-621,-1.364501953125E-4,90,48,46,2101624,78719,22705,68658,40002,66016,16767106,23483,Tag0,unknown
1605697432978,0,273,5.998535156250001E-5,90,48,46,2101624,78719,22705,68658,40002,66016,16767106,23483,Tag0,unknown
1605697433012,0,-7,-1.5380859375E-6,90,48,46,2101624,78719,22705,68658,40002,66016,16767106,23483,Tag0,unknown
1605697433031,0,267,5.86669921875E-5,90,48,46,2101624,78719,22705,68658,40002,66016,16767106,23483,Tag0,unknown
1605697433051,0,-580,-1.2744140625E-4,90,48,46,2101624,78719,22705,68658,40002,66016,16767106,23483,Tag0,unknown
1605697433062,0,-407,-8.94287109375E-5,90,48,46,2101624,78719,22705,68658,40002,66016,16767106,23483,Tag0,unknown
1605697433084,0,-795,-1.746826171875E-4,90,48,46,2101624,78719,22705,68658,40002,66016,16767106,23483,Tag0,unknown
1605697433097,0,-325,-7.14111328125E-5,90,48,46,2101624,78719,22705,68658,40002,66016,16767106,23483,Tag0,unknown
1605697433107,0,89,1.95556640625E-5,90,48,46,2101624,78719,22705,68658,40002,66016,16767106,23483,Tag0,unknown
1605697433123,0,42,9.228515625000002E-6,90,48,46,2101624,78719,22705,68658,40002,66016,16767106,23483,Tag0,unknown
1605697433133,0,49,1.07666015625E-5,90,48,46,2101624,78719,22705,68658,40002,66016,16767106,23483,Tag0,unknown
1605697433156,0,25,5.4931640625E-6,90,48,46,2101624,78719,22705,68658,40002,66016,16767106,23483,Tag0,unknown
1605697433166,0,917,2.014892578125E-4,90,48,46,2101624,78719,22705,68658,40002,66016,16767106,23483,Tag0,unknown
1605697433193,0,322,7.0751953125E-5,90,48,46,2101624,78719,22705,68658,40002,66016,16767106,23483,Tag0,unknown
1605697433212,0,-102,-2.2412109374999998E-5,90,48,46,2101624,78719,22705,68658,40002,66016,16767106,23483,Tag0,unknown
1605697433229,0,-225,-4.94384765625E-5,90,48,46,2101624,78719,22705,68658,40002,66016,16767106,23483,Tag0,unknown
1605697433247,0,-422,-9.2724609375E-5,90,48,46,2101624,78719,22705,68658,40002,66016,16767106,23483,Tag0,unknown
1605697433273,0,-215,-4.72412109375E-5,90,48,46,2101624,78719,22705,68658,40002,66016,16767106,23483,Tag0,unknown
1605697433283,0,-181,-3.9770507812500004E-5,90,48,46,2101624,78719,22705,68658,40002,66016,16767106,23483,Tag0,unknown
1605697433309,0,-358,-7.8662109375E-5,90,48,46,2101624,78719,22705,68658,40002,66016,16767106,23483,Tag0,unknown
1605697433319,0,-331,-7.272949218750001E-5,90,48,46,2101624,78719,22705,68658,40002,66016,16767106,23483,Tag0,unknown
1605697433329,0,-237,-5.2075195312500004E-5,90,48,46,2101624,78719,22705,68658,40002,66016,16767106,23483,Tag0,unknown
1605697433347,0,-859,-1.887451171875E-4,90,48,46,2101624,78719,22705,68658,40002,66016,16767106,23483,Tag0,unknown
1605697433367,0,-609,-1.338134765625E-4,90,48,46,2101624,78719,22705,68658,40002,66016,16767106,23483,Tag0,unknown
1605697433390,0,-293,-6.43798828125E-5,90,48,46,2101624,78719,22705,68658,40002,66016,16767106,23483,Tag0,unknown
1605697433400,0,91,1.99951171875E-5,90,48,46,2101624,78719,22705,68658,40002,66016,16767106,23483,Tag0,unknown
1605697433424,0,-58,-1.2744140625E-5,90,48,46,2101624,78719,22705,68658,40002,66016,16767106,23483,Tag0,unknown
1605697433434,0,97,2.13134765625E-5,90,48,46,2101624,78719,22705,68658,40002,66016,16767106,23483,Tag0,unknown
1605697433465,0,120,2.63671875E-5,90,48,46,2101624,78719,22705,68658,40002,66016,16767106,23483,Tag0,unknown
1605697433480,0,301,6.613769531250001E-5,90,48,46,2101624,78719,22705,68658,40002,66016,16767106,23483,Tag0,unknown
1605697433534,0,135,2.96630859375E-5,90,48,46,2101624,78719,22705,68658,40002,66016,16767106,23483,Tag0,unknown
1605697433547,0,147,3.22998046875E-5,90,48,46,2101624,78719,22705,68658,40002,66016,16767106,23483,Tag0,unknown
1605697433602,0,203,4.460449218750001E-5,90,48,46,2101624,78719,22705,68658,40002,66016,16767106,23483,Tag0,unknown
1605697433615,0,216,4.7460937500000004E-5,90,48,46,2101624,78719,22705,68658,40002,66016,16767106,23483,Tag0,unknown
1605697433669,0,296,6.50390625E-5,90,48,46,2101624,78719,22705,68658,40002,66016,16767106,23483,Tag0,unknown
1605697433682,0,-13,-2.8564453125E-6,90,48,46,2101624,78719,22705,68658,40002,66016,16767106,23483,Tag0,unknown
1605697433807,0,-58,-1.2744140625E-5,90,48,46,2101624,78719,22705,68658,40002,66016,16767106,23483,Tag0,unknown
1605697433826,0,-119,-2.6147460937500004E-5,90,48,46,2101624,78719,22705,68658,40002,66016,16767106,23483,Tag0,unknown
1605697433836,0,96,2.109375E-5,90,48,46,2101624,78719,22705,68658,40002,66016,16767106,23483,Tag0,unknown
1605697433846,0,102,2.2412109374999998E-5,90,48,46,2101624,78719,22705,68658,40002,66016,16767106,23483,Tag0,unknown
1605697433874,0,66,1.4501953125E-5,90,48,46,2101624,78719,22705,68658,40002,66016,16767106,23483,Tag0,unknown
1605697433884,0,113,2.48291015625E-5,90,48,46,2101624,78719,22705,68658,40002,66016,16767106,23483,Tag0,unknown
1605697433941,0,71,1.56005859375E-5,90,48,46,2101624,78719,22705,68658,40002,66016,16767106,23483,Tag0,unknown
1605697433951,0,1131,2.485107421875E-4,90,48,46,2101624,78719,22705,68658,40002,66016,16767106,23483,Tag0,unknown
1605697434120,0,565,1.241455078125E-4,90,48,46,2101624,78719,22705,68658,40002,66016,16767106,23483,Tag0,unknown
1605697434138,0,577,1.2678222656250002E-4,90,48,46,2101624,78719,22705,68658,40002,66016,16767106,23483,Tag0,unknown
1605697434148,0,282,6.1962890625E-5,90,48,46,2101624,78719,22705,68658,40002,66016,16767106,23483,Tag0,unknown
1605697434158,0,-266,-5.8447265625E-5,90,48,46,2101624,78719,22705,68658,40002,66016,16767106,23483,Tag0,unknown
1605697434168,26,-102,-2.2412109374999998E-5,90,48,46,358891,27036,15001,1898,11792,9559,4132,606,Tag0,unknown
1605697434183,26,-290,-6.3720703125E-5,90,48,46,358891,27036,15001,1898,11792,9559,4132,606,Tag0,unknown
1605697434193,26,441,9.689941406250001E-5,90,48,46,358891,27036,15001,1898,11792,9559,4132,606,Tag0,unknown
1605697434203,26,452,9.931640625E-5,90,48,46,358891,27036,15001,1898,11792,9559,4132,606,Tag0,unknown
1605697434213,26,245,5.38330078125E-5,90,48,46,358891,27036,15001,1898,11792,9559,4132,606,Tag0,unknown
1605697434239,26,236,5.185546875E-5,90,48,46,358891,27036,15001,1898,11792,9559,4132,606,Tag0,unknown
1605697434249,26,139,3.0541992187500004E-5,90,48,46,358891,27036,15001,1898,11792,9559,4132,606,Tag0,unknown
1605697434273,26,37,8.1298828125E-6,90,48,46,358891,27036,15001,1898,11792,9559,4132,606,Tag0,unknown
1605697434290,26,25,5.4931640625E-6,90,48,46,358891,27036,15001,1898,11792,9559,4132,606,Tag0,unknown
1605697434300,26,-577,-1.2678222656250002E-4,90,48,46,358891,27036,15001,1898,11792,9559,4132,606,Tag0,unknown
1605697434310,26,-221,-4.85595703125E-5,90,48,46,358891,27036,15001,1898,11792,9559,4132,606,Tag0,unknown
1605697434320,26,-426,-9.3603515625E-5,90,48,46,358891,27036,15001,1898,11792,9559,4132,606,Tag0,unknown
1605697434344,26,-496,-1.08984375E-4,90,48,46,358891,27036,15001,1898,11792,9559,4132,606,Tag0,unknown
1605697434354,26,-566,-1.2436523437500002E-4,90,48,46,358891,27036,15001,1898,11792,9559,4132,606,Tag0,unknown
1605697434383,26,87,1.91162109375E-5,90,48,46,358891,27036,15001,1898,11792,9559,4132,606,Tag0,unknown
1605697434418,26,324,7.119140625E-5,90,48,46,358891,27036,15001,1898,11792,9559,4132,606,Tag0,unknown
1605697434433,26,296,6.50390625E-5,90,48,46,358891,27036,15001,1898,11792,9559,4132,606,Tag0,unknown
1605697434443,26,132,2.900390625E-5,90,48,46,358891,27036,15001,1898,11792,9559,4132,606,Tag0,unknown
1605697434454,26,183,4.02099609375E-5,90,48,46,358891,27036,15001,1898,11792,9559,4132,606,Tag0,unknown
1605697434469,26,193,4.2407226562500005E-5,90,48,46,358891,27036,15001,1898,11792,9559,4132,606,Tag0,unknown
1605697434491,26,331,7.272949218750001E-5,90,48,46,358891,27036,15001,1898,11792,9559,4132,606,Tag0,unknown
1605697434502,26,372,8.173828125E-5,90,48,46,358891,27036,15001,1898,11792,9559,4132,606,Tag0,unknown
1605697434512,26,273,5.998535156250001E-5,90,48,46,358891,27036,15001,1898,11792,9559,4132,606,Tag0,unknown
1605697434535,26,-102,-2.2412109374999998E-5,90,48,46,358891,27036,15001,1898,11792,9559,4132,606,Tag0,unknown
1605697434550,26,109,2.39501953125E-5,90,48,46,358891,27036,15001,1898,11792,9559,4132,606,Tag0,unknown
1605697434568,26,-558,-1.22607421875E-4,90,48,46,358891,27036,15001,1898,11792,9559,4132,606,Tag0,unknown
1605697434586,26,-178,-3.9111328125E-5,90,48,46,358891,27036,15001,1898,11792,9559,4132,606,Tag0,unknown
1605697434607,26,347,7.62451171875E-5,90,48,46,358891,27036,15001,1898,11792,9559,4132,606,Tag0,unknown
1605697434638,26,419,9.206542968750001E-5,90,48,46,358891,27036,15001,1898,11792,9559,4132,606,Tag0,unknown
1605697434651,26,550,1.20849609375E-4,90,48,46,358891,27036,15001,1898,11792,9559,4132,606,Tag0,unknown
1605697434661,26,-167,-3.6694335937500004E-5,90,48,46,358891,27036,15001,1898,11792,9559,4132,606,Tag0,unknown
1605697434674,26,-554,-1.2172851562500001E-4,90,48,46,358891,27036,15001,1898,11792,9559,4132,606,Tag0,unknown
1605697434690,26,-600,-1.318359375E-4,90,48,46,358891,27036,15001,1898,11792,9559,4132,606,Tag0,unknown
1605697434700,26,-619,-1.360107421875E-4,90,48,46,358891,27036,15001,1898,11792,9559,4132,606,Tag0,unknown
1605697434710,26,-555,-1.219482421875E-4,90,48,46,358891,27036,15001,1898,11792,9559,4132,606,Tag0,unknown
1605697434720,26,-621,-1.364501953125E-4,90,48,46,358891,27036,15001,1898,11792,9559,4132,606,Tag0,unknown
1605697434747,26,-584,-1.2832031250000002E-4,90,48,46,358891,27036,15001,1898,11792,9559,4132,606,Tag0,unknown
1605697434780,26,-153,-3.3618164062500004E-5,90,48,46,358891,27036,15001,1898,11792,9559,4132,606,Tag0,unknown
1605697434790,26,-199,-4.3725585937499995E-5,90,48,46,358891,27036,15001,1898,11792,9559,4132,606,Tag0,unknown
1605697434806,26,-177,-3.8891601562500006E-5,90,48,46,358891,27036,15001,1898,11792,9559,4132,606,Tag0,unknown
1605697434825,26,-357,-7.844238281250001E-5,90,48,46,358891,27036,15001,1898,11792,9559,4132,606,Tag0,unknown
1605697434860,26,-21,-4.614257812500001E-6,90,48,46,358891,27036,15001,1898,11792,9559,4132,606,Tag0,unknown
1605697434870,26,-13,-2.8564453125E-6,90,48,46,358891,27036,15001,1898,11792,9559,4132,606,Tag0,unknown
1605697434892,0,295,6.48193359375E-5,83,41,46,134423,77766,27696,10164,7110,12197,4642,1680,Tag0,unknown
1605697434903,0,299,6.56982421875E-5,83,41,46,134423,77766,27696,10164,7110,12197,4642,1680,Tag0,unknown
1605697434913,0,-53,-1.1645507812500002E-5,83,41,46,134423,77766,27696,10164,7110,12197,4642,1680,Tag0,unknown
1605697434929,0,-53,-1.1645507812500002E-5,83,41,46,134423,77766,27696,10164,7110,12197,4642,1680,Tag0,unknown
1605697434939,0,120,2.63671875E-5,83,41,46,134423,77766,27696,10164,7110,12197,4642,1680,Tag0,unknown
1605697434964,0,37,8.1298828125E-6,83,41,46,134423,77766,27696,10164,7110,12197,4642,1680,Tag0,unknown
1605697434974,0,-330,-7.2509765625E-5,83,41,46,134423,77766,27696,10164,7110,12197,4642,1680,Tag0,unknown
1605697434986,0,53,1.1645507812500002E-5,83,41,42,134423,77766,27696,10164,7110,12197,4642,1680,Tag0,unknown
1605697435008,0,1125,2.471923828125E-4,83,41,42,134423,77766,27696,10164,7110,12197,4642,1680,Tag0,unknown
1605697435019,0,788,1.7314453125E-4,83,41,42,134423,77766,27696,10164,7110,12197,4642,1680,Tag0,unknown
1605697435041,0,-27,-5.9326171875000005E-6,83,41,42,134423,77766,27696,10164,7110,12197,4642,1680,Tag0,unknown
1605697435053,0,-15,-3.2958984375E-6,83,41,42,134423,77766,27696,10164,7110,12197,4642,1680,Tag0,unknown
1605697435080,0,-117,-2.5708007812499998E-5,83,41,42,134423,77766,27696,10164,7110,12197,4642,1680,Tag0,unknown
1605697435093,0,-90,-1.9775390625E-5,83,41,42,134423,77766,27696,10164,7110,12197,4642,1680,Tag0,unknown
1605697435120,0,43,9.448242187500001E-6,83,41,42,134423,77766,27696,10164,7110,12197,4642,1680,Tag0,unknown
1605697435150,0,69,1.51611328125E-5,83,41,42,134423,77766,27696,10164,7110,12197,4642,1680,Tag0,unknown
1605697435169,0,105,2.30712890625E-5,83,41,42,134423,77766,27696,10164,7110,12197,4642,1680,Tag0,unknown
1605697435191,0,-154,-3.3837890625E-5,83,41,42,134423,77766,27696,10164,7110,12197,4642,1680,Tag0,unknown
1605697435204,0,-185,-4.06494140625E-5,83,41,42,134423,77766,27696,10164,7110,12197,4642,1680,Tag0,unknown
1605697435226,0,-150,-3.2958984375E-5,83,41,42,134423,77766,27696,10164,7110,12197,4642,1680,Tag0,unknown
1605697435238,0,-205,-4.50439453125E-5,83,41,42,134423,77766,27696,10164,7110,12197,4642,1680,Tag0,unknown
1605697435259,0,-295,-6.48193359375E-5,83,41,42,134423,77766,27696,10164,7110,12197,4642,1680,Tag0,unknown
1605697435271,0,-314,-6.8994140625E-5,83,41,42,134423,77766,27696,10164,7110,12197,4642,1680,Tag0,unknown
1605697435298,0,57,1.2524414062500001E-5,83,41,42,134423,77766,27696,10164,7110,12197,4642,1680,Tag0,unknown
1605697435308,0,85,1.86767578125E-5,83,41,42,134423,77766,27696,10164,7110,12197,4642,1680,Tag0,unknown
1605697435331,0,-51,-1.1206054687499999E-5,83,41,42,134423,77766,27696,10164,7110,12197,4642,1680,Tag0,unknown
1605697435341,0,311,6.833496093750001E-5,83,41,42,134423,77766,27696,10164,7110,12197,4642,1680,Tag0,unknown
1605697435372,0,11,2.4169921875E-6,83,41,45,134423,77766,27696,10164,7110,12197,4642,1680,Tag0,unknown
1605697435388,0,28,6.15234375E-6,83,41,45,134423,77766,27696,10164,7110,12197,4642,1680,Tag0,unknown
1605697435411,0,-259,-5.69091796875E-5,83,41,45,134423,77766,27696,10164,7110,12197,4642,1680,Tag0,unknown
1605697435427,0,-365,-8.02001953125E-5,83,41,45,134423,77766,27696,10164,7110,12197,4642,1680,Tag0,unknown
1605697435448,0,-147,-3.22998046875E-5,83,41,45,134423,77766,27696,10164,7110,12197,4642,1680,Tag0,unknown
1605697435459,0,37,8.1298828125E-6,83,41,45,134423,77766,27696,10164,7110,12197,4642,1680,Tag0,unknown
1605697435481,0,33,7.2509765625E-6,83,41,45,134423,77766,27696,10164,7110,12197,4642,1680,Tag0,unknown
1605697435491,0,4,8.7890625E-7,83,41,45,134423,77766,27696,10164,7110,12197,4642,1680,Tag0,unknown
1605697435520,0,-317,-6.96533203125E-5,83,41,45,134423,77766,27696,10164,7110,12197,4642,1680,Tag0,unknown
1605697435538,0,-365,-8.02001953125E-5,83,41,45,134423,77766,27696,10164,7110,12197,4642,1680,Tag0,unknown
1605697435556,0,-307,-6.74560546875E-5,83,41,45,134423,77766,27696,10164,7110,12197,4642,1680,Tag0,unknown
1605697435573,0,-360,-7.91015625E-5,83,41,45,134423,77766,27696,10164,7110,12197,4642,1680,Tag0,unknown
1605697435585,0,100,2.197265625E-5,83,41,45,134423,77766,27696,10164,7110,12197,4642,1680,Tag0,unknown
1605697435597,0,211,4.63623046875E-5,83,41,45,134423,77766,27696,10164,7110,12197,4642,1680,Tag0,unknown
1605697435628,0,-60,-1.318359375E-5,83,41,47,134423,77766,27696,10164,7110,12197,4642,1680,Tag0,unknown
1605697435638,0,105,2.30712890625E-5,83,41,47,134423,77766,27696,10164,7110,12197,4642,1680,Tag0,unknown
1605697435667,0,-241,-5.29541015625E-5,83,41,47,134423,77766,27696,10164,7110,12197,4642,1680,Tag0,unknown
1605697435701,0,-499,-1.096435546875E-4,83,41,47,134423,77766,27696,10164,7110,12197,4642,1680,Tag0,unknown
1605697435722,0,-793,-1.742431640625E-4,83,41,47,134423,77766,27696,10164,7110,12197,4642,1680,Tag0,unknown
1605697435739,0,-41,-9.008789062499999E-6,83,41,47,134423,77766,27696,10164,7110,12197,4642,1680,Tag0,unknown
1605697435771,0,-77,-1.69189453125E-5,83,41,47,134423,77766,27696,10164,7110,12197,4642,1680,Tag0,unknown
1605697435789,0,-74,-1.6259765625E-5,83,41,47,134423,77766,27696,10164,7110,12197,4642,1680,Tag0,unknown
1605697435812,0,-111,-2.43896484375E-5,83,41,47,134423,77766,27696,10164,7110,12197,4642,1680,Tag0,unknown
1605697435824,0,44,9.66796875E-6,83,41,47,134423,77766,27696,10164,7110,12197,4642,1680,Tag0,unknown
1605697435848,0,-217,-4.76806640625E-5,83,41,47,134423,77766,27696,10164,7110,12197,4642,1680,Tag0,unknown
1605697435879,0,-95,-2.08740234375E-5,64,29,58,462197,228957,21647,9465,59280,21561,12627,5861,Tag0,unknown
1605697435889,0,306,6.723632812500001E-5,64,29,58,462197,228957,21647,9465,59280,21561,12627,5861,Tag0,unknown
1605697435923,0,416,9.140625E-5,64,29,58,462197,228957,21647,9465,59280,21561,12627,5861,Tag0,unknown
1605697435939,0,507,1.1140136718750001E-4,64,29,58,462197,228957,21647,9465,59280,21561,12627,5861,Tag0,unknown
1605697435958,0,609,1.338134765625E-4,64,29,58,462197,228957,21647,9465,59280,21561,12627,5861,Tag0,unknown
1605697435973,0,385,8.45947265625E-5,64,29,58,462197,228957,21647,9465,59280,21561,12627,5861,Tag0,unknown
1605697435983,0,265,5.82275390625E-5,64,29,58,462197,228957,21647,9465,59280,21561,12627,5861,Tag0,unknown
1605697435997,0,-110,-2.4169921875E-5,64,29,58,462197,228957,21647,9465,59280,21561,12627,5861,Tag0,unknown
1605697436007,0,114,2.5048828125000003E-5,64,29,58,462197,228957,21647,9465,59280,21561,12627,5861,Tag0,unknown
1605697436030,0,105,2.30712890625E-5,64,29,58,462197,228957,21647,9465,59280,21561,12627,5861,Tag0,unknown
1605697436041,0,-56,-1.23046875E-5,64,29,58,462197,228957,21647,9465,59280,21561,12627,5861,Tag0,unknown
1605697436051,0,-108,-2.3730468750000002E-5,64,29,58,462197,228957,21647,9465,59280,21561,12627,5861,Tag0,unknown
1605697436067,0,-94,-2.0654296875000002E-5,64,29,58,462197,228957,21647,9465,59280,21561,12627,5861,Tag0,unknown
1605697436077,0,-19,-4.1748046875E-6,64,29,58,462197,228957,21647,9465,59280,21561,12627,5861,Tag0,unknown
1605697436100,0,274,6.0205078124999997E-5,64,29,58,462197,228957,21647,9465,59280,21561,12627,5861,Tag0,unknown
1605697436110,0,117,2.5708007812499998E-5,64,29,58,462197,228957,21647,9465,59280,21561,12627,5861,Tag0,unknown
1605697436124,0,-369,-8.10791015625E-5,64,29,58,462197,228957,21647,9465,59280,21561,12627,5861,Tag0,unknown
1605697436140,0,32,7.03125E-6,64,29,58,462197,228957,21647,9465,59280,21561,12627,5861,Tag0,unknown
1605697436157,0,-299,-6.56982421875E-5,64,29,58,462197,228957,21647,9465,59280,21561,12627,5861,Tag0,unknown
1605697436174,0,-85,-1.86767578125E-5,64,29,62,462197,228957,21647,9465,59280,21561,12627,5861,Tag0,unknown
1605697436203,0,-39,-8.5693359375E-6,64,29,62,462197,228957,21647,9465,59280,21561,12627,5861,Tag0,unknown
1605697436213,0,349,7.668457031250001E-5,64,29,62,462197,228957,21647,9465,59280,21561,12627,5861,Tag0,unknown
1605697436223,0,356,7.822265625E-5,64,29,62,462197,228957,21647,9465,59280,21561,12627,5861,Tag0,unknown
1605697436245,0,216,4.7460937500000004E-5,64,29,62,462197,228957,21647,9465,59280,21561,12627,5861,Tag0,unknown
1605697436257,0,237,5.2075195312500004E-5,64,29,62,462197,228957,21647,9465,59280,21561,12627,5861,Tag0,unknown
1605697436288,0,573,1.259033203125E-4,64,29,62,462197,228957,21647,9465,59280,21561,12627,5861,Tag0,unknown
1605697436307,0,585,1.285400390625E-4,64,29,62,462197,228957,21647,9465,59280,21561,12627,5861,Tag0,unknown
1605697436325,0,181,3.9770507812500004E-5,64,29,62,462197,228957,21647,9465,59280,21561,12627,5861,Tag0,unknown
1605697436335,0,53,1.1645507812500002E-5,64,29,62,462197,228957,21647,9465,59280,21561,12627,5861,Tag0,unknown
1605697436345,0,-358,-7.8662109375E-5,64,29,62,462197,228957,21647,9465,59280,21561,12627,5861,Tag0,unknown
1605697436365,0,-1122,-2.46533203125E-4,64,29,62,462197,228957,21647,9465,59280,21561,12627,5861,Tag0,unknown
1605697436377,0,-923,-2.028076171875E-4,64,29,62,462197,228957,21647,9465,59280,21561,12627,5861,Tag0,unknown
1605697436394,0,-1181,-2.5949707031250004E-4,64,29,62,462197,228957,21647,9465,59280,21561,12627,5861,Tag0,unknown
1605697436412,0,-1547,-3.3991699218749997E-4,64,29,62,462197,228957,21647,9465,59280,21561,12627,5861,Tag0,unknown
1605697436422,0,-1348,-2.9619140625E-4,64,29,62,462197,228957,21647,9465,59280,21561,12627,5861,Tag0,unknown
1605697436435,0,-951,-2.089599609375E-4,64,29,62,462197,228957,21647,9465,59280,21561,12627,5861,Tag0,unknown
1605697436454,0,-1133,-2.489501953125E-4,64,29,62,462197,228957,21647,9465,59280,21561,12627,5861,Tag0,unknown
1605697436467,0,-758,-1.66552734375E-4,64,29,62,462197,228957,21647,9465,59280,21561,12627,5861,Tag0,unknown
1605697436478,0,-517,-1.135986328125E-4,64,29,62,462197,228957,21647,9465,59280,21561,12627,5861,Tag0,unknown
1605697436509,0,-32,-7.03125E-6,64,29,62,462197,228957,21647,9465,59280,21561,12627,5861,Tag0,unknown
1605697436526,0,274,6.0205078124999997E-5,64,29,62,462197,228957,21647,9465,59280,21561,12627,5861,Tag0,unknown
1605697436546,0,165,3.62548828125E-5,64,29,62,462197,228957,21647,9465,59280,21561,12627,5861,Tag0,unknown
1605697436556,0,179,3.93310546875E-5,64,29,62,462197,228957,21647,9465,59280,21561,12627,5861,Tag0,unknown
1605697436579,0,187,4.10888671875E-5,64,29,62,462197,228957,21647,9465,59280,21561,12627,5861,Tag0,unknown
1605697436592,0,193,4.2407226562500005E-5,64,29,62,462197,228957,21647,9465,59280,21561,12627,5861,Tag0,unknown
1605697436614,0,-43,-9.448242187500001E-6,64,29,62,462197,228957,21647,9465,59280,21561,12627,5861,Tag0,unknown
1605697436627,0,279,6.13037109375E-5,64,29,62,462197,228957,21647,9465,59280,21561,12627,5861,Tag0,unknown
1605697436637,0,-14,-3.076171875E-6,64,29,62,462197,228957,21647,9465,59280,21561,12627,5861,Tag0,unknown
1605697436653,0,277,6.0864257812500005E-5,64,29,62,462197,228957,21647,9465,59280,21561,12627,5861,Tag0,unknown
1605697436663,0,274,6.0205078124999997E-5,64,29,62,462197,228957,21647,9465,59280,21561,12627,5861,Tag0,unknown
1605697436686,0,-13,-2.8564453125E-6,64,29,62,462197,228957,21647,9465,59280,21561,12627,5861,Tag0,unknown
1605697436696,0,260,5.712890625E-5,64,29,62,462197,228957,21647,9465,59280,21561,12627,5861,Tag0,unknown
1605697436724,0,379,8.32763671875E-5,64,29,62,462197,228957,21647,9465,59280,21561,12627,5861,Tag0,unknown
1605697436743,0,333,7.316894531249999E-5,64,29,62,462197,228957,21647,9465,59280,21561,12627,5861,Tag0,unknown
1605697436764,0,381,8.371582031250001E-5,64,29,62,462197,228957,21647,9465,59280,21561,12627,5861,Tag0,unknown
1605697436776,0,272,5.9765625000000004E-5,64,29,62,462197,228957,21647,9465,59280,21561,12627,5861,Tag0,unknown
1605697436797,0,-59,-1.29638671875E-5,64,29,62,462197,228957,21647,9465,59280,21561,12627,5861,Tag0,unknown
1605697436810,0,-111,-2.43896484375E-5,64,29,62,462197,228957,21647,9465,59280,21561,12627,5861,Tag0,unknown
1605697436839,0,-347,-7.62451171875E-5,64,29,62,462197,228957,21647,9465,59280,21561,12627,5861,Tag0,unknown
1605697436881,0,-341,-7.492675781250002E-5,47,30,62,1869133,16768305,15925,8161,16747830,8982,2867,2608,Tag0,unknown
1605697436895,0,-379,-8.32763671875E-5,47,30,62,1869133,16768305,15925,8161,16747830,8982,2867,2608,Tag0,unknown
1605697436914,0,-376,-8.261718750000001E-5,47,30,62,1869133,16768305,15925,8161,16747830,8982,2867,2608,Tag0,unknown
1605697436927,0,-357,-7.844238281250001E-5,47,30,62,1869133,16768305,15925,8161,16747830,8982,2867,2608,Tag0,unknown
1605697436950,0,-307,-6.74560546875E-5,47,30,62,1869133,16768305,15925,8161,16747830,8982,2867,2608,Tag0,unknown
1605697436962,0,52,1.142578125E-5,47,30,47,1869133,16768305,15925,8161,16747830,8982,2867,2608,Tag0,unknown
1605697436972,0,-124,-2.724609375E-5,47,30,47,1869133,16768305,15925,8161,16747830,8982,2867,2608,Tag0,unknown
1605697436988,0,114,2.5048828125000003E-5,47,30,47,1869133,16768305,15925,8161,16747830,8982,2867,2608,Tag0,unknown
1605697436998,0,114,2.5048828125000003E-5,47,30,47,1869133,16768305,15925,8161,16747830,8982,2867,2608,Tag0,unknown
1605697437021,0,-120,-2.63671875E-5,47,30,47,1869133,16768305,15925,8161,16747830,8982,2867,2608,Tag0,unknown
1605697437031,0,-127,-2.79052734375E-5,47,30,47,1869133,16768305,15925,8161,16747830,8982,2867,2608,Tag0,unknown
1605697437060,0,80,1.7578125E-5,47,30,47,1869133,16768305,15925,8161,16747830,8982,2867,2608,Tag0,unknown
1605697437092,0,-23,-5.0537109375E-6,47,30,47,1869133,16768305,15925,8161,16747830,8982,2867,2608,Tag0,unknown
1605697437113,0,-27,-5.9326171875000005E-6,47,30,47,1869133,16768305,15925,8161,16747830,8982,2867,2608,Tag0,unknown
1605697437123,0,259,5.69091796875E-5,47,30,47,1869133,16768305,15925,8161,16747830,8982,2867,2608,Tag0,unknown
1605697437135,0,-61,-1.34033203125E-5,47,30,47,1869133,16768305,15925,8161,16747830,8982,2867,2608,Tag0,unknown
1605697437163,0,53,1.1645507812500002E-5,47,30,47,1869133,16768305,15925,8161,16747830,8982,2867,2608,Tag0,unknown
1605697437178,0,62,1.3623046875E-5,47,30,47,1869133,16768305,15925,8161,16747830,8982,2867,2608,Tag0,unknown
1605697437188,0,-273,-5.998535156250001E-5,47,30,36,1869133,16768305,15925,8161,16747830,8982,2867,2608,Tag0,unknown
1605697437201,0,83,1.82373046875E-5,47,30,36,1869133,16768305,15925,8161,16747830,8982,2867,2608,Tag0,unknown
1605697437217,0,13,2.8564453125E-6,47,30,36,1869133,16768305,15925,8161,16747830,8982,2867,2608,Tag0,unknown
1605697437236,0,22,4.833984375E-6,47,30,36,1869133,16768305,15925,8161,16747830,8982,2867,2608,Tag0,unknown
1605697437246,0,83,1.82373046875E-5,47,30,36,1869133,16768305,15925,8161,16747830,8982,2867,2608,Tag0,unknown
1605697437274,0,112,2.4609375E-5,47,30,36,1869133,16768305,15925,8161,16747830,8982,2867,2608,Tag0,unknown
1605697437308,0,50,1.0986328125E-5,47,30,36,1869133,16768305,15925,8161,16747830,8982,2867,2608,Tag0,unknown
1605697437330,0,24,5.2734375E-6,47,30,36,1869133,16768305,15925,8161,16747830,8982,2867,2608,Tag0,unknown
1605697437340,0,-99,-2.1752929687500003E-5,47,30,36,1869133,16768305,15925,8161,16747830,8982,2867,2608,Tag0,unknown
1605697437350,0,-125,-2.74658203125E-5,47,30,36,1869133,16768305,15925,8161,16747830,8982,2867,2608,Tag0,unknown
1605697437380,0,-101,-2.2192382812500002E-5,47,30,36,1869133,16768305,15925,8161,16747830,8982,2867,2608,Tag0,unknown
1605697437395,0,112,2.4609375E-5,47,30,36,1869133,16768305,15925,8161,16747830,8982,2867,2608,Tag0,unknown
1605697437405,0,-331,-7.272949218750001E-5,47,30,36,1869133,16768305,15925,8161,16747830,8982,2867,2608,Tag0,unknown
1605697437423,0,-363,-7.97607421875E-5,47,30,36,1869133,16768305,15925,8161,16747830,8982,2867,2608,Tag0,unknown
1605697437433,0,136,2.9882812500000002E-5,47,30,36,1869133,16768305,15925,8161,16747830,8982,2867,2608,Tag0,unknown
1605697437456,0,225,4.94384765625E-5,47,30,36,1869133,16768305,15925,8161,16747830,8982,2867,2608,Tag0,unknown
1605697437468,0,577,1.2678222656250002E-4,47,30,36,1869133,16768305,15925,8161,16747830,8982,2867,2608,Tag0,unknown
1605697437489,0,117,2.5708007812499998E-5,47,30,36,1869133,16768305,15925,8161,16747830,8982,2867,2608,Tag0,unknown
1605697437500,0,-39,-8.5693359375E-6,47,30,36,1869133,16768305,15925,8161,16747830,8982,2867,2608,Tag0,unknown
1605697437522,0,61,1.34033203125E-5,47,30,36,1869133,16768305,15925,8161,16747830,8982,2867,2608,Tag0,unknown
1605697437532,0,-134,-2.9443359375000003E-5,47,30,36,1869133,16768305,15925,8161,16747830,8982,2867,2608,Tag0,unknown
1605697437556,0,-219,-4.81201171875E-5,47,30,36,1869133,16768305,15925,8161,16747830,8982,2867,2608,Tag0,unknown
1605697437566,0,-227,-4.98779296875E-5,47,30,36,1869133,16768305,15925,8161,16747830,8982,2867,2608,Tag0,unknown
1605697437593,0,-361,-7.93212890625E-5,47,30,36,1869133,16768305,15925,8161,16747830,8982,2867,2608,Tag0,unknown
1605697437612,0,-159,-3.49365234375E-5,47,30,36,1869133,16768305,15925,8161,16747830,8982,2867,2608,Tag0,unknown
1605697437632,0,-132,-2.900390625E-5,47,30,36,1869133,16768305,15925,8161,16747830,8982,2867,2608,Tag0,unknown
1605697437647,0,-363,-7.97607421875E-5,47,30,36,1869133,16768305,15925,8161,16747830,8982,2867,2608,Tag0,unknown
1605697437669,0,72,1.58203125E-5,47,30,73,1869133,16768305,15925,8161,16747830,8982,2867,2608,Tag0,unknown
1605697437680,0,292,6.416015625000001E-5,47,30,73,1869133,16768305,15925,8161,16747830,8982,2867,2608,Tag0,unknown
1605697437711,0,116,2.548828125E-5,47,30,73,1869133,16768305,15925,8161,16747830,8982,2867,2608,Tag0,unknown
1605697437732,0,-72,-1.58203125E-5,47,30,73,1869133,16768305,15925,8161,16747830,8982,2867,2608,Tag0,unknown
1605697437749,0,219,4.81201171875E-5,47,30,73,1869133,16768305,15925,8161,16747830,8982,2867,2608,Tag0,unknown
1605697437763,0,605,1.329345703125E-4,47,30,73,1869133,16768305,15925,8161,16747830,8982,2867,2608,Tag0,unknown
1605697437780,0,562,1.23486328125E-4,47,30,73,1869133,16768305,15925,8161,16747830,8982,2867,2608,Tag0,unknown
1605697437797,0,535,1.175537109375E-4,47,30,73,1869133,16768305,15925,8161,16747830,8982,2867,2608,Tag0,unknown
1605697437820,0,620,1.3623046875E-4,47,30,73,1869133,16768305,15925,8161,16747830,8982,2867,2608,Tag0,unknown
1605697437830,0,400,8.7890625E-5,47,30,73,1869133,16768305,15925,8161,16747830,8982,2867,2608,Tag0,unknown
1605697437859,0,515,1.131591796875E-4,47,30,73,1869133,16768305,15925,8161,16747830,8982,2867,2608,Tag0,unknown
1605697437871,0,209,4.59228515625E-5,47,30,73,1869133,16768305,15925,8161,16747830,8982,2867,2608,Tag0,unknown
1605697437900,0,-547,-1.201904296875E-4,20,13,73,544061,580741,25933,16767206,37193,16753416,12553,5685,Tag0,unknown
1605697437927,0,-570,-1.25244140625E-4,20,13,73,544061,580741,25933,16767206,37193,16753416,12553,5685,Tag0,unknown
1605697437948,0,-526,-1.1557617187500001E-4,20,13,73,544061,580741,25933,16767206,37193,16753416,12553,5685,Tag0,unknown
1605697437958,0,-627,-1.377685546875E-4,20,13,73,544061,580741,25933,16767206,37193,16753416,12553,5685,Tag0,unknown
1605697437970,0,-631,-1.386474609375E-4,20,13,73,544061,580741,25933,16767206,37193,16753416,12553,5685,Tag0,unknown
1605697437981,0,-411,-9.03076171875E-5,20,13,73,544061,580741,25933,16767206,37193,16753416,12553,5685,Tag0,unknown
1605697438004,0,-809,-1.777587890625E-4,20,13,73,544061,580741,25933,16767206,37193,16753416,12553,5685,Tag0,unknown
1605697438014,0,-495,-1.087646484375E-4,20,13,73,544061,580741,25933,16767206,37193,16753416,12553,5685,Tag0,unknown
1605697438045,0,-139,-3.0541992187500004E-5,20,13,73,544061,580741,25933,16767206,37193,16753416,12553,5685,Tag0,unknown
1605697438064,0,-359,-7.88818359375E-5,20,13,73,544061,580741,25933,16767206,37193,16753416,12553,5685,Tag0,unknown
1605697438081,0,-299,-6.56982421875E-5,20,13,73,544061,580741,25933,16767206,37193,16753416,12553,5685,Tag0,unknown
1605697438098,0,324,7.119140625E-5,20,13,89,544061,580741,25933,16767206,37193,16753416,12553,5685,Tag0,unknown
1605697438118,0,-123,-2.70263671875E-5,20,13,89,544061,580741,25933,16767206,37193,16753416,12553,5685,Tag0,unknown
1605697438132,0,53,1.1645507812500002E-5,20,13,89,544061,580741,25933,16767206,37193,16753416,12553,5685,Tag0,unknown
1605697438152,0,-326,-7.163085937500001E-5,20,13,89,544061,580741,25933,16767206,37193,16753416,12553,5685,Tag0,unknown
1605697438172,0,-372,-8.173828125E-5,20,13,89,544061,580741,25933,16767206,37193,16753416,12553,5685,Tag0,unknown
1605697438185,0,-344,-7.558593750000001E-5,20,13,89,544061,580741,25933,16767206,37193,16753416,12553,5685,Tag0,unknown
1605697438206,0,-260,-5.712890625E-5,20,13,44,544061,580741,25933,16767206,37193,16753416,12553,5685,Tag0,unknown
1605697438216,0,7,1.5380859375E-6,20,13,44,544061,580741,25933,16767206,37193,16753416,12553,5685,Tag0,unknown
1605697438240,0,28,6.15234375E-6,20,13,44,544061,580741,25933,16767206,37193,16753416,12553,5685,Tag0,unknown
1605697438250,0,35,7.6904296875E-6,20,13,44,544061,580741,25933,16767206,37193,16753416,12553,5685,Tag0,unknown
1605697438274,0,100,2.197265625E-5,20,13,44,544061,580741,25933,16767206,37193,16753416,12553,5685,Tag0,unknown
1605697438291,0,99,2.1752929687500003E-5,20,13,44,544061,580741,25933,16767206,37193,16753416,12553,5685,Tag0,unknown
1605697438301,0,-261,-5.73486328125E-5,20,13,44,544061,580741,25933,16767206,37193,16753416,12553,5685,Tag0,unknown
1605697438312,0,-266,-5.8447265625E-5,20,13,44,544061,580741,25933,16767206,37193,16753416,12553,5685,Tag0,unknown
1605697438322,0,35,7.6904296875E-6,20,13,44,544061,580741,25933,16767206,37193,16753416,12553,5685,Tag0,unknown
1605697438345,0,-339,-7.448730468750001E-5,20,13,44,544061,580741,25933,16767206,37193,16753416,12553,5685,Tag0,unknown
1605697438365,0,19,4.1748046875E-6,20,13,44,544061,580741,25933,16767206,37193,16753416,12553,5685,Tag0,unknown
1605697438388,0,-117,-2.5708007812499998E-5,20,13,44,544061,580741,25933,16767206,37193,16753416,12553,5685,Tag0,unknown
1605697438399,0,-128,-2.8125E-5,20,13,44,544061,580741,25933,16767206,37193,16753416,12553,5685,Tag0,unknown
1605697438428,0,30,6.591796875E-6,20,13,44,544061,580741,25933,16767206,37193,16753416,12553,5685,Tag0,unknown
1605697438444,0,-70,-1.5380859375E-5,20,13,44,544061,580741,25933,16767206,37193,16753416,12553,5685,Tag0,unknown
1605697438462,0,-41,-9.008789062499999E-6,20,13,44,544061,580741,25933,16767206,37193,16753416,12553,5685,Tag0,unknown
1605697438536,0,-126,-2.7685546875E-5,20,13,44,544061,580741,25933,16767206,37193,16753416,12553,5685,Tag0,unknown
1605697438554,0,89,1.95556640625E-5,20,13,44,544061,580741,25933,16767206,37193,16753416,12553,5685,Tag0,unknown
1605697438566,0,18,3.955078125E-6,20,13,44,544061,580741,25933,16767206,37193,16753416,12553,5685,Tag0,unknown
1605697438602,0,23,5.0537109375E-6,20,13,44,544061,580741,25933,16767206,37193,16753416,12553,5685,Tag0,unknown
1605697438618,0,-260,-5.712890625E-5,20,13,44,544061,580741,25933,16767206,37193,16753416,12553,5685,Tag0,unknown
1605697438669,0,17,3.7353515625000003E-6,20,13,44,544061,580741,25933,16767206,37193,16753416,12553,5685,Tag0,unknown
1605697438684,0,10,2.197265625E-6,20,13,44,544061,580741,25933,16767206,37193,16753416,12553,5685,Tag0,unknown
1605697438737,0,-276,-6.064453125E-5,20,13,44,544061,580741,25933,16767206,37193,16753416,12553,5685,Tag0,unknown
1605697438752,0,-354,-7.778320312500001E-5,20,13,44,544061,580741,25933,16767206,37193,16753416,12553,5685,Tag0,unknown
1605697438804,0,45,9.8876953125E-6,20,13,44,544061,580741,25933,16767206,37193,16753416,12553,5685,Tag0,unknown
1605697438818,0,115,2.52685546875E-5,20,13,44,544061,580741,25933,16767206,37193,16753416,12553,5685,Tag0,unknown
1605697438943,0,-63,-1.38427734375E-5,20,13,44,544061,580741,25933,16767206,37193,16753416,12553,5685,Tag0,unknown
1605697438959,0,-57,-1.2524414062500001E-5,20,13,44,544061,580741,25933,16767206,37193,16753416,12553,5685,Tag0,unknown
1605697438969,0,113,2.48291015625E-5,20,13,44,544061,580741,25933,16767206,37193,16753416,12553,5685,Tag0,unknown
1605697439009,0,121,2.6586914062500003E-5,20,13,44,544061,580741,25933,16767206,37193,16753416,12553,5685,Tag0,unknown
1605697439019,0,115,2.52685546875E-5,20,13,44,544061,580741,25933,16767206,37193,16753416,12553,5685,Tag0,unknown
1605697439081,0,-276,-6.064453125E-5,20,13,44,544061,580741,25933,16767206,37193,16753416,12553,5685,Tag0,unknown
1605697439091,0,-168,-3.691406250000001E-5,20,13,44,544061,580741,25933,16767206,37193,16753416,12553,5685,Tag0,unknown
1605697439147,0,-150,-3.2958984375E-5,20,13,44,544061,580741,25933,16767206,37193,16753416,12553,5685,Tag0,unknown
1605697439157,0,19,4.1748046875E-6,20,13,44,544061,580741,25933,16767206,37193,16753416,12553,5685,Tag0,unknown
1605697439167,0,7,1.5380859375E-6,20,13,44,544061,580741,25933,16767206,37193,16753416,12553,5685,Tag0,unknown
1605697439177,0,-334,-7.338867187500001E-5,20,13,44,544061,580741,25933,16767206,37193,16753416,12553,5685,Tag0,unknown
1605697439187,0,75,1.64794921875E-5,20,13,44,544061,580741,25933,16767206,37193,16753416,12553,5685,Tag0,unknown
1605697439197,0,-540,-1.1865234375E-4,20,13,44,544061,580741,25933,16767206,37193,16753416,12553,5685,Tag0,unknown
1605697439207,0,861,1.8918457031249998E-4,20,13,44,544061,580741,25933,16767206,37193,16753416,12553,5685,Tag0,unknown
1605697439217,0,627,1.377685546875E-4,20,13,44,544061,580741,25933,16767206,37193,16753416,12553,5685,Tag0,unknown
1605697439227,0,-573,-1.259033203125E-4,20,13,107,544061,580741,25933,16767206,37193,16753416,12553,5685,Tag0,unknown
1605697439237,0,-665,-1.461181640625E-4,20,13,107,544061,580741,25933,16767206,37193,16753416,12553,5685,Tag0,unknown
1605697439252,0,-695,-1.527099609375E-4,20,13,107,544061,580741,25933,16767206,37193,16753416,12553,5685,Tag0,unknown
1605697439283,0,-1117,-2.454345703125E-4,20,13,107,544061,580741,25933,16767206,37193,16753416,12553,5685,Tag0,unknown
1605697439302,0,-1087,-2.3884277343750001E-4,20,13,107,544061,580741,25933,16767206,37193,16753416,12553,5685,Tag0,unknown
1605697439321,0,-443,-9.73388671875E-5,20,13,107,544061,580741,25933,16767206,37193,16753416,12553,5685,Tag0,unknown
1605697439331,0,25,5.4931640625E-6,20,13,107,544061,580741,25933,16767206,37193,16753416,12553,5685,Tag0,unknown
1605697439341,0,-59,-1.29638671875E-5,20,13,107,544061,580741,25933,16767206,37193,16753416,12553,5685,Tag0,unknown
1605697439360,0,-128,-2.8125E-5,20,13,107,544061,580741,25933,16767206,37193,16753416,12553,5685,Tag0,unknown
1605697439390,0,40,8.7890625E-6,20,13,107,544061,580741,25933,16767206,37193,16753416,12553,5685,Tag0,unknown
1605697439402,0,17,3.7353515625000003E-6,20,13,107,544061,580741,25933,16767206,37193,16753416,12553,5685,Tag0,unknown
1605697439427,0,-198,-4.3505859375000006E-5,20,13,107,544061,580741,25933,16767206,37193,16753416,12553,5685,Tag0,unknown
1605697439437,0,-381,-8.371582031250001E-5,20,13,107,544061,580741,25933,16767206,37193,16753416,12553,5685,Tag0,unknown
1605697439465,0,-260,-5.712890625E-5,20,13,107,544061,580741,25933,16767206,37193,16753416,12553,5685,Tag0,unknown
1605697439475,0,100,2.197265625E-5,20,13,107,544061,580741,25933,16767206,37193,16753416,12553,5685,Tag0,unknown
1605697439509,0,257,5.64697265625E-5,20,13,107,544061,580741,25933,16767206,37193,16753416,12553,5685,Tag0,unknown
1605697439520,0,299,6.56982421875E-5,20,13,107,544061,580741,25933,16767206,37193,16753416,12553,5685,Tag0,unknown
1605697439540,0,295,6.48193359375E-5,20,13,107,544061,580741,25933,16767206,37193,16753416,12553,5685,Tag0,unknown
1605697439555,0,-5,-1.0986328125E-6,20,13,107,544061,580741,25933,16767206,37193,16753416,12553,5685,Tag0,unknown
1605697439577,0,289,6.35009765625E-5,20,13,107,544061,580741,25933,16767206,37193,16753416,12553,5685,Tag0,unknown
1605697439587,0,58,1.2744140625E-5,20,13,107,544061,580741,25933,16767206,37193,16753416,12553,5685,Tag0,unknown
1605697439609,0,-277,-6.0864257812500005E-5,20,13,107,544061,580741,25933,16767206,37193,16753416,12553,5685,Tag0,unknown
1605697439620,0,-347,-7.62451171875E-5,20,13,107,544061,580741,25933,16767206,37193,16753416,12553,5685,Tag0,unknown
1605697439647,0,309,6.78955078125E-5,20,13,42,544061,580741,25933,16767206,37193,16753416,12553,5685,Tag0,unknown
1605697439657,0,153,3.3618164062500004E-5,20,13,42,544061,580741,25933,16767206,37193,16753416,12553,5685,Tag0,unknown
1605697439680,0,352,7.734375E-5,20,13,42,544061,580741,25933,16767206,37193,16753416,12553,5685,Tag0,unknown
1605697439690,0,87,1.91162109375E-5,20,13,42,544061,580741,25933,16767206,37193,16753416,12553,5685,Tag0,unknown
1605697439704,0,-156,-3.427734375E-5,20,13,42,544061,580741,25933,16767206,37193,16753416,12553,5685,Tag0,unknown
1605697439722,0,-249,-5.47119140625E-5,20,13,42,544061,580741,25933,16767206,37193,16753416,12553,5685,Tag0,unknown
1605697439737,0,-218,-4.7900390625E-5,20,13,42,544061,580741,25933,16767206,37193,16753416,12553,5685,Tag0,unknown
1605697439755,0,-101,-2.2192382812500002E-5,20,13,42,544061,580741,25933,16767206,37193,16753416,12553,5685,Tag0,unknown
1605697439771,0,267,5.86669921875E-5,20,13,42,544061,580741,25933,16767206,37193,16753416,12553,5685,Tag0,unknown
1605697439800,0,75,1.64794921875E-5,20,13,42,544061,580741,25933,16767206,37193,16753416,12553,5685,Tag0,unknown
1605697439810,0,0,0.0,20,13,42,544061,580741,25933,16767206,37193,16753416,12553,5685,Tag0,unknown
1605697439826,0,-365,-8.02001953125E-5,20,13,42,544061,580741,25933,16767206,37193,16753416,12553,5685,Tag0,unknown
1605697439837,0,-378,-8.3056640625E-5,20,13,42,544061,580741,25933,16767206,37193,16753416,12553,5685,Tag0,unknown
1605697439865,0,51,1.1206054687499999E-5,14,16,42,643334,51544,26022,30293,16759174,22685,9135,3904,Tag0,unknown
1605697439875,0,-29,-6.3720703125E-6,14,16,42,643334,51544,26022,30293,16759174,22685,9135,3904,Tag0,unknown
1605697439888,0,-125,-2.74658203125E-5,14,16,42,643334,51544,26022,30293,16759174,22685,9135,3904,Tag0,unknown
1605697439911,0,-379,-8.32763671875E-5,14,16,42,643334,51544,26022,30293,16759174,22685,9135,3904,Tag0,unknown
1605697439923,0,-193,-4.2407226562500005E-5,14,16,42,643334,51544,26022,30293,16759174,22685,9135,3904,Tag0,unknown
1605697439942,0,-634,-1.39306640625E-4,14,16,42,643334,51544,26022,30293,16759174,22685,9135,3904,Tag0,unknown
1605697439956,0,-588,-1.2919921875E-4,14,16,42,643334,51544,26022,30293,16759174,22685,9135,3904,Tag0,unknown
1605697439966,0,337,7.40478515625E-5,14,16,42,643334,51544,26022,30293,16759174,22685,9135,3904,Tag0,unknown
1605697439981,0,381,8.371582031250001E-5,14,16,42,643334,51544,26022,30293,16759174,22685,9135,3904,Tag0,unknown
1605697439991,0,242,5.3173828125000005E-5,14,16,42,643334,51544,26022,30293,16759174,22685,9135,3904,Tag0,unknown
1605697440014,0,528,1.16015625E-4,14,16,42,643334,51544,26022,30293,16759174,22685,9135,3904,Tag0,unknown
1605697440024,0,219,4.81201171875E-5,14,16,42,643334,51544,26022,30293,16759174,22685,9135,3904,Tag0,unknown
1605697440034,0,-263,-5.7788085937500005E-5,14,16,75,643334,51544,26022,30293,16759174,22685,9135,3904,Tag0,unknown
1605697440049,0,-317,-6.96533203125E-5,14,16,75,643334,51544,26022,30293,16759174,22685,9135,3904,Tag0,unknown
1605697440061,0,-145,-3.18603515625E-5,14,16,75,643334,51544,26022,30293,16759174,22685,9135,3904,Tag0,unknown
1605697440085,0,-424,-9.316406250000001E-5,14,16,75,643334,51544,26022,30293,16759174,22685,9135,3904,Tag0,unknown
1605697440109,0,-356,-7.822265625E-5,14,16,75,643334,51544,26022,30293,16759174,22685,9135,3904,Tag0,unknown
1605697440127,0,-129,-2.8344726562500002E-5,14,16,75,643334,51544,26022,30293,16759174,22685,9135,3904,Tag0,unknown
1605697440161,0,615,1.351318359375E-4,14,16,75,643334,51544,26022,30293,16759174,22685,9135,3904,Tag0,unknown
1605697440173,0,58,1.2744140625E-5,14,16,78,643334,51544,26022,30293,16759174,22685,9135,3904,Tag0,unknown
1605697440199,0,-168,-3.691406250000001E-5,14,16,78,643334,51544,26022,30293,16759174,22685,9135,3904,Tag0,unknown
1605697440209,0,-364,-7.998046875E-5,14,16,78,643334,51544,26022,30293,16759174,22685,9135,3904,Tag0,unknown
1605697440233,0,70,1.5380859375E-5,14,16,78,643334,51544,26022,30293,16759174,22685,9135,3904,Tag0,unknown
1605697440243,0,-21,-4.614257812500001E-6,14,16,78,643334,51544,26022,30293,16759174,22685,9135,3904,Tag0,unknown
1605697440270,0,-94,-2.0654296875000002E-5,14,16,78,643334,51544,26022,30293,16759174,22685,9135,3904,Tag0,unknown
1605697440289,0,-73,-1.6040039062500002E-5,14,16,78,643334,51544,26022,30293,16759174,22685,9135,3904,Tag0,unknown
1605697440306,0,-301,-6.613769531250001E-5,14,16,78,643334,51544,26022,30293,16759174,22685,9135,3904,Tag0,unknown
1605697440324,0,-390,-8.5693359375E-5,14,16,78,643334,51544,26022,30293,16759174,22685,9135,3904,Tag0,unknown
1605697440345,0,-342,-7.5146484375E-5,14,16,78,643334,51544,26022,30293,16759174,22685,9135,3904,Tag0,unknown
1605697440357,0,-80,-1.7578125E-5,14,16,78,643334,51544,26022,30293,16759174,22685,9135,3904,Tag0,unknown
1605697440378,0,291,6.39404296875E-5,14,16,78,643334,51544,26022,30293,16759174,22685,9135,3904,Tag0,unknown
1605697440390,0,346,7.6025390625E-5,14,16,78,643334,51544,26022,30293,16759174,22685,9135,3904,Tag0,unknown
1605697440400,0,65,1.42822265625E-5,14,16,62,643334,51544,26022,30293,16759174,22685,9135,3904,Tag0,unknown
1605697440418,0,58,1.2744140625E-5,14,16,62,643334,51544,26022,30293,16759174,22685,9135,3904,Tag0,unknown
1605697440428,0,-317,-6.96533203125E-5,14,16,62,643334,51544,26022,30293,16759174,22685,9135,3904,Tag0,unknown
1605697440452,0,-264,-5.80078125E-5,14,16,62,643334,51544,26022,30293,16759174,22685,9135,3904,Tag0,unknown
1605697440462,0,27,5.9326171875000005E-6,14,16,62,643334,51544,26022,30293,16759174,22685,9135,3904,Tag0,unknown
1605697440489,0,337,7.40478515625E-5,14,16,62,643334,51544,26022,30293,16759174,22685,9135,3904,Tag0,unknown
1605697440507,0,279,6.13037109375E-5,14,16,62,643334,51544,26022,30293,16759174,22685,9135,3904,Tag0,unknown
1605697440524,0,119,2.6147460937500004E-5,14,16,62,643334,51544,26022,30293,16759174,22685,9135,3904,Tag0,unknown
1605697440541,0,23,5.0537109375E-6,14,16,62,643334,51544,26022,30293,16759174,22685,9135,3904,Tag0,unknown
1605697440561,0,-265,-5.82275390625E-5,14,16,62,643334,51544,26022,30293,16759174,22685,9135,3904,Tag0,unknown
1605697440586,0,19,4.1748046875E-6,14,16,62,643334,51544,26022,30293,16759174,22685,9135,3904,Tag0,unknown
1605697440604,0,-67,-1.4721679687500002E-5,14,16,62,643334,51544,26022,30293,16759174,22685,9135,3904,Tag0,unknown
1605697440624,0,148,3.251953125E-5,14,16,62,643334,51544,26022,30293,16759174,22685,9135,3904,Tag0,unknown
1605697440641,0,549,1.2062988281250001E-4,14,16,62,643334,51544,26022,30293,16759174,22685,9135,3904,Tag0,unknown
1605697440675,0,92,2.021484375E-5,14,16,57,643334,51544,26022,30293,16759174,22685,9135,3904,Tag0,unknown
1605697440691,0,19,4.1748046875E-6,14,16,57,643334,51544,26022,30293,16759174,22685,9135,3904,Tag0,unknown
1605697440701,0,-465,-1.021728515625E-4,14,16,57,643334,51544,26022,30293,16759174,22685,9135,3904,Tag0,unknown
1605697440724,0,-385,-8.45947265625E-5,14,16,57,643334,51544,26022,30293,16759174,22685,9135,3904,Tag0,unknown
1605697440743,0,279,6.13037109375E-5,14,16,57,643334,51544,26022,30293,16759174,22685,9135,3904,Tag0,unknown
1605697440759,0,279,6.13037109375E-5,14,16,57,643334,51544,26022,30293,16759174,22685,9135,3904,Tag0,unknown
1605697440769,0,181,3.9770507812500004E-5,14,16,57,643334,51544,26022,30293,16759174,22685,9135,3904,Tag0,unknown
1605697440781,0,-78,-1.7138671875E-5,14,16,61,643334,51544,26022,30293,16759174,22685,9135,3904,Tag0,unknown
1605697440792,0,107,2.35107421875E-5,14,16,61,643334,51544,26022,30293,16759174,22685,9135,3904,Tag0,unknown
1605697440814,0,-308,-6.767578125E-5,14,16,61,643334,51544,26022,30293,16759174,22685,9135,3904,Tag0,unknown
1605697440825,0,-292,-6.416015625000001E-5,14,16,61,643334,51544,26022,30293,16759174,22685,9135,3904,Tag0,unknown
1605697440835,0,-627,-1.377685546875E-4,14,16,61,643334,51544,26022,30293,16759174,22685,9135,3904,Tag0,unknown
1605697440866,0,-28,-6.15234375E-6,7,21,61,265099,345879,16774676,16771477,16747972,28834,3847,1424,Tag0,unknown
1605697440876,0,162,3.5595703125E-5,7,21,61,265099,345879,16774676,16771477,16747972,28834,3847,1424,Tag0,unknown
1605697440895,0,167,3.6694335937500004E-5,7,21,61,265099,345879,16774676,16771477,16747972,28834,3847,1424,Tag0,unknown
1605697440910,0,130,2.8564453125E-5,7,21,61,265099,345879,16774676,16771477,16747972,28834,3847,1424,Tag0,unknown
1605697440928,0,-75,-1.64794921875E-5,7,21,61,265099,345879,16774676,16771477,16747972,28834,3847,1424,Tag0,unknown
1605697440944,0,-92,-2.021484375E-5,7,21,61,265099,345879,16774676,16771477,16747972,28834,3847,1424,Tag0,unknown
1605697440954,0,89,1.95556640625E-5,7,21,61,265099,345879,16774676,16771477,16747972,28834,3847,1424,Tag0,unknown
1605697440972,0,-4,-8.7890625E-7,7,21,61,265099,345879,16774676,16771477,16747972,28834,3847,1424,Tag0,unknown
1605697441003,0,555,1.219482421875E-4,7,21,61,265099,345879,16774676,16771477,16747972,28834,3847,1424,Tag0,unknown
1605697441013,0,154,3.3837890625E-5,7,21,61,265099,345879,16774676,16771477,16747972,28834,3847,1424,Tag0,unknown
1605697441040,0,-138,-3.0322265625E-5,7,21,61,265099,345879,16774676,16771477,16747972,28834,3847,1424,Tag0,unknown
1605697441059,0,-536,-1.1777343750000001E-4,7,21,61,265099,345879,16774676,16771477,16747972,28834,3847,1424,Tag0,unknown
1605697441077,0,-871,-1.9138183593749998E-4,7,21,61,265099,345879,16774676,16771477,16747972,28834,3847,1424,Tag0,unknown
1605697441093,0,-167,-3.6694335937500004E-5,7,21,61,265099,345879,16774676,16771477,16747972,28834,3847,1424,Tag0,unknown
1605697441114,0,-78,-1.7138671875E-5,7,21,61,265099,345879,16774676,16771477,16747972,28834,3847,1424,Tag0,unknown
1605697441128,0,-51,-1.1206054687499999E-5,7,21,61,265099,345879,16774676,16771477,16747972,28834,3847,1424,Tag0,unknown
1605697441149,0,313,6.87744140625E-5,7,21,61,265099,345879,16774676,16771477,16747972,28834,3847,1424,Tag0,unknown
1605697441163,0,361,7.93212890625E-5,7,21,61,265099,345879,16774676,16771477,16747972,28834,3847,1424,Tag0,unknown
1605697441173,0,-48,-1.0546875E-5,7,21,61,265099,345879,16774676,16771477,16747972,28834,3847,1424,Tag0,unknown
1605697441188,0,39,8.5693359375E-6,7,21,87,265099,345879,16774676,16771477,16747972,28834,3847,1424,Tag0,unknown
1605697441203,0,-379,-8.32763671875E-5,7,21,87,265099,345879,16774676,16771477,16747972,28834,3847,1424,Tag0,unknown
1605697441224,0,-518,-1.13818359375E-4,7,21,87,265099,345879,16774676,16771477,16747972,28834,3847,1424,Tag0,unknown
1605697441243,0,-521,-1.1447753906250001E-4,7,21,87,265099,345879,16774676,16771477,16747972,28834,3847,1424,Tag0,unknown
1605697441253,0,87,1.91162109375E-5,7,21,87,265099,345879,16774676,16771477,16747972,28834,3847,1424,Tag0,unknown
1605697441263,0,65,1.42822265625E-5,7,21,87,265099,345879,16774676,16771477,16747972,28834,3847,1424,Tag0,unknown
1605697441294,0,264,5.80078125E-5,7,21,87,265099,345879,16774676,16771477,16747972,28834,3847,1424,Tag0,unknown
1605697441310,0,-9,-1.9775390625E-6,7,21,51,265099,345879,16774676,16771477,16747972,28834,3847,1424,Tag0,unknown
1605697441320,0,-307,-6.74560546875E-5,7,21,51,265099,345879,16774676,16771477,16747972,28834,3847,1424,Tag0,unknown
1605697441336,0,-541,-1.1887207031250001E-4,7,21,51,265099,345879,16774676,16771477,16747972,28834,3847,1424,Tag0,unknown
1605697441346,0,-236,-5.185546875E-5,7,21,51,265099,345879,16774676,16771477,16747972,28834,3847,1424,Tag0,unknown
1605697441360,0,10,2.197265625E-6,7,21,51,265099,345879,16774676,16771477,16747972,28834,3847,1424,Tag0,unknown
1605697441381,0,-10,-2.197265625E-6,7,21,51,265099,345879,16774676,16771477,16747972,28834,3847,1424,Tag0,unknown
1605697441405,0,-45,-9.8876953125E-6,7,21,51,265099,345879,16774676,16771477,16747972,28834,3847,1424,Tag0,unknown
1605697441424,0,-69,-1.51611328125E-5,7,21,51,265099,345879,16774676,16771477,16747972,28834,3847,1424,Tag0,unknown
1605697441455,0,-327,-7.18505859375E-5,7,21,51,265099,345879,16774676,16771477,16747972,28834,3847,1424,Tag0,unknown
1605697441465,0,-292,-6.416015625000001E-5,7,21,51,265099,345879,16774676,16771477,16747972,28834,3847,1424,Tag0,unknown
1605697441489,0,-266,-5.8447265625E-5,7,21,51,265099,345879,16774676,16771477,16747972,28834,3847,1424,Tag0,unknown
1605697441499,0,69,1.51611328125E-5,7,21,51,265099,345879,16774676,16771477,16747972,28834,3847,1424,Tag0,unknown
1605697441527,0,-117,-2.5708007812499998E-5,7,21,51,265099,345879,16774676,16771477,16747972,28834,3847,1424,Tag0,unknown
1605697441546,0,89,1.95556640625E-5,7,21,51,265099,345879,16774676,16771477,16747972,28834,3847,1424,Tag0,unknown
1605697441563,0,13,2.8564453125E-6,7,21,51,265099,345879,16774676,16771477,16747972,28834,3847,1424,Tag0,unknown
1605697441579,0,-292,-6.416015625000001E-5,7,21,51,265099,345879,16774676,16771477,16747972,28834,3847,1424,Tag0,unknown
1605697441589,0,37,8.1298828125E-6,7,21,51,265099,345879,16774676,16771477,16747972,28834,3847,1424,Tag0,unknown
1605697441603,0,59,1.29638671875E-5,7,21,51,265099,345879,16774676,16771477,16747972,28834,3847,1424,Tag0,unknown
1605697441613,0,13,2.8564453125E-6,7,21,51,265099,345879,16774676,16771477,16747972,28834,3847,1424,Tag0,unknown
1605697441637,0,-128,-2.8125E-5,7,21,51,265099,345879,16774676,16771477,16747972,28834,3847,1424,Tag0,unknown
1605697441655,0,84,1.8457031250000004E-5,7,21,51,265099,345879,16774676,16771477,16747972,28834,3847,1424,Tag0,unknown
1605697441665,0,45,9.8876953125E-6,7,21,51,265099,345879,16774676,16771477,16747972,28834,3847,1424,Tag0,unknown
1605697441681,0,43,9.448242187500001E-6,7,21,51,265099,345879,16774676,16771477,16747972,28834,3847,1424,Tag0,unknown
1605697441706,0,-115,-2.52685546875E-5,7,21,51,265099,345879,16774676,16771477,16747972,28834,3847,1424,Tag0,unknown
1605697441716,0,-76,-1.669921875E-5,7,21,51,265099,345879,16774676,16771477,16747972,28834,3847,1424,Tag0,unknown
1605697441728,0,-91,-1.99951171875E-5,7,21,51,265099,345879,16774676,16771477,16747972,28834,3847,1424,Tag0,unknown
1605697441752,0,121,2.6586914062500003E-5,7,21,51,265099,345879,16774676,16771477,16747972,28834,3847,1424,Tag0,unknown
1605697441762,0,-90,-1.9775390625E-5,7,21,51,265099,345879,16774676,16771477,16747972,28834,3847,1424,Tag0,unknown
1605697441785,0,60,1.318359375E-5,7,21,51,265099,345879,16774676,16771477,16747972,28834,3847,1424,Tag0,unknown
1605697441795,0,73,1.6040039062500002E-5,7,21,51,265099,345879,16774676,16771477,16747972,28834,3847,1424,Tag0,unknown
1605697441805,0,-321,-7.053222656250001E-5,7,21,51,265099,345879,16774676,16771477,16747972,28834,3847,1424,Tag0,unknown
1605697441825,0,-264,-5.80078125E-5,7,21,51,265099,345879,16774676,16771477,16747972,28834,3847,1424,Tag0,unknown
1605697441846,0,99,2.1752929687500003E-5,7,21,51,265099,345879,16774676,16771477,16747972,28834,3847,1424,Tag0,unknown
1605697441867,0,-93,-2.04345703125E-5,14,40,51,14668,16744775,10950,4569,9186,4362,673,320,Tag0,unknown
1605697441896,0,260,5.712890625E-5,14,40,51,14668,16744775,10950,4569,9186,4362,673,320,Tag0,unknown
1605697441913,0,284,6.240234375E-5,14,40,51,14668,16744775,10950,4569,9186,4362,673,320,Tag0,unknown
1605697441923,0,-45,-9.8876953125E-6,14,40,42,14668,16744775,10950,4569,9186,4362,673,320,Tag0,unknown
1605697441934,0,-68,-1.4941406250000001E-5,14,40,42,14668,16744775,10950,4569,9186,4362,673,320,Tag0,unknown
1605697441948,0,108,2.3730468750000002E-5,14,40,42,14668,16744775,10950,4569,9186,4362,673,320,Tag0,unknown
1605697441968,0,-332,-7.294921875E-5,14,40,42,14668,16744775,10950,4569,9186,4362,673,320,Tag0,unknown
1605697441980,0,-137,-3.0102539062499998E-5,14,40,42,14668,16744775,10950,4569,9186,4362,673,320,Tag0,unknown
1605697442008,0,60,1.318359375E-5,14,40,42,14668,16744775,10950,4569,9186,4362,673,320,Tag0,unknown
1605697442018,0,33,7.2509765625E-6,14,40,42,14668,16744775,10950,4569,9186,4362,673,320,Tag0,unknown
1605697442032,0,-58,-1.2744140625E-5,14,40,42,14668,16744775,10950,4569,9186,4362,673,320,Tag0,unknown
1605697442047,0,-25,-5.4931640625E-6,14,40,42,14668,16744775,10950,4569,9186,4362,673,320,Tag0,unknown
1605697442086,0,52,1.142578125E-5,14,40,42,14668,16744775,10950,4569,9186,4362,673,320,Tag0,unknown
1605697442097,0,-121,-2.6586914062500003E-5,14,40,42,14668,16744775,10950,4569,9186,4362,673,320,Tag0,unknown
1605697442114,0,-85,-1.86767578125E-5,14,40,42,14668,16744775,10950,4569,9186,4362,673,320,Tag0,unknown
1605697442130,0,-25,-5.4931640625E-6,14,40,42,14668,16744775,10950,4569,9186,4362,673,320,Tag0,unknown
1605697442151,0,-47,-1.0327148437500001E-5,14,40,42,14668,16744775,10950,4569,9186,4362,673,320,Tag0,unknown
1605697442171,0,-85,-1.86767578125E-5,14,40,42,14668,16744775,10950,4569,9186,4362,673,320,Tag0,unknown
1605697442196,0,-100,-2.197265625E-5,14,40,42,14668,16744775,10950,4569,9186,4362,673,320,Tag0,unknown
1605697442214,0,56,1.23046875E-5,14,40,42,14668,16744775,10950,4569,9186,4362,673,320,Tag0,unknown
1605697442246,0,-57,-1.2524414062500001E-5,14,40,42,14668,16744775,10950,4569,9186,4362,673,320,Tag0,unknown
1605697442256,0,-311,-6.833496093750001E-5,14,40,42,14668,16744775,10950,4569,9186,4362,673,320,Tag0,unknown
1605697442274,0,83,1.82373046875E-5,14,40,42,14668,16744775,10950,4569,9186,4362,673,320,Tag0,unknown
1605697442287,0,27,5.9326171875000005E-6,14,40,42,14668,16744775,10950,4569,9186,4362,673,320,Tag0,unknown
1605697442314,0,39,8.5693359375E-6,14,40,42,14668,16744775,10950,4569,9186,4362,673,320,Tag0,unknown
1605697442324,0,-277,-6.0864257812500005E-5,14,40,42,14668,16744775,10950,4569,9186,4362,673,320,Tag0,unknown
1605697442347,0,-279,-6.13037109375E-5,14,40,42,14668,16744775,10950,4569,9186,4362,673,320,Tag0,unknown
1605697442365,0,8,1.7578125E-6,14,40,42,14668,16744775,10950,4569,9186,4362,673,320,Tag0,unknown
1605697442386,0,-498,-1.09423828125E-4,14,40,42,14668,16744775,10950,4569,9186,4362,673,320,Tag0,unknown
1605697442399,0,-1783,-3.917724609375E-4,14,40,42,14668,16744775,10950,4569,9186,4362,673,320,Tag0,unknown
1605697442420,0,-2048,-4.5E-4,14,40,42,14668,16744775,10950,4569,9186,4362,673,320,Tag0,unknown
1605697442431,0,-2048,-4.5E-4,14,40,42,14668,16744775,10950,4569,9186,4362,673,320,Tag0,unknown
1605697442452,0,-2108,-4.6318359375E-4,14,40,42,14668,16744775,10950,4569,9186,4362,673,320,Tag0,unknown
1605697442465,0,-1716,-3.7705078125E-4,14,40,42,14668,16744775,10950,4569,9186,4362,673,320,Tag0,unknown
1605697442490,0,691,1.518310546875E-4,14,40,42,14668,16744775,10950,4569,9186,4362,673,320,Tag0,unknown
1605697442500,0,947,2.0808105468750001E-4,14,40,42,14668,16744775,10950,4569,9186,4362,673,320,Tag0,unknown
1605697442524,0,1791,3.935302734375E-4,14,40,42,14668,16744775,10950,4569,9186,4362,673,320,Tag0,unknown
1605697442548,0,1791,3.935302734375E-4,14,40,42,14668,16744775,10950,4569,9186,4362,673,320,Tag0,unknown
1605697442558,0,1805,3.966064453125E-4,14,40,42,14668,16744775,10950,4569,9186,4362,673,320,Tag0,unknown
1605697442580,0,1435,3.153076171875E-4,14,40,42,14668,16744775,10950,4569,9186,4362,673,320,Tag0,unknown
1605697442609,0,1113,2.445556640625E-4,14,40,42,14668,16744775,10950,4569,9186,4362,673,320,Tag0,unknown
1605697442619,0,710,1.56005859375E-4,14,40,42,14668,16744775,10950,4569,9186,4362,673,320,Tag0,unknown
1605697442629,0,224,4.921875E-5,14,40,42,14668,16744775,10950,4569,9186,4362,673,320,Tag0,unknown
1605697442645,0,203,4.460449218750001E-5,14,40,42,14668,16744775,10950,4569,9186,4362,673,320,Tag0,unknown
1605697442655,0,363,7.97607421875E-5,14,40,42,14668,16744775,10950,4569,9186,4362,673,320,Tag0,unknown
1605697442665,0,309,6.78955078125E-5,14,40,42,14668,16744775,10950,4569,9186,4362,673,320,Tag0,unknown
1605697442687,0,-61,-1.34033203125E-5,14,40,42,14668,16744775,10950,4569,9186,4362,673,320,Tag0,unknown
1605697442699,0,-73,-1.6040039062500002E-5,14,40,42,14668,16744775,10950,4569,9186,4362,673,320,Tag0,unknown
1605697442721,0,-85,-1.86767578125E-5,14,40,42,14668,16744775,10950,4569,9186,4362,673,320,Tag0,unknown
1605697442732,0,-78,-1.7138671875E-5,14,40,42,14668,16744775,10950,4569,9186,4362,673,320,Tag0,unknown
1605697442742,0,-117,-2.5708007812499998E-5,14,40,42,14668,16744775,10950,4569,9186,4362,673,320,Tag0,unknown
1605697442759,0,-122,-2.6806640625E-5,14,40,42,14668,16744775,10950,4569,9186,4362,673,320,Tag0,unknown
1605697442769,0,124,2.724609375E-5,14,40,42,14668,16744775,10950,4569,9186,4362,673,320,Tag0,unknown
1605697442795,0,107,2.35107421875E-5,14,40,42,14668,16744775,10950,4569,9186,4362,673,320,Tag0,unknown
1605697442805,0,97,2.13134765625E-5,14,40,42,14668,16744775,10950,4569,9186,4362,673,320,Tag0,unknown
1605697442832,0,-557,-1.223876953125E-4,14,40,42,14668,16744775,10950,4569,9186,4362,673,320,Tag0,unknown
1605697442850,0,-790,-1.73583984375E-4,14,40,42,14668,16744775,10950,4569,9186,4362,673,320,Tag0,unknown
1605697442860,51,-2067,-4.541748046875E-4,14,40,42,1077546,156075,25638,16761666,16760572,16769624,12865,7028,Tag0,unknown
1605697442873,51,-1778,-3.90673828125E-4,14,40,42,1077546,156075,25638,16761666,16760572,16769624,12865,7028,Tag0,unknown
1605697442904,51,-1554,-3.41455078125E-4,14,40,42,1077546,156075,25638,16761666,16760572,16769624,12865,7028,Tag0,unknown
1605697442916,51,-1223,-2.687255859375E-4,14,40,42,1077546,156075,25638,16761666,16760572,16769624,12865,7028,Tag0,unknown
1605697442926,51,-822,-1.80615234375E-4,14,40,42,1077546,156075,25638,16761666,16760572,16769624,12865,7028,Tag0,unknown
1605697442948,51,-779,-1.7116699218750001E-4,14,40,42,1077546,156075,25638,16761666,16760572,16769624,12865,7028,Tag0,unknown
1605697442967,51,-472,-1.037109375E-4,14,40,42,1077546,156075,25638,16761666,16760572,16769624,12865,7028,Tag0,unknown
1605697442985,51,-427,-9.382324218750001E-5,14,40,42,1077546,156075,25638,16761666,16760572,16769624,12865,7028,Tag0,unknown
1605697443002,51,-135,-2.96630859375E-5,14,40,42,1077546,156075,25638,16761666,16760572,16769624,12865,7028,Tag0,unknown
1605697443019,51,571,1.254638671875E-4,14,40,42,1077546,156075,25638,16761666,16760572,16769624,12865,7028,Tag0,unknown
1605697443046,51,622,1.3666992187500002E-4,14,40,42,1077546,156075,25638,16761666,16760572,16769624,12865,7028,Tag0,unknown
1605697443064,51,284,6.240234375E-5,14,40,42,1077546,156075,25638,16761666,16760572,16769624,12865,7028,Tag0,unknown
1605697443074,51,-429,-9.42626953125E-5,14,40,42,1077546,156075,25638,16761666,16760572,16769624,12865,7028,Tag0,unknown
1605697443091,51,-428,-9.404296875E-5,14,40,42,1077546,156075,25638,16761666,16760572,16769624,12865,7028,Tag0,unknown
1605697443101,51,-426,-9.3603515625E-5,14,40,42,1077546,156075,25638,16761666,16760572,16769624,12865,7028,Tag0,unknown
1605697443124,51,-234,-5.1416015624999996E-5,14,40,42,1077546,156075,25638,16761666,16760572,16769624,12865,7028,Tag0,unknown
1605697443134,51,-521,-1.1447753906250001E-4,14,40,42,1077546,156075,25638,16761666,16760572,16769624,12865,7028,Tag0,unknown
1605697443164,51,-275,-6.04248046875E-5,14,40,42,1077546,156075,25638,16761666,16760572,16769624,12865,7028,Tag0,unknown
1605697443186,51,48,1.0546875E-5,14,40,42,1077546,156075,25638,16761666,16760572,16769624,12865,7028,Tag0,unknown
1605697443202,51,183,4.02099609375E-5,14,40,42,1077546,156075,25638,16761666,16760572,16769624,12865,7028,Tag0,unknown
1605697443218,51,378,8.3056640625E-5,14,40,42,1077546,156075,25638,16761666,16760572,16769624,12865,7028,Tag0,unknown
1605697443235,51,-8,-1.7578125E-6,14,40,42,1077546,156075,25638,16761666,16760572,16769624,12865,7028,Tag0,unknown
1605697443251,51,260,5.712890625E-5,14,40,42,1077546,156075,25638,16761666,16760572,16769624,12865,7028,Tag0,unknown
1605697443269,51,-315,-6.92138671875E-5,14,40,42,1077546,156075,25638,16761666,16760572,16769624,12865,7028,Tag0,unknown
1605697443286,51,-325,-7.14111328125E-5,14,40,42,1077546,156075,25638,16761666,16760572,16769624,12865,7028,Tag0,unknown
1605697443296,51,-611,-1.3425292968749999E-4,14,40,42,1077546,156075,25638,16761666,16760572,16769624,12865,7028,Tag0,unknown
1605697443310,51,-183,-4.02099609375E-5,14,40,42,1077546,156075,25638,16761666,16760572,16769624,12865,7028,Tag0,unknown
1605697443322,51,-322,-7.0751953125E-5,14,40,42,1077546,156075,25638,16761666,16760572,16769624,12865,7028,Tag0,unknown
1605697443343,51,304,6.6796875E-5,14,40,42,1077546,156075,25638,16761666,16760572,16769624,12865,7028,Tag0,unknown
1605697443353,51,181,3.9770507812500004E-5,14,40,42,1077546,156075,25638,16761666,16760572,16769624,12865,7028,Tag0,unknown
1605697443363,51,437,9.602050781250001E-5,14,40,42,1077546,156075,25638,16761666,16760572,16769624,12865,7028,Tag0,unknown
1605697443382,51,451,9.909667968750001E-5,14,40,42,1077546,156075,25638,16761666,16760572,16769624,12865,7028,Tag0,unknown
1605697443403,51,405,8.89892578125E-5,14,40,42,1077546,156075,25638,16761666,16760572,16769624,12865,7028,Tag0,unknown
1605697443421,51,150,3.2958984375E-5,14,40,42,1077546,156075,25638,16761666,16760572,16769624,12865,7028,Tag0,unknown
1605697443437,51,-19,-4.1748046875E-6,14,40,42,1077546,156075,25638,16761666,16760572,16769624,12865,7028,Tag0,unknown
1605697443458,51,311,6.833496093750001E-5,14,40,42,1077546,156075,25638,16761666,16760572,16769624,12865,7028,Tag0,unknown
1605697443528,51,-85,-1.86767578125E-5,14,40,42,1077546,156075,25638,16761666,16760572,16769624,12865,7028,Tag0,unknown
1605697443538,51,-101,-2.2192382812500002E-5,14,40,42,1077546,156075,25638,16761666,16760572,16769624,12865,7028,Tag0,unknown
1605697443596,51,9,1.9775390625E-6,14,40,42,1077546,156075,25638,16761666,16760572,16769624,12865,7028,Tag0,unknown
1605697443606,51,60,1.318359375E-5,14,40,42,1077546,156075,25638,16761666,16760572,16769624,12865,7028,Tag0,unknown
1605697443663,51,18,3.955078125E-6,14,40,42,1077546,156075,25638,16761666,16760572,16769624,12865,7028,Tag0,unknown
1605697443673,51,37,8.1298828125E-6,14,40,42,1077546,156075,25638,16761666,16760572,16769624,12865,7028,Tag0,unknown
1605697443731,51,-279,-6.13037109375E-5,14,40,42,1077546,156075,25638,16761666,16760572,16769624,12865,7028,Tag0,unknown
1605697443741,51,24,5.2734375E-6,14,40,42,1077546,156075,25638,16761666,16760572,16769624,12865,7028,Tag0,unknown
1605697443799,51,-283,-6.218261718750001E-5,14,40,42,1077546,156075,25638,16761666,16760572,16769624,12865,7028,Tag0,unknown
1605697443809,51,-291,-6.39404296875E-5,14,40,42,1077546,156075,25638,16761666,16760572,16769624,12865,7028,Tag0,unknown
1605697443867,51,-211,-4.63623046875E-5,14,40,42,1077546,156075,25638,16761666,16760572,16769624,12865,7028,Tag0,unknown
1605697443877,51,-129,-2.8344726562500002E-5,14,40,42,1077546,156075,25638,16761666,16760572,16769624,12865,7028,Tag0,unknown
1605697443933,51,-229,-5.03173828125E-5,14,40,42,1077546,156075,25638,16761666,16760572,16769624,12865,7028,Tag0,unknown
1605697443955,51,-232,-5.09765625E-5,14,40,42,1077546,156075,25638,16761666,16760572,16769624,12865,7028,Tag0,unknown
1605697444000,51,-172,-3.7792968750000005E-5,14,40,42,1077546,156075,25638,16761666,16760572,16769624,12865,7028,Tag0,unknown
1605697444021,51,-177,-3.8891601562500006E-5,14,40,42,1077546,156075,25638,16761666,16760572,16769624,12865,7028,Tag0,unknown
1605697444139,51,-322,-7.0751953125E-5,14,40,42,1077546,156075,25638,16761666,16760572,16769624,12865,7028,Tag0,unknown
1605697444156,51,-172,-3.7792968750000005E-5,14,40,42,1077546,156075,25638,16761666,16760572,16769624,12865,7028,Tag0,unknown
1605697444166,51,18,3.955078125E-6,14,40,42,1077546,156075,25638,16761666,16760572,16769624,12865,7028,Tag0,unknown
1605697444176,51,67,1.4721679687500002E-5,14,40,42,1077546,156075,25638,16761666,16760572,16769624,12865,7028,Tag0,unknown
1605697444186,51,103,2.26318359375E-5,14,40,42,1077546,156075,25638,16761666,16760572,16769624,12865,7028,Tag0,unknown
1605697444196,51,-1322,-2.90478515625E-4,14,40,42,1077546,156075,25638,16761666,16760572,16769624,12865,7028,Tag0,unknown
1605697444206,51,-603,-1.3249511718750002E-4,14,40,42,1077546,156075,25638,16761666,16760572,16769624,12865,7028,Tag0,unknown
1605697444216,51,1319,2.898193359375E-4,14,40,42,1077546,156075,25638,16761666,16760572,16769624,12865,7028,Tag0,unknown
1605697444227,51,928,2.0390625E-4,14,40,42,1077546,156075,25638,16761666,16760572,16769624,12865,7028,Tag0,unknown
1605697444241,51,1063,2.335693359375E-4,14,40,42,1077546,156075,25638,16761666,16760572,16769624,12865,7028,Tag0,unknown
1605697444260,51,1029,2.260986328125E-4,14,40,42,1077546,156075,25638,16761666,16760572,16769624,12865,7028,Tag0,unknown
1605697444283,51,613,1.3469238281250002E-4,14,40,42,1077546,156075,25638,16761666,16760572,16769624,12865,7028,Tag0,unknown
1605697444317,51,307,6.74560546875E-5,14,40,42,1077546,156075,25638,16761666,16760572,16769624,12865,7028,Tag0,unknown
1605697444328,51,102,2.2412109374999998E-5,14,40,42,1077546,156075,25638,16761666,16760572,16769624,12865,7028,Tag0,unknown
1605697444353,51,-280,-6.15234375E-5,14,40,42,1077546,156075,25638,16761666,16760572,16769624,12865,7028,Tag0,unknown
1605697444372,51,71,1.56005859375E-5,14,40,42,1077546,156075,25638,16761666,16760572,16769624,12865,7028,Tag0,unknown
1605697444390,51,21,4.614257812500001E-6,14,40,42,1077546,156075,25638,16761666,16760572,16769624,12865,7028,Tag0,unknown
1605697444407,51,-337,-7.40478515625E-5,14,40,42,1077546,156075,25638,16761666,16760572,16769624,12865,7028,Tag0,unknown
1605697444417,51,-297,-6.525878906250001E-5,14,40,42,1077546,156075,25638,16761666,16760572,16769624,12865,7028,Tag0,unknown
1605697444427,51,-274,-6.0205078124999997E-5,14,40,42,1077546,156075,25638,16761666,16760572,16769624,12865,7028,Tag0,unknown
1605697444458,51,-135,-2.96630859375E-5,14,40,42,1077546,156075,25638,16761666,16760572,16769624,12865,7028,Tag0,unknown
1605697444472,51,-132,-2.900390625E-5,14,40,42,1077546,156075,25638,16761666,16760572,16769624,12865,7028,Tag0,unknown
1605697444482,51,-295,-6.48193359375E-5,14,40,42,1077546,156075,25638,16761666,16760572,16769624,12865,7028,Tag0,unknown
1605697444498,51,-269,-5.9106445312499996E-5,14,40,42,1077546,156075,25638,16761666,16760572,16769624,12865,7028,Tag0,unknown
1605697444512,51,-343,-7.53662109375E-5,14,40,42,1077546,156075,25638,16761666,16760572,16769624,12865,7028,Tag0,unknown
1605697444532,51,-131,-2.87841796875E-5,14,40,42,1077546,156075,25638,16761666,16760572,16769624,12865,7028,Tag0,unknown
1605697444542,51,-349,-7.668457031250001E-5,14,40,42,1077546,156075,25638,16761666,16760572,16769624,12865,7028,Tag0,unknown
1605697444572,51,-150,-3.2958984375E-5,14,40,42,1077546,156075,25638,16761666,16760572,16769624,12865,7028,Tag0,unknown
1605697444590,51,-143,-3.14208984375E-5,14,40,42,1077546,156075,25638,16761666,16760572,16769624,12865,7028,Tag0,unknown
1605697444606,51,-321,-7.053222656250001E-5,14,40,42,1077546,156075,25638,16761666,16760572,16769624,12865,7028,Tag0,unknown
1605697444623,51,61,1.34033203125E-5,14,40,42,1077546,156075,25638,16761666,16760572,16769624,12865,7028,Tag0,unknown
1605697444645,51,321,7.053222656250001E-5,14,40,42,1077546,156075,25638,16761666,16760572,16769624,12865,7028,Tag0,unknown
1605697444662,51,327,7.18505859375E-5,14,40,42,1077546,156075,25638,16761666,16760572,16769624,12865,7028,Tag0,unknown
1605697444697,51,-10,-2.197265625E-6,14,40,42,1077546,156075,25638,16761666,16760572,16769624,12865,7028,Tag0,unknown
1605697444707,51,288,6.328125E-5,14,40,42,1077546,156075,25638,16761666,16760572,16769624,12865,7028,Tag0,unknown
1605697444730,51,357,7.844238281250001E-5,14,40,42,1077546,156075,25638,16761666,16760572,16769624,12865,7028,Tag0,unknown
1605697444740,51,155,3.40576171875E-5,14,40,42,1077546,156075,25638,16761666,16760572,16769624,12865,7028,Tag0,unknown
1605697444750,51,-7,-1.5380859375E-6,14,40,42,1077546,156075,25638,16761666,16760572,16769624,12865,7028,Tag0,unknown
1605697444767,51,-9,-1.9775390625E-6,14,40,42,1077546,156075,25638,16761666,16760572,16769624,12865,7028,Tag0,unknown
1605697444777,51,304,6.6796875E-5,14,40,42,1077546,156075,25638,16761666,16760572,16769624,12865,7028,Tag0,unknown
1605697444801,51,151,3.31787109375E-5,14,40,42,1077546,156075,25638,16761666,16760572,16769624,12865,7028,Tag0,unknown
1605697444824,51,310,6.8115234375E-5,14,40,42,1077546,156075,25638,16761666,16760572,16769624,12865,7028,Tag0,unknown
1605697444834,51,-636,-1.3974609375E-4,14,40,42,1077546,156075,25638,16761666,16760572,16769624,12865,7028,Tag0,unknown
1605697444844,0,-457,-1.004150390625E-4,11,38,42,2370659,1029185,16747386,99203,272403,16758191,16757323,28382,Tag0,unknown
1605697444875,0,-798,-1.7534179687500001E-4,11,38,42,2370659,1029185,16747386,99203,272403,16758191,16757323,28382,Tag0,unknown
1605697444891,0,-595,-1.307373046875E-4,11,38,42,2370659,1029185,16747386,99203,272403,16758191,16757323,28382,Tag0,unknown
1605697444914,0,102,2.2412109374999998E-5,11,38,42,2370659,1029185,16747386,99203,272403,16758191,16757323,28382,Tag0,unknown
1605697444924,0,-127,-2.79052734375E-5,11,38,42,2370659,1029185,16747386,99203,272403,16758191,16757323,28382,Tag0,unknown
1605697444951,0,-379,-8.32763671875E-5,11,38,42,2370659,1029185,16747386,99203,272403,16758191,16757323,28382,Tag0,unknown
1605697444963,0,-520,-1.142578125E-4,11,38,42,2370659,1029185,16747386,99203,272403,16758191,16757323,28382,Tag0,unknown
1605697444988,0,-537,-1.179931640625E-4,11,38,42,2370659,1029185,16747386,99203,272403,16758191,16757323,28382,Tag0,unknown
1605697445008,0,-213,-4.68017578125E-5,11,38,42,2370659,1029185,16747386,99203,272403,16758191,16757323,28382,Tag0,unknown
1605697445028,0,28,6.15234375E-6,11,38,42,2370659,1029185,16747386,99203,272403,16758191,16757323,28382,Tag0,unknown
1605697445043,0,21,4.614257812500001E-6,11,38,42,2370659,1029185,16747386,99203,272403,16758191,16757323,28382,Tag0,unknown
1605697445066,0,128,2.8125E-5,11,38,42,2370659,1029185,16747386,99203,272403,16758191,16757323,28382,Tag0,unknown
1605697445078,0,-196,-4.306640625E-5,11,38,42,2370659,1029185,16747386,99203,272403,16758191,16757323,28382,Tag0,unknown
1605697445098,0,-547,-1.201904296875E-4,11,38,42,2370659,1029185,16747386,99203,272403,16758191,16757323,28382,Tag0,unknown
1605697445108,0,-583,-1.281005859375E-4,11,38,42,2370659,1029185,16747386,99203,272403,16758191,16757323,28382,Tag0,unknown
1605697445132,0,85,1.86767578125E-5,11,38,42,2370659,1029185,16747386,99203,272403,16758191,16757323,28382,Tag0,unknown
1605697445142,0,-126,-2.7685546875E-5,11,38,42,2370659,1029185,16747386,99203,272403,16758191,16757323,28382,Tag0,unknown
1605697445170,0,58,1.2744140625E-5,11,38,42,2370659,1029185,16747386,99203,272403,16758191,16757323,28382,Tag0,unknown
1605697445204,0,114,2.5048828125000003E-5,11,38,42,2370659,1029185,16747386,99203,272403,16758191,16757323,28382,Tag0,unknown
1605697445214,0,29,6.3720703125E-6,11,38,42,2370659,1029185,16747386,99203,272403,16758191,16757323,28382,Tag0,unknown
1605697445243,0,28,6.15234375E-6,11,38,42,2370659,1029185,16747386,99203,272403,16758191,16757323,28382,Tag0,unknown
1605697445259,0,-105,-2.30712890625E-5,11,38,42,2370659,1029185,16747386,99203,272403,16758191,16757323,28382,Tag0,unknown
1605697445276,0,-373,-8.19580078125E-5,11,38,42,2370659,1029185,16747386,99203,272403,16758191,16757323,28382,Tag0,unknown
1605697445292,0,-355,-7.80029296875E-5,11,38,42,2370659,1029185,16747386,99203,272403,16758191,16757323,28382,Tag0,unknown
1605697445315,0,-338,-7.426757812499999E-5,11,38,42,2370659,1029185,16747386,99203,272403,16758191,16757323,28382,Tag0,unknown
1605697445340,0,-375,-8.23974609375E-5,11,38,42,2370659,1029185,16747386,99203,272403,16758191,16757323,28382,Tag0,unknown
1605697445359,0,2,4.39453125E-7,11,38,42,2370659,1029185,16747386,99203,272403,16758191,16757323,28382,Tag0,unknown
1605697445391,0,27,5.9326171875000005E-6,11,38,42,2370659,1029185,16747386,99203,272403,16758191,16757323,28382,Tag0,unknown
1605697445401,0,10,2.197265625E-6,11,38,42,2370659,1029185,16747386,99203,272403,16758191,16757323,28382,Tag0,unknown
1605697445429,0,-103,-2.26318359375E-5,11,38,42,2370659,1029185,16747386,99203,272403,16758191,16757323,28382,Tag0,unknown
1605697445443,0,109,2.39501953125E-5,11,38,42,2370659,1029185,16747386,99203,272403,16758191,16757323,28382,Tag0,unknown
