timestampMs,poorSignal,eegRawValue,eegRawValueVolts,attention,meditation,blinkStrength,delta,theta,alphaLow,alphaHigh,betaLow,betaHigh,gammaLow,gammaMid,tagEvent,location
1610201800573,200,33,7.2509765625E-6,0,0,60,621188,120512,16760824,16993,20428,17238,13292,14894,Tag0,unknown
1610201800590,200,25,5.4931640625E-6,0,0,60,621188,120512,16760824,16993,20428,17238,13292,14894,Tag0,unknown
1610201800607,200,-21,-4.614257812500001E-6,0,0,60,621188,120512,16760824,16993,20428,17238,13292,14894,Tag0,unknown
1610201800632,200,21,4.614257812500001E-6,0,0,60,621188,120512,16760824,16993,20428,17238,13292,14894,Tag0,unknown
1610201800642,200,-71,-1.56005859375E-5,0,0,60,621188,120512,16760824,16993,20428,17238,13292,14894,Tag0,unknown
1610201800669,200,-263,-5.7788085937500005E-5,0,0,60,621188,120512,16760824,16993,20428,17238,13292,14894,Tag0,unknown
1610201800690,200,-259,-5.69091796875E-5,0,0,60,621188,120512,16760824,16993,20428,17238,13292,14894,Tag0,unknown
1610201800709,200,-40,-8.7890625E-6,0,0,60,621188,120512,16760824,16993,20428,17238,13292,14894,Tag0,unknown
1610201800723,200,-103,-2.26318359375E-5,0,0,60,621188,120512,16760824,16993,20428,17238,13292,14894,Tag0,unknown
1610201800755,200,-323,-7.09716796875E-5,0,0,60,621188,120512,16760824,16993,20428,17238,13292,14894,Tag0,unknown
1610201800773,200,-311,-6.833496093750001E-5,0,0,60,621188,120512,16760824,16993,20428,17238,13292,14894,Tag0,unknown
1610201800790,200,-186,-4.0869140625E-5,0,0,60,621188,120512,16760824,16993,20428,17238,13292,14894,Tag0,unknown
1610201800806,200,-355,-7.80029296875E-5,0,0,60,621188,120512,16760824,16993,20428,17238,13292,14894,Tag0,unknown
1610201800826,200,-266,-5.8447265625E-5,0,0,60,621188,120512,16760824,16993,20428,17238,13292,14894,Tag0,unknown
1610201800839,200,93,2.04345703125E-5,0,0,60,621188,120512,16760824,16993,20428,17238,13292,14894,Tag0,unknown
1610201800861,200,84,1.8457031250000004E-5,0,0,60,621188,120512,16760824,16993,20428,17238,13292,14894,Tag0,unknown
1610201800873,200,28,6.15234375E-6,0,0,60,621188,120512,16760824,16993,20428,17238,13292,14894,Tag0,unknown
1610201800903,200,-53,-1.1645507812500002E-5,0,0,60,621188,120512,16760824,16993,20428,17238,13292,14894,Tag0,unknown
1610201800923,200,-93,-2.04345703125E-5,0,0,60,621188,120512,16760824,16993,20428,17238,13292,14894,Tag0,unknown
1610201800944,200,260,5.712890625E-5,0,0,60,621188,120512,16760824,16993,20428,17238,13292,14894,Tag0,unknown
1610201800956,200,-26,-5.712890625E-6,0,0,60,621188,120512,16760824,16993,20428,17238,13292,14894,Tag0,unknown
1610201800977,200,85,1.86767578125E-5,0,0,60,621188,120512,16760824,16993,20428,17238,13292,14894,Tag0,unknown
1610201800990,200,83,1.82373046875E-5,0,0,60,621188,120512,16760824,16993,20428,17238,13292,14894,Tag0,unknown
1610201801018,200,-189,-4.15283203125E-5,0,0,60,621188,120512,16760824,16993,20428,17238,13292,14894,Tag0,unknown
1610201801048,200,43,9.448242187500001E-6,0,0,60,621188,120512,16760824,16993,20428,17238,13292,14894,Tag0,unknown
1610201801059,200,-16,-3.515625E-6,0,0,60,621188,120512,16760824,16993,20428,17238,13292,14894,Tag0,unknown
1610201801075,200,59,1.29638671875E-5,0,0,60,621188,120512,16760824,16993,20428,17238,13292,14894,Tag0,unknown
1610201801094,200,-387,-8.50341796875E-5,0,0,60,621188,120512,16760824,16993,20428,17238,13292,14894,Tag0,unknown
1610201801110,200,-587,-1.2897949218750003E-4,0,0,60,621188,120512,16760824,16993,20428,17238,13292,14894,Tag0,unknown
1610201801130,200,784,1.72265625E-4,0,0,60,621188,120512,16760824,16993,20428,17238,13292,14894,Tag0,unknown
1610201801143,200,595,1.307373046875E-4,0,0,60,621188,120512,16760824,16993,20428,17238,13292,14894,Tag0,unknown
1610201801153,200,140,3.076171875E-5,0,0,60,621188,120512,16760824,16993,20428,17238,13292,14894,Tag0,unknown
1610201801166,200,-378,-8.3056640625E-5,0,0,60,621188,120512,16760824,16993,20428,17238,13292,14894,Tag0,unknown
1610201801176,200,-122,-2.6806640625E-5,0,0,60,621188,120512,16760824,16993,20428,17238,13292,14894,Tag0,unknown
1610201801194,200,-263,-5.7788085937500005E-5,0,0,60,1555426,16769070,145524,58337,94546,16768038,67352,30967,Tag0,unknown
1610201801208,200,81,1.77978515625E-5,0,0,60,1555426,16769070,145524,58337,94546,16768038,67352,30967,Tag0,unknown
1610201801241,200,291,6.39404296875E-5,0,0,60,1555426,16769070,145524,58337,94546,16768038,67352,30967,Tag0,unknown
1610201801258,200,-39,-8.5693359375E-6,0,0,60,1555426,16769070,145524,58337,94546,16768038,67352,30967,Tag0,unknown
1610201801268,200,75,1.64794921875E-5,0,0,60,1555426,16769070,145524,58337,94546,16768038,67352,30967,Tag0,unknown
1610201801281,200,-301,-6.613769531250001E-5,0,0,60,1555426,16769070,145524,58337,94546,16768038,67352,30967,Tag0,unknown
1610201801291,200,-274,-6.0205078124999997E-5,0,0,60,1555426,16769070,145524,58337,94546,16768038,67352,30967,Tag0,unknown
1610201801321,200,-298,-6.5478515625E-5,0,0,60,1555426,16769070,145524,58337,94546,16768038,67352,30967,Tag0,unknown
1610201801342,200,71,1.56005859375E-5,0,0,60,1555426,16769070,145524,58337,94546,16768038,67352,30967,Tag0,unknown
1610201801358,200,323,7.09716796875E-5,0,0,60,1555426,16769070,145524,58337,94546,16768038,67352,30967,Tag0,unknown
1610201801385,200,220,4.833984375E-5,0,0,60,1555426,16769070,145524,58337,94546,16768038,67352,30967,Tag0,unknown
1610201801395,200,131,2.87841796875E-5,0,0,60,1555426,16769070,145524,58337,94546,16768038,67352,30967,Tag0,unknown
1610201801408,200,-74,-1.6259765625E-5,0,0,60,1555426,16769070,145524,58337,94546,16768038,67352,30967,Tag0,unknown
1610201801425,200,-44,-9.66796875E-6,0,0,60,1555426,16769070,145524,58337,94546,16768038,67352,30967,Tag0,unknown
1610201801442,200,-266,-5.8447265625E-5,0,0,60,1555426,16769070,145524,58337,94546,16768038,67352,30967,Tag0,unknown
1610201801459,200,-343,-7.53662109375E-5,0,0,60,1555426,16769070,145524,58337,94546,16768038,67352,30967,Tag0,unknown
1610201801498,200,-87,-1.91162109375E-5,0,0,60,1555426,16769070,145524,58337,94546,16768038,67352,30967,Tag0,unknown
1610201801508,200,62,1.3623046875E-5,0,0,60,1555426,16769070,145524,58337,94546,16768038,67352,30967,Tag0,unknown
1610201801525,200,1,2.197265625E-7,0,0,60,1555426,16769070,145524,58337,94546,16768038,67352,30967,Tag0,unknown
1610201801535,200,-15,-3.2958984375E-6,0,0,60,1555426,16769070,145524,58337,94546,16768038,67352,30967,Tag0,unknown
1610201801553,200,213,4.68017578125E-5,0,0,60,1555426,16769070,145524,58337,94546,16768038,67352,30967,Tag0,unknown
1610201801563,200,792,1.7402343750000002E-4,0,0,60,1555426,16769070,145524,58337,94546,16768038,67352,30967,Tag0,unknown
1610201801578,200,820,1.8017578125E-4,0,0,60,1555426,16769070,145524,58337,94546,16768038,67352,30967,Tag0,unknown
1610201801595,200,758,1.66552734375E-4,0,0,60,1555426,16769070,145524,58337,94546,16768038,67352,30967,Tag0,unknown
1610201801610,200,1067,2.344482421875E-4,0,0,60,1555426,16769070,145524,58337,94546,16768038,67352,30967,Tag0,unknown
1610201801627,200,701,1.540283203125E-4,0,0,60,1555426,16769070,145524,58337,94546,16768038,67352,30967,Tag0,unknown
1610201801645,200,810,1.77978515625E-4,0,0,60,1555426,16769070,145524,58337,94546,16768038,67352,30967,Tag0,unknown
1610201801659,200,771,1.694091796875E-4,0,0,60,1555426,16769070,145524,58337,94546,16768038,67352,30967,Tag0,unknown
1610201801678,200,537,1.179931640625E-4,0,0,60,1555426,16769070,145524,58337,94546,16768038,67352,30967,Tag0,unknown
1610201801692,200,253,5.55908203125E-5,0,0,60,1555426,16769070,145524,58337,94546,16768038,67352,30967,Tag0,unknown
1610201801727,200,-89,-1.95556640625E-5,0,0,60,1555426,16769070,145524,58337,94546,16768038,67352,30967,Tag0,unknown
1610201801742,200,-109,-2.39501953125E-5,0,0,60,1555426,16769070,145524,58337,94546,16768038,67352,30967,Tag0,unknown
1610201801768,200,69,1.51611328125E-5,0,0,60,1555426,16769070,145524,58337,94546,16768038,67352,30967,Tag0,unknown
1610201801778,200,-101,-2.2192382812500002E-5,0,0,60,1555426,16769070,145524,58337,94546,16768038,67352,30967,Tag0,unknown
1610201801802,200,-181,-3.9770507812500004E-5,0,0,60,1555426,16769070,145524,58337,94546,16768038,67352,30967,Tag0,unknown
1610201801813,200,-339,-7.448730468750001E-5,0,0,60,1555426,16769070,145524,58337,94546,16768038,67352,30967,Tag0,unknown
1610201801826,200,-523,-1.149169921875E-4,0,0,60,1555426,16769070,145524,58337,94546,16768038,67352,30967,Tag0,unknown
1610201801843,200,-178,-3.9111328125E-5,0,0,60,1555426,16769070,145524,58337,94546,16768038,67352,30967,Tag0,unknown
1610201801860,200,215,4.72412109375E-5,0,0,60,1555426,16769070,145524,58337,94546,16768038,67352,30967,Tag0,unknown
1610201801877,200,-213,-4.68017578125E-5,0,0,60,1555426,16769070,145524,58337,94546,16768038,67352,30967,Tag0,unknown
1610201801891,200,-133,-2.92236328125E-5,0,0,60,1555426,16769070,145524,58337,94546,16768038,67352,30967,Tag0,unknown
1610201801901,200,-719,-1.579833984375E-4,0,0,60,1555426,16769070,145524,58337,94546,16768038,67352,30967,Tag0,unknown
1610201801918,200,261,5.73486328125E-5,0,0,60,1555426,16769070,145524,58337,94546,16768038,67352,30967,Tag0,unknown
1610201801929,200,-579,-1.272216796875E-4,0,0,60,1555426,16769070,145524,58337,94546,16768038,67352,30967,Tag0,unknown
1610201801943,200,-817,-1.7951660156250002E-4,0,0,60,1555426,16769070,145524,58337,94546,16768038,67352,30967,Tag0,unknown
1610201801959,200,-409,-8.986816406250001E-5,0,0,60,1555426,16769070,145524,58337,94546,16768038,67352,30967,Tag0,unknown
1610201801984,200,-1320,-2.900390625E-4,0,0,60,1555426,16769070,145524,58337,94546,16768038,67352,30967,Tag0,unknown
1610201801994,200,-1103,-2.423583984375E-4,0,0,60,1555426,16769070,145524,58337,94546,16768038,67352,30967,Tag0,unknown
1610201802024,200,-1338,-2.93994140625E-4,0,0,60,1555426,16769070,145524,58337,94546,16768038,67352,30967,Tag0,unknown
1610201802041,200,-1351,-2.968505859375E-4,0,0,60,1555426,16769070,145524,58337,94546,16768038,67352,30967,Tag0,unknown
1610201802067,200,-489,-1.0744628906250001E-4,0,0,60,1555426,16769070,145524,58337,94546,16768038,67352,30967,Tag0,unknown
1610201802079,200,-247,-5.42724609375E-5,0,0,60,1555426,16769070,145524,58337,94546,16768038,67352,30967,Tag0,unknown
1610201802089,200,507,1.1140136718750001E-4,0,0,60,1555426,16769070,145524,58337,94546,16768038,67352,30967,Tag0,unknown
1610201802104,200,1075,2.362060546875E-4,0,0,60,1555426,16769070,145524,58337,94546,16768038,67352,30967,Tag0,unknown
1610201802114,200,674,1.48095703125E-4,0,0,60,1555426,16769070,145524,58337,94546,16768038,67352,30967,Tag0,unknown
1610201802124,200,845,1.856689453125E-4,0,0,60,1555426,16769070,145524,58337,94546,16768038,67352,30967,Tag0,unknown
1610201802143,200,853,1.874267578125E-4,0,0,60,1555426,16769070,145524,58337,94546,16768038,67352,30967,Tag0,unknown
1610201802160,200,855,1.878662109375E-4,0,0,60,1555426,16769070,145524,58337,94546,16768038,67352,30967,Tag0,unknown
1610201802181,200,614,1.34912109375E-4,0,0,60,1555426,16769070,145524,58337,94546,16768038,67352,30967,Tag0,unknown
1610201802191,200,555,1.219482421875E-4,0,0,60,1555426,16769070,145524,58337,94546,16768038,67352,30967,Tag0,unknown
1610201802219,200,121,2.6586914062500003E-5,0,0,60,670766,16757633,16744854,11849,16752617,17771,21015,6847,Tag0,unknown
1610201802229,200,-209,-4.59228515625E-5,0,0,60,670766,16757633,16744854,11849,16752617,17771,21015,6847,Tag0,unknown
1610201802265,200,-345,-7.58056640625E-5,0,0,60,670766,16757633,16744854,11849,16752617,17771,21015,6847,Tag0,unknown
1610201802275,200,-295,-6.48193359375E-5,0,0,60,670766,16757633,16744854,11849,16752617,17771,21015,6847,Tag0,unknown
1610201802285,200,-776,-1.705078125E-4,0,0,60,670766,16757633,16744854,11849,16752617,17771,21015,6847,Tag0,unknown
1610201802305,200,-509,-1.118408203125E-4,0,0,60,670766,16757633,16744854,11849,16752617,17771,21015,6847,Tag0,unknown
1610201802326,200,-647,-1.421630859375E-4,0,0,60,670766,16757633,16744854,11849,16752617,17771,21015,6847,Tag0,unknown
1610201802342,200,-233,-5.1196289062500006E-5,0,0,60,670766,16757633,16744854,11849,16752617,17771,21015,6847,Tag0,unknown
1610201802365,200,94,2.0654296875000002E-5,0,0,60,670766,16757633,16744854,11849,16752617,17771,21015,6847,Tag0,unknown
1610201802375,200,10,2.197265625E-6,0,0,60,670766,16757633,16744854,11849,16752617,17771,21015,6847,Tag0,unknown
1610201802397,200,-78,-1.7138671875E-5,0,0,60,670766,16757633,16744854,11849,16752617,17771,21015,6847,Tag0,unknown
1610201802409,200,-101,-2.2192382812500002E-5,0,0,60,670766,16757633,16744854,11849,16752617,17771,21015,6847,Tag0,unknown
1610201802419,200,-45,-9.8876953125E-6,0,0,60,670766,16757633,16744854,11849,16752617,17771,21015,6847,Tag0,unknown
1610201802522,200,257,5.64697265625E-5,0,0,60,670766,16757633,16744854,11849,16752617,17771,21015,6847,Tag0,unknown
1610201802543,200,-25,-5.4931640625E-6,0,0,60,670766,16757633,16744854,11849,16752617,17771,21015,6847,Tag0,unknown
1610201802560,200,283,6.218261718750001E-5,0,0,60,670766,16757633,16744854,11849,16752617,17771,21015,6847,Tag0,unknown
1610201802644,200,-390,-8.5693359375E-5,0,0,60,670766,16757633,16744854,11849,16752617,17771,21015,6847,Tag0,unknown
1610201802667,200,-398,-8.745117187499999E-5,0,0,60,670766,16757633,16744854,11849,16752617,17771,21015,6847,Tag0,unknown
1610201802681,200,-841,-1.847900390625E-4,0,0,60,670766,16757633,16744854,11849,16752617,17771,21015,6847,Tag0,unknown
1610201802691,200,-805,-1.768798828125E-4,0,0,60,670766,16757633,16744854,11849,16752617,17771,21015,6847,Tag0,unknown
1610201802701,200,-649,-1.4260253906250002E-4,0,0,60,670766,16757633,16744854,11849,16752617,17771,21015,6847,Tag0,unknown
1610201802711,200,-1063,-2.335693359375E-4,0,0,60,670766,16757633,16744854,11849,16752617,17771,21015,6847,Tag0,unknown
1610201802721,200,-565,-1.241455078125E-4,0,0,60,670766,16757633,16744854,11849,16752617,17771,21015,6847,Tag0,unknown
1610201802731,200,311,6.833496093750001E-5,0,0,60,670766,16757633,16744854,11849,16752617,17771,21015,6847,Tag0,unknown
1610201802741,200,230,5.0537109375E-5,0,0,60,670766,16757633,16744854,11849,16752617,17771,21015,6847,Tag0,unknown
1610201802753,200,266,5.8447265625E-5,0,0,60,670766,16757633,16744854,11849,16752617,17771,21015,6847,Tag0,unknown
1610201802763,200,337,7.40478515625E-5,0,0,60,670766,16757633,16744854,11849,16752617,17771,21015,6847,Tag0,unknown
1610201802791,200,13,2.8564453125E-6,0,0,60,670766,16757633,16744854,11849,16752617,17771,21015,6847,Tag0,unknown
1610201802810,200,-197,-4.32861328125E-5,0,0,60,670766,16757633,16744854,11849,16752617,17771,21015,6847,Tag0,unknown
1610201802827,200,-341,-7.492675781250002E-5,0,0,60,670766,16757633,16744854,11849,16752617,17771,21015,6847,Tag0,unknown
1610201802851,200,296,6.50390625E-5,0,0,60,670766,16757633,16744854,11849,16752617,17771,21015,6847,Tag0,unknown
1610201802889,200,496,1.08984375E-4,0,0,60,670766,16757633,16744854,11849,16752617,17771,21015,6847,Tag0,unknown
1610201802909,200,437,9.602050781250001E-5,0,0,60,670766,16757633,16744854,11849,16752617,17771,21015,6847,Tag0,unknown
1610201802934,200,-342,-7.5146484375E-5,0,0,60,670766,16757633,16744854,11849,16752617,17771,21015,6847,Tag0,unknown
1610201802944,200,-300,-6.591796875E-5,0,0,60,670766,16757633,16744854,11849,16752617,17771,21015,6847,Tag0,unknown
1610201802974,200,-346,-7.6025390625E-5,0,0,60,670766,16757633,16744854,11849,16752617,17771,21015,6847,Tag0,unknown
1610201802993,200,-153,-3.3618164062500004E-5,0,0,60,670766,16757633,16744854,11849,16752617,17771,21015,6847,Tag0,unknown
1610201803009,200,-369,-8.10791015625E-5,0,0,60,670766,16757633,16744854,11849,16752617,17771,21015,6847,Tag0,unknown
1610201803031,200,-92,-2.021484375E-5,0,0,60,670766,16757633,16744854,11849,16752617,17771,21015,6847,Tag0,unknown
1610201803041,200,-71,-1.56005859375E-5,0,0,60,670766,16757633,16744854,11849,16752617,17771,21015,6847,Tag0,unknown
1610201803073,200,141,3.09814453125E-5,0,0,60,670766,16757633,16744854,11849,16752617,17771,21015,6847,Tag0,unknown
1610201803092,200,264,5.80078125E-5,0,0,60,670766,16757633,16744854,11849,16752617,17771,21015,6847,Tag0,unknown
1610201803110,200,339,7.448730468750001E-5,0,0,60,670766,16757633,16744854,11849,16752617,17771,21015,6847,Tag0,unknown
1610201803125,200,132,2.900390625E-5,0,0,60,670766,16757633,16744854,11849,16752617,17771,21015,6847,Tag0,unknown
1610201803149,200,41,9.008789062499999E-6,0,0,60,670766,16757633,16744854,11849,16752617,17771,21015,6847,Tag0,unknown
1610201803159,200,-205,-4.50439453125E-5,0,0,60,670766,16757633,16744854,11849,16752617,17771,21015,6847,Tag0,unknown
1610201803232,200,-161,-3.53759765625E-5,0,0,60,706099,91150,23310,16755966,13230,30666,13169,16465,Tag0,unknown
1610201803244,200,-177,-3.8891601562500006E-5,0,0,60,706099,91150,23310,16755966,13230,30666,13169,16465,Tag0,unknown
1610201803254,200,53,1.1645507812500002E-5,0,0,60,706099,91150,23310,16755966,13230,30666,13169,16465,Tag0,unknown
1610201803297,200,-333,-7.316894531249999E-5,0,0,60,706099,91150,23310,16755966,13230,30666,13169,16465,Tag0,unknown
1610201803309,200,-307,-6.74560546875E-5,0,0,60,706099,91150,23310,16755966,13230,30666,13169,16465,Tag0,unknown
1610201803319,200,231,5.07568359375E-5,0,0,60,706099,91150,23310,16755966,13230,30666,13169,16465,Tag0,unknown
1610201803428,200,290,6.3720703125E-5,0,0,60,706099,91150,23310,16755966,13230,30666,13169,16465,Tag0,unknown
1610201803443,200,-42,-9.228515625000002E-6,0,0,60,706099,91150,23310,16755966,13230,30666,13169,16465,Tag0,unknown
1610201803460,200,131,2.87841796875E-5,0,0,60,706099,91150,23310,16755966,13230,30666,13169,16465,Tag0,unknown
1610201803475,200,553,1.215087890625E-4,0,0,60,706099,91150,23310,16755966,13230,30666,13169,16465,Tag0,unknown
1610201803492,200,269,5.9106445312499996E-5,0,0,60,706099,91150,23310,16755966,13230,30666,13169,16465,Tag0,unknown
1610201803508,200,-319,-7.00927734375E-5,0,0,60,706099,91150,23310,16755966,13230,30666,13169,16465,Tag0,unknown
1610201803518,200,-29,-6.3720703125E-6,0,0,60,706099,91150,23310,16755966,13230,30666,13169,16465,Tag0,unknown
1610201803528,200,-343,-7.53662109375E-5,0,0,60,706099,91150,23310,16755966,13230,30666,13169,16465,Tag0,unknown
1610201803542,200,-345,-7.58056640625E-5,0,0,60,706099,91150,23310,16755966,13230,30666,13169,16465,Tag0,unknown
1610201803561,200,-516,-1.1337890625000001E-4,0,0,60,706099,91150,23310,16755966,13230,30666,13169,16465,Tag0,unknown
1610201803575,200,-237,-5.2075195312500004E-5,0,0,60,706099,91150,23310,16755966,13230,30666,13169,16465,Tag0,unknown
1610201803585,200,-91,-1.99951171875E-5,0,0,60,706099,91150,23310,16755966,13230,30666,13169,16465,Tag0,unknown
1610201803601,200,-101,-2.2192382812500002E-5,0,0,60,706099,91150,23310,16755966,13230,30666,13169,16465,Tag0,unknown
1610201803611,200,-100,-2.197265625E-5,0,0,60,706099,91150,23310,16755966,13230,30666,13169,16465,Tag0,unknown
1610201803625,200,-261,-5.73486328125E-5,0,0,60,706099,91150,23310,16755966,13230,30666,13169,16465,Tag0,unknown
1610201803652,200,288,6.328125E-5,0,0,60,706099,91150,23310,16755966,13230,30666,13169,16465,Tag0,unknown
1610201803662,200,115,2.52685546875E-5,0,0,60,706099,91150,23310,16755966,13230,30666,13169,16465,Tag0,unknown
1610201803676,200,-105,-2.30712890625E-5,0,0,60,706099,91150,23310,16755966,13230,30666,13169,16465,Tag0,unknown
1610201803693,200,-105,-2.30712890625E-5,0,0,60,706099,91150,23310,16755966,13230,30666,13169,16465,Tag0,unknown
1610201803709,200,74,1.6259765625E-5,0,0,60,706099,91150,23310,16755966,13230,30666,13169,16465,Tag0,unknown
1610201803726,200,118,2.5927734375E-5,0,0,60,706099,91150,23310,16755966,13230,30666,13169,16465,Tag0,unknown
1610201803736,200,97,2.13134765625E-5,0,0,60,706099,91150,23310,16755966,13230,30666,13169,16465,Tag0,unknown
1610201803757,200,-106,-2.3291015625000003E-5,0,0,60,706099,91150,23310,16755966,13230,30666,13169,16465,Tag0,unknown
1610201803775,200,73,1.6040039062500002E-5,0,0,60,706099,91150,23310,16755966,13230,30666,13169,16465,Tag0,unknown
1610201803799,200,-281,-6.17431640625E-5,0,0,60,706099,91150,23310,16755966,13230,30666,13169,16465,Tag0,unknown
1610201803809,200,-358,-7.8662109375E-5,0,0,60,706099,91150,23310,16755966,13230,30666,13169,16465,Tag0,unknown
1610201803819,200,273,5.998535156250001E-5,0,0,60,706099,91150,23310,16755966,13230,30666,13169,16465,Tag0,unknown
1610201803829,200,54,1.1865234375000001E-5,0,0,60,706099,91150,23310,16755966,13230,30666,13169,16465,Tag0,unknown
1610201803842,200,36,7.91015625E-6,0,0,60,706099,91150,23310,16755966,13230,30666,13169,16465,Tag0,unknown
1610201803869,200,77,1.69189453125E-5,0,0,60,706099,91150,23310,16755966,13230,30666,13169,16465,Tag0,unknown
1610201803879,200,-46,-1.0107421875E-5,0,0,60,706099,91150,23310,16755966,13230,30666,13169,16465,Tag0,unknown
1610201803892,200,-327,-7.18505859375E-5,0,0,60,706099,91150,23310,16755966,13230,30666,13169,16465,Tag0,unknown
1610201803909,200,-611,-1.3425292968749999E-4,0,0,60,706099,91150,23310,16755966,13230,30666,13169,16465,Tag0,unknown
1610201803939,200,-348,-7.646484375E-5,0,0,60,706099,91150,23310,16755966,13230,30666,13169,16465,Tag0,unknown
1610201803958,200,27,5.9326171875000005E-6,0,0,60,706099,91150,23310,16755966,13230,30666,13169,16465,Tag0,unknown
1610201803978,200,9,1.9775390625E-6,0,0,60,706099,91150,23310,16755966,13230,30666,13169,16465,Tag0,unknown
1610201803992,200,119,2.6147460937500004E-5,0,0,60,706099,91150,23310,16755966,13230,30666,13169,16465,Tag0,unknown
1610201804009,200,363,7.97607421875E-5,0,0,60,706099,91150,23310,16755966,13230,30666,13169,16465,Tag0,unknown
1610201804026,200,-48,-1.0546875E-5,0,0,60,706099,91150,23310,16755966,13230,30666,13169,16465,Tag0,unknown
1610201804043,200,273,5.998535156250001E-5,0,0,60,706099,91150,23310,16755966,13230,30666,13169,16465,Tag0,unknown
1610201804072,200,164,3.6035156249999995E-5,0,0,60,706099,91150,23310,16755966,13230,30666,13169,16465,Tag0,unknown
1610201804092,200,198,4.3505859375000006E-5,0,0,60,706099,91150,23310,16755966,13230,30666,13169,16465,Tag0,unknown
1610201804102,200,-3,-6.591796875E-7,0,0,60,706099,91150,23310,16755966,13230,30666,13169,16465,Tag0,unknown
1610201804114,200,107,2.35107421875E-5,0,0,60,706099,91150,23310,16755966,13230,30666,13169,16465,Tag0,unknown
1610201804126,200,119,2.6147460937500004E-5,0,0,60,706099,91150,23310,16755966,13230,30666,13169,16465,Tag0,unknown
1610201804136,200,90,1.9775390625E-5,0,0,60,706099,91150,23310,16755966,13230,30666,13169,16465,Tag0,unknown
1610201804155,200,97,2.13134765625E-5,0,0,60,706099,91150,23310,16755966,13230,30666,13169,16465,Tag0,unknown
1610201804175,200,80,1.7578125E-5,0,0,60,706099,91150,23310,16755966,13230,30666,13169,16465,Tag0,unknown
1610201804209,200,-321,-7.053222656250001E-5,0,0,60,1407626,20049,16774712,16762139,34092,23346,16745027,12822,Tag0,unknown
1610201804225,200,-347,-7.62451171875E-5,0,0,60,1407626,20049,16774712,16762139,34092,23346,16745027,12822,Tag0,unknown
1610201804235,200,-557,-1.223876953125E-4,0,0,60,1407626,20049,16774712,16762139,34092,23346,16745027,12822,Tag0,unknown
1610201804250,200,-245,-5.38330078125E-5,0,0,60,1407626,20049,16774712,16762139,34092,23346,16745027,12822,Tag0,unknown
1610201804260,200,-215,-4.72412109375E-5,0,0,60,1407626,20049,16774712,16762139,34092,23346,16745027,12822,Tag0,unknown
1610201804280,200,23,5.0537109375E-6,0,0,60,1407626,20049,16774712,16762139,34092,23346,16745027,12822,Tag0,unknown
1610201804311,200,-13,-2.8564453125E-6,0,0,60,1407626,20049,16774712,16762139,34092,23346,16745027,12822,Tag0,unknown
1610201804324,200,261,5.73486328125E-5,0,0,60,1407626,20049,16774712,16762139,34092,23346,16745027,12822,Tag0,unknown
1610201804346,200,-101,-2.2192382812500002E-5,0,0,60,1407626,20049,16774712,16762139,34092,23346,16745027,12822,Tag0,unknown
1610201804359,200,113,2.48291015625E-5,0,0,60,1407626,20049,16774712,16762139,34092,23346,16745027,12822,Tag0,unknown
1610201804386,200,-328,-7.207031249999999E-5,0,0,60,1407626,20049,16774712,16762139,34092,23346,16745027,12822,Tag0,unknown
1610201804396,200,-521,-1.1447753906250001E-4,0,0,60,1407626,20049,16774712,16762139,34092,23346,16745027,12822,Tag0,unknown
1610201804424,200,-241,-5.29541015625E-5,0,0,60,1407626,20049,16774712,16762139,34092,23346,16745027,12822,Tag0,unknown
1610201804442,200,-216,-4.7460937500000004E-5,0,0,60,1407626,20049,16774712,16762139,34092,23346,16745027,12822,Tag0,unknown
1610201804470,200,-54,-1.1865234375000001E-5,0,0,60,1407626,20049,16774712,16762139,34092,23346,16745027,12822,Tag0,unknown
1610201804480,200,382,8.3935546875E-5,0,0,60,1407626,20049,16774712,16762139,34092,23346,16745027,12822,Tag0,unknown
1610201804493,200,-91,-1.99951171875E-5,0,0,60,1407626,20049,16774712,16762139,34092,23346,16745027,12822,Tag0,unknown
1610201804508,200,573,1.259033203125E-4,0,0,60,1407626,20049,16774712,16762139,34092,23346,16745027,12822,Tag0,unknown
1610201804535,200,228,5.0097656250000005E-5,0,0,60,1407626,20049,16774712,16762139,34092,23346,16745027,12822,Tag0,unknown
1610201804548,200,603,1.3249511718750002E-4,0,0,60,1407626,20049,16774712,16762139,34092,23346,16745027,12822,Tag0,unknown
1610201804572,200,163,3.5815429687500006E-5,0,0,60,1407626,20049,16774712,16762139,34092,23346,16745027,12822,Tag0,unknown
1610201804582,200,153,3.3618164062500004E-5,0,0,60,1407626,20049,16774712,16762139,34092,23346,16745027,12822,Tag0,unknown
1610201804592,200,-311,-6.833496093750001E-5,0,0,60,1407626,20049,16774712,16762139,34092,23346,16745027,12822,Tag0,unknown
1610201804609,200,-246,-5.4052734375E-5,0,0,60,1407626,20049,16774712,16762139,34092,23346,16745027,12822,Tag0,unknown
1610201804625,200,-403,-8.854980468749999E-5,0,0,60,1407626,20049,16774712,16762139,34092,23346,16745027,12822,Tag0,unknown
1610201804648,200,-358,-7.8662109375E-5,0,0,60,1407626,20049,16774712,16762139,34092,23346,16745027,12822,Tag0,unknown
1610201804660,200,-183,-4.02099609375E-5,0,0,60,1407626,20049,16774712,16762139,34092,23346,16745027,12822,Tag0,unknown
1610201804670,200,102,2.2412109374999998E-5,0,0,60,1407626,20049,16774712,16762139,34092,23346,16745027,12822,Tag0,unknown
1610201804687,200,-269,-5.9106445312499996E-5,0,0,60,1407626,20049,16774712,16762139,34092,23346,16745027,12822,Tag0,unknown
1610201804697,200,-342,-7.5146484375E-5,0,0,60,1407626,20049,16774712,16762139,34092,23346,16745027,12822,Tag0,unknown
1610201804709,200,-376,-8.261718750000001E-5,0,0,60,1407626,20049,16774712,16762139,34092,23346,16745027,12822,Tag0,unknown
1610201804728,200,123,2.70263671875E-5,0,0,60,1407626,20049,16774712,16762139,34092,23346,16745027,12822,Tag0,unknown
1610201804743,200,58,1.2744140625E-5,0,0,60,1407626,20049,16774712,16762139,34092,23346,16745027,12822,Tag0,unknown
1610201804763,200,-285,-6.26220703125E-5,0,0,60,1407626,20049,16774712,16762139,34092,23346,16745027,12822,Tag0,unknown
1610201804776,200,-331,-7.272949218750001E-5,0,0,60,1407626,20049,16774712,16762139,34092,23346,16745027,12822,Tag0,unknown
1610201804786,200,-346,-7.6025390625E-5,0,0,60,1407626,20049,16774712,16762139,34092,23346,16745027,12822,Tag0,unknown
1610201804797,200,-173,-3.80126953125E-5,0,0,60,1407626,20049,16774712,16762139,34092,23346,16745027,12822,Tag0,unknown
1610201804809,200,-161,-3.53759765625E-5,0,0,60,1407626,20049,16774712,16762139,34092,23346,16745027,12822,Tag0,unknown
1610201804832,200,-148,-3.251953125E-5,0,0,60,1407626,20049,16774712,16762139,34092,23346,16745027,12822,Tag0,unknown
1610201804843,200,-152,-3.33984375E-5,0,0,60,1407626,20049,16774712,16762139,34092,23346,16745027,12822,Tag0,unknown
1610201804859,200,-218,-4.7900390625E-5,0,0,60,1407626,20049,16774712,16762139,34092,23346,16745027,12822,Tag0,unknown
1610201804877,200,-344,-7.558593750000001E-5,0,0,60,1407626,20049,16774712,16762139,34092,23346,16745027,12822,Tag0,unknown
1610201804892,200,11,2.4169921875E-6,0,0,60,1407626,20049,16774712,16762139,34092,23346,16745027,12822,Tag0,unknown
1610201804921,200,-299,-6.56982421875E-5,0,0,60,1407626,20049,16774712,16762139,34092,23346,16745027,12822,Tag0,unknown
1610201804943,200,39,8.5693359375E-6,0,0,60,1407626,20049,16774712,16762139,34092,23346,16745027,12822,Tag0,unknown
1610201804959,200,-330,-7.2509765625E-5,0,0,60,1407626,20049,16774712,16762139,34092,23346,16745027,12822,Tag0,unknown
1610201804983,200,17,3.7353515625000003E-6,0,0,60,1407626,20049,16774712,16762139,34092,23346,16745027,12822,Tag0,unknown
1610201804994,200,-73,-1.6040039062500002E-5,0,0,60,1407626,20049,16774712,16762139,34092,23346,16745027,12822,Tag0,unknown
1610201805004,200,-547,-1.201904296875E-4,0,0,60,1407626,20049,16774712,16762139,34092,23346,16745027,12822,Tag0,unknown
1610201805022,200,-439,-9.64599609375E-5,0,0,60,1407626,20049,16774712,16762139,34092,23346,16745027,12822,Tag0,unknown
1610201805032,200,-643,-1.412841796875E-4,0,0,60,1407626,20049,16774712,16762139,34092,23346,16745027,12822,Tag0,unknown
1610201805060,200,-666,-1.4633789062499998E-4,0,0,60,1407626,20049,16774712,16762139,34092,23346,16745027,12822,Tag0,unknown
1610201805077,200,-661,-1.452392578125E-4,0,0,60,1407626,20049,16774712,16762139,34092,23346,16745027,12822,Tag0,unknown
1610201805087,200,-1304,-2.8652343750000005E-4,0,0,60,1407626,20049,16774712,16762139,34092,23346,16745027,12822,Tag0,unknown
1610201805101,200,-1202,-2.6411132812499997E-4,0,0,60,1407626,20049,16774712,16762139,34092,23346,16745027,12822,Tag0,unknown
1610201805112,200,-1177,-2.586181640625E-4,0,0,60,1407626,20049,16774712,16762139,34092,23346,16745027,12822,Tag0,unknown
1610201805127,200,-1395,-3.065185546875E-4,0,0,60,1407626,20049,16774712,16762139,34092,23346,16745027,12822,Tag0,unknown
1610201805137,200,-789,-1.7336425781250002E-4,0,0,60,1407626,20049,16774712,16762139,34092,23346,16745027,12822,Tag0,unknown
1610201805147,200,-429,-9.42626953125E-5,0,0,60,1407626,20049,16774712,16762139,34092,23346,16745027,12822,Tag0,unknown
1610201805159,200,-411,-9.03076171875E-5,0,0,60,1407626,20049,16774712,16762139,34092,23346,16745027,12822,Tag0,unknown
1610201805179,200,-186,-4.0869140625E-5,0,0,60,1460825,872552,41473,25343,16770919,16768015,16744998,17345,Tag0,unknown
1610201805192,200,-168,-3.691406250000001E-5,0,0,60,1460825,872552,41473,25343,16770919,16768015,16744998,17345,Tag0,unknown
1610201805214,200,-344,-7.558593750000001E-5,0,0,60,1460825,872552,41473,25343,16770919,16768015,16744998,17345,Tag0,unknown
1610201805228,200,-339,-7.448730468750001E-5,0,0,60,1460825,872552,41473,25343,16770919,16768015,16744998,17345,Tag0,unknown
1610201805274,200,8,1.7578125E-6,0,0,60,1460825,872552,41473,25343,16770919,16768015,16744998,17345,Tag0,unknown
1610201805292,200,7,1.5380859375E-6,0,0,60,1460825,872552,41473,25343,16770919,16768015,16744998,17345,Tag0,unknown
1610201805302,200,41,9.008789062499999E-6,0,0,60,1460825,872552,41473,25343,16770919,16768015,16744998,17345,Tag0,unknown
1610201805312,200,48,1.0546875E-5,0,0,60,1460825,872552,41473,25343,16770919,16768015,16744998,17345,Tag0,unknown
1610201805331,200,53,1.1645507812500002E-5,0,0,60,1460825,872552,41473,25343,16770919,16768015,16744998,17345,Tag0,unknown
1610201805342,200,51,1.1206054687499999E-5,0,0,60,1460825,872552,41473,25343,16770919,16768015,16744998,17345,Tag0,unknown
1610201805369,200,55,1.20849609375E-5,0,0,60,1460825,872552,41473,25343,16770919,16768015,16744998,17345,Tag0,unknown
1610201805379,200,57,1.2524414062500001E-5,0,0,60,1460825,872552,41473,25343,16770919,16768015,16744998,17345,Tag0,unknown
1610201805390,200,61,1.34033203125E-5,0,0,60,1460825,872552,41473,25343,16770919,16768015,16744998,17345,Tag0,unknown
1610201805409,200,65,1.42822265625E-5,0,0,60,1460825,872552,41473,25343,16770919,16768015,16744998,17345,Tag0,unknown
1610201805429,200,-80,-1.7578125E-5,0,0,60,1460825,872552,41473,25343,16770919,16768015,16744998,17345,Tag0,unknown
1610201805443,200,371,8.151855468750001E-5,0,0,60,1460825,872552,41473,25343,16770919,16768015,16744998,17345,Tag0,unknown
1610201805473,200,697,1.5314941406250002E-4,0,0,60,1460825,872552,41473,25343,16770919,16768015,16744998,17345,Tag0,unknown
1610201805494,200,705,1.549072265625E-4,0,0,60,1460825,872552,41473,25343,16770919,16768015,16744998,17345,Tag0,unknown
1610201805511,200,-261,-5.73486328125E-5,0,0,60,1460825,872552,41473,25343,16770919,16768015,16744998,17345,Tag0,unknown
1610201805530,200,-377,-8.28369140625E-5,0,0,60,1460825,872552,41473,25343,16770919,16768015,16744998,17345,Tag0,unknown
1610201805540,200,-437,-9.602050781250001E-5,0,0,60,1460825,872552,41473,25343,16770919,16768015,16744998,17345,Tag0,unknown
1610201805560,200,-582,-1.27880859375E-4,0,0,60,1460825,872552,41473,25343,16770919,16768015,16744998,17345,Tag0,unknown
1610201805590,200,296,6.50390625E-5,0,0,60,1460825,872552,41473,25343,16770919,16768015,16744998,17345,Tag0,unknown
1610201805609,200,282,6.1962890625E-5,0,0,60,1460825,872552,41473,25343,16770919,16768015,16744998,17345,Tag0,unknown
1610201805650,200,512,1.125E-4,0,0,60,1460825,872552,41473,25343,16770919,16768015,16744998,17345,Tag0,unknown
1610201805661,200,205,4.50439453125E-5,0,0,60,1460825,872552,41473,25343,16770919,16768015,16744998,17345,Tag0,unknown
1610201805671,200,441,9.689941406250001E-5,0,0,60,1460825,872552,41473,25343,16770919,16768015,16744998,17345,Tag0,unknown
1610201805681,200,816,1.7929687499999999E-4,0,0,60,1460825,872552,41473,25343,16770919,16768015,16744998,17345,Tag0,unknown
1610201805701,200,435,9.55810546875E-5,0,0,60,1460825,872552,41473,25343,16770919,16768015,16744998,17345,Tag0,unknown
1610201805712,200,323,7.09716796875E-5,0,0,60,1460825,872552,41473,25343,16770919,16768015,16744998,17345,Tag0,unknown
1610201805727,200,-89,-1.95556640625E-5,0,0,60,1460825,872552,41473,25343,16770919,16768015,16744998,17345,Tag0,unknown
1610201805744,200,3,6.591796875E-7,0,0,60,1460825,872552,41473,25343,16770919,16768015,16744998,17345,Tag0,unknown
1610201805759,200,43,9.448242187500001E-6,0,0,60,1460825,872552,41473,25343,16770919,16768015,16744998,17345,Tag0,unknown
1610201805785,200,-343,-7.53662109375E-5,0,0,60,1460825,872552,41473,25343,16770919,16768015,16744998,17345,Tag0,unknown
1610201805795,200,70,1.5380859375E-5,0,0,60,1460825,872552,41473,25343,16770919,16768015,16744998,17345,Tag0,unknown
1610201805810,200,5,1.0986328125E-6,0,0,60,1460825,872552,41473,25343,16770919,16768015,16744998,17345,Tag0,unknown
1610201805820,200,593,1.3029785156250002E-4,0,0,60,1460825,872552,41473,25343,16770919,16768015,16744998,17345,Tag0,unknown
1610201805849,200,435,9.55810546875E-5,0,0,60,1460825,872552,41473,25343,16770919,16768015,16744998,17345,Tag0,unknown
1610201805859,200,473,1.0393066406249999E-4,0,0,60,1460825,872552,41473,25343,16770919,16768015,16744998,17345,Tag0,unknown
1610201805869,200,437,9.602050781250001E-5,0,0,60,1460825,872552,41473,25343,16770919,16768015,16744998,17345,Tag0,unknown
1610201805892,200,235,5.16357421875E-5,0,0,60,1460825,872552,41473,25343,16770919,16768015,16744998,17345,Tag0,unknown
1610201805910,200,531,1.1667480468750001E-4,0,0,60,1460825,872552,41473,25343,16770919,16768015,16744998,17345,Tag0,unknown
1610201805920,200,534,1.17333984375E-4,0,0,60,1460825,872552,41473,25343,16770919,16768015,16744998,17345,Tag0,unknown
1610201805942,200,242,5.3173828125000005E-5,0,0,60,1460825,872552,41473,25343,16770919,16768015,16744998,17345,Tag0,unknown
1610201805967,200,-772,-1.6962890625000002E-4,0,0,60,1460825,872552,41473,25343,16770919,16768015,16744998,17345,Tag0,unknown
1610201805977,200,-457,-1.004150390625E-4,0,0,60,1460825,872552,41473,25343,16770919,16768015,16744998,17345,Tag0,unknown
1610201805992,200,345,7.58056640625E-5,0,0,60,1460825,872552,41473,25343,16770919,16768015,16744998,17345,Tag0,unknown
1610201806025,200,257,5.64697265625E-5,0,0,60,1460825,872552,41473,25343,16770919,16768015,16744998,17345,Tag0,unknown
1610201806042,200,-87,-1.91162109375E-5,0,0,60,1460825,872552,41473,25343,16770919,16768015,16744998,17345,Tag0,unknown
1610201806052,200,387,8.50341796875E-5,0,0,60,1460825,872552,41473,25343,16770919,16768015,16744998,17345,Tag0,unknown
1610201806072,200,610,1.34033203125E-4,0,0,60,1460825,872552,41473,25343,16770919,16768015,16744998,17345,Tag0,unknown
1610201806093,200,403,8.854980468749999E-5,0,0,60,1460825,872552,41473,25343,16770919,16768015,16744998,17345,Tag0,unknown
1610201806119,200,472,1.037109375E-4,0,0,60,1460825,872552,41473,25343,16770919,16768015,16744998,17345,Tag0,unknown
1610201806129,200,625,1.373291015625E-4,0,0,60,1460825,872552,41473,25343,16770919,16768015,16744998,17345,Tag0,unknown
1610201806142,200,192,4.21875E-5,0,0,60,1460825,872552,41473,25343,16770919,16768015,16744998,17345,Tag0,unknown
1610201806160,200,349,7.668457031250001E-5,0,0,60,1460825,872552,41473,25343,16770919,16768015,16744998,17345,Tag0,unknown
1610201806179,200,301,6.613769531250001E-5,0,0,60,280057,147668,16750698,8980,16756376,25660,9444,3385,Tag0,unknown
1610201806222,200,-78,-1.7138671875E-5,0,0,60,280057,147668,16750698,8980,16756376,25660,9444,3385,Tag0,unknown
1610201806243,200,-107,-2.35107421875E-5,0,0,60,280057,147668,16750698,8980,16756376,25660,9444,3385,Tag0,unknown
1610201806253,200,21,4.614257812500001E-6,0,0,60,280057,147668,16750698,8980,16756376,25660,9444,3385,Tag0,unknown
1610201806275,200,-282,-6.1962890625E-5,0,0,60,280057,147668,16750698,8980,16756376,25660,9444,3385,Tag0,unknown
1610201806292,200,-305,-6.70166015625E-5,0,0,60,280057,147668,16750698,8980,16756376,25660,9444,3385,Tag0,unknown
1610201806316,200,5,1.0986328125E-6,0,0,60,280057,147668,16750698,8980,16756376,25660,9444,3385,Tag0,unknown
1610201806326,200,5,1.0986328125E-6,0,0,60,280057,147668,16750698,8980,16756376,25660,9444,3385,Tag0,unknown
1610201806350,200,-289,-6.35009765625E-5,0,0,60,280057,147668,16750698,8980,16756376,25660,9444,3385,Tag0,unknown
1610201806361,200,-325,-7.14111328125E-5,0,0,60,280057,147668,16750698,8980,16756376,25660,9444,3385,Tag0,unknown
1610201806375,200,89,1.95556640625E-5,0,0,60,280057,147668,16750698,8980,16756376,25660,9444,3385,Tag0,unknown
1610201806394,200,-118,-2.5927734375E-5,0,0,60,280057,147668,16750698,8980,16756376,25660,9444,3385,Tag0,unknown
1610201806408,200,-30,-6.591796875E-6,0,0,60,280057,147668,16750698,8980,16756376,25660,9444,3385,Tag0,unknown
1610201806428,200,51,1.1206054687499999E-5,0,0,60,280057,147668,16750698,8980,16756376,25660,9444,3385,Tag0,unknown
1610201806442,200,1,2.197265625E-7,0,0,60,280057,147668,16750698,8980,16756376,25660,9444,3385,Tag0,unknown
1610201806459,200,84,1.8457031250000004E-5,0,0,60,280057,147668,16750698,8980,16756376,25660,9444,3385,Tag0,unknown
1610201806492,200,-689,-1.513916015625E-4,0,0,60,280057,147668,16750698,8980,16756376,25660,9444,3385,Tag0,unknown
1610201806509,200,-473,-1.0393066406249999E-4,0,0,60,280057,147668,16750698,8980,16756376,25660,9444,3385,Tag0,unknown
1610201806528,200,-143,-3.14208984375E-5,0,0,60,280057,147668,16750698,8980,16756376,25660,9444,3385,Tag0,unknown
1610201806543,200,-75,-1.64794921875E-5,0,0,60,280057,147668,16750698,8980,16756376,25660,9444,3385,Tag0,unknown
1610201806572,200,571,1.254638671875E-4,0,0,60,280057,147668,16750698,8980,16756376,25660,9444,3385,Tag0,unknown
1610201806593,200,567,1.245849609375E-4,0,0,60,280057,147668,16750698,8980,16756376,25660,9444,3385,Tag0,unknown
1610201806603,200,-321,-7.053222656250001E-5,0,0,60,280057,147668,16750698,8980,16756376,25660,9444,3385,Tag0,unknown
1610201806613,200,-241,-5.29541015625E-5,0,0,60,280057,147668,16750698,8980,16756376,25660,9444,3385,Tag0,unknown
1610201806645,200,-129,-2.8344726562500002E-5,0,0,60,280057,147668,16750698,8980,16756376,25660,9444,3385,Tag0,unknown
1610201806659,200,13,2.8564453125E-6,0,0,60,280057,147668,16750698,8980,16756376,25660,9444,3385,Tag0,unknown
1610201806669,200,205,4.50439453125E-5,0,0,60,280057,147668,16750698,8980,16756376,25660,9444,3385,Tag0,unknown
1610201806679,200,365,8.02001953125E-5,0,0,60,280057,147668,16750698,8980,16756376,25660,9444,3385,Tag0,unknown
1610201806693,200,327,7.18505859375E-5,0,0,60,280057,147668,16750698,8980,16756376,25660,9444,3385,Tag0,unknown
1610201806710,200,301,6.613769531250001E-5,0,0,60,280057,147668,16750698,8980,16756376,25660,9444,3385,Tag0,unknown
1610201806727,200,115,2.52685546875E-5,0,0,60,280057,147668,16750698,8980,16756376,25660,9444,3385,Tag0,unknown
1610201806757,200,-837,-1.8391113281250002E-4,0,0,60,280057,147668,16750698,8980,16756376,25660,9444,3385,Tag0,unknown
1610201806775,200,-510,-1.12060546875E-4,0,0,60,280057,147668,16750698,8980,16756376,25660,9444,3385,Tag0,unknown
1610201806785,200,-201,-4.41650390625E-5,0,0,60,280057,147668,16750698,8980,16756376,25660,9444,3385,Tag0,unknown
1610201806810,200,-772,-1.6962890625000002E-4,0,0,60,280057,147668,16750698,8980,16756376,25660,9444,3385,Tag0,unknown
1610201806820,200,-971,-2.133544921875E-4,0,0,60,280057,147668,16750698,8980,16756376,25660,9444,3385,Tag0,unknown
1610201806830,200,-934,-2.05224609375E-4,0,0,60,280057,147668,16750698,8980,16756376,25660,9444,3385,Tag0,unknown
1610201806855,200,-1062,-2.3334960937500002E-4,0,0,60,280057,147668,16750698,8980,16756376,25660,9444,3385,Tag0,unknown
1610201806865,200,-866,-1.90283203125E-4,0,0,60,280057,147668,16750698,8980,16756376,25660,9444,3385,Tag0,unknown
1610201806876,200,-462,-1.01513671875E-4,0,0,60,280057,147668,16750698,8980,16756376,25660,9444,3385,Tag0,unknown
1610201806900,200,-631,-1.386474609375E-4,0,0,60,280057,147668,16750698,8980,16756376,25660,9444,3385,Tag0,unknown
1610201806910,200,-599,-1.316162109375E-4,0,0,60,280057,147668,16750698,8980,16756376,25660,9444,3385,Tag0,unknown
1610201806928,200,-452,-9.931640625E-5,0,0,60,280057,147668,16750698,8980,16756376,25660,9444,3385,Tag0,unknown
1610201806953,200,-72,-1.58203125E-5,0,0,60,280057,147668,16750698,8980,16756376,25660,9444,3385,Tag0,unknown
1610201806963,200,637,1.399658203125E-4,0,0,60,280057,147668,16750698,8980,16756376,25660,9444,3385,Tag0,unknown
1610201806976,200,1145,2.515869140625E-4,0,0,60,280057,147668,16750698,8980,16756376,25660,9444,3385,Tag0,unknown
1610201806992,200,1267,2.7839355468749997E-4,0,0,60,280057,147668,16750698,8980,16756376,25660,9444,3385,Tag0,unknown
1610201807010,200,1385,3.043212890625E-4,0,0,60,280057,147668,16750698,8980,16756376,25660,9444,3385,Tag0,unknown
1610201807026,200,1041,2.287353515625E-4,0,0,60,280057,147668,16750698,8980,16756376,25660,9444,3385,Tag0,unknown
1610201807043,200,493,1.083251953125E-4,0,0,60,280057,147668,16750698,8980,16756376,25660,9444,3385,Tag0,unknown
1610201807078,200,551,1.210693359375E-4,0,0,60,280057,147668,16750698,8980,16756376,25660,9444,3385,Tag0,unknown
1610201807094,200,532,1.1689453125E-4,0,0,60,280057,147668,16750698,8980,16756376,25660,9444,3385,Tag0,unknown
1610201807125,200,280,6.15234375E-5,0,0,60,280057,147668,16750698,8980,16756376,25660,9444,3385,Tag0,unknown
1610201807143,200,52,1.142578125E-5,0,0,60,280057,147668,16750698,8980,16756376,25660,9444,3385,Tag0,unknown
1610201807182,200,115,2.52685546875E-5,0,0,60,560459,329524,19459,76933,67777,16757923,32330,18274,Tag0,unknown
1610201807192,200,203,4.460449218750001E-5,0,0,60,560459,329524,19459,76933,67777,16757923,32330,18274,Tag0,unknown
1610201807202,200,332,7.294921875E-5,0,0,60,560459,329524,19459,76933,67777,16757923,32330,18274,Tag0,unknown
1610201807233,200,-313,-6.87744140625E-5,0,0,60,560459,329524,19459,76933,67777,16757923,32330,18274,Tag0,unknown
1610201807243,200,-308,-6.767578125E-5,0,0,60,560459,329524,19459,76933,67777,16757923,32330,18274,Tag0,unknown
1610201807259,200,-557,-1.223876953125E-4,0,0,60,560459,329524,19459,76933,67777,16757923,32330,18274,Tag0,unknown
1610201807283,200,-625,-1.373291015625E-4,0,0,60,560459,329524,19459,76933,67777,16757923,32330,18274,Tag0,unknown
1610201807293,200,-792,-1.7402343750000002E-4,0,0,60,560459,329524,19459,76933,67777,16757923,32330,18274,Tag0,unknown
1610201807317,200,-169,-3.7133789062499996E-5,0,0,60,560459,329524,19459,76933,67777,16757923,32330,18274,Tag0,unknown
1610201807327,200,-555,-1.219482421875E-4,0,0,60,560459,329524,19459,76933,67777,16757923,32330,18274,Tag0,unknown
1610201807337,200,3,6.591796875E-7,0,0,60,560459,329524,19459,76933,67777,16757923,32330,18274,Tag0,unknown
1610201807360,200,6,1.318359375E-6,0,0,60,560459,329524,19459,76933,67777,16757923,32330,18274,Tag0,unknown
1610201807387,200,196,4.306640625E-5,0,0,60,560459,329524,19459,76933,67777,16757923,32330,18274,Tag0,unknown
1610201807397,200,578,1.27001953125E-4,0,0,60,560459,329524,19459,76933,67777,16757923,32330,18274,Tag0,unknown
1610201807409,200,211,4.63623046875E-5,0,0,60,560459,329524,19459,76933,67777,16757923,32330,18274,Tag0,unknown
1610201807429,200,357,7.844238281250001E-5,0,0,60,560459,329524,19459,76933,67777,16757923,32330,18274,Tag0,unknown
1610201807443,200,359,7.88818359375E-5,0,0,60,560459,329524,19459,76933,67777,16757923,32330,18274,Tag0,unknown
1610201807498,200,117,2.5708007812499998E-5,0,0,60,560459,329524,19459,76933,67777,16757923,32330,18274,Tag0,unknown
1610201807514,200,92,2.021484375E-5,0,0,60,560459,329524,19459,76933,67777,16757923,32330,18274,Tag0,unknown
1610201807525,200,-353,-7.75634765625E-5,0,0,60,560459,329524,19459,76933,67777,16757923,32330,18274,Tag0,unknown
1610201807535,200,-491,-1.078857421875E-4,0,0,60,560459,329524,19459,76933,67777,16757923,32330,18274,Tag0,unknown
1610201807548,200,-709,-1.557861328125E-4,0,0,60,560459,329524,19459,76933,67777,16757923,32330,18274,Tag0,unknown
1610201807558,200,-217,-4.76806640625E-5,0,0,60,560459,329524,19459,76933,67777,16757923,32330,18274,Tag0,unknown
1610201807577,200,-41,-9.008789062499999E-6,0,0,60,560459,329524,19459,76933,67777,16757923,32330,18274,Tag0,unknown
1610201807595,200,249,5.47119140625E-5,0,0,60,560459,329524,19459,76933,67777,16757923,32330,18274,Tag0,unknown
1610201807611,200,885,1.944580078125E-4,0,0,60,560459,329524,19459,76933,67777,16757923,32330,18274,Tag0,unknown
1610201807627,200,661,1.452392578125E-4,0,0,60,560459,329524,19459,76933,67777,16757923,32330,18274,Tag0,unknown
1610201807637,200,390,8.5693359375E-5,0,0,60,560459,329524,19459,76933,67777,16757923,32330,18274,Tag0,unknown
1610201807647,200,599,1.316162109375E-4,0,0,60,560459,329524,19459,76933,67777,16757923,32330,18274,Tag0,unknown
1610201807660,200,586,1.28759765625E-4,0,0,60,560459,329524,19459,76933,67777,16757923,32330,18274,Tag0,unknown
1610201807683,200,361,7.93212890625E-5,0,0,60,560459,329524,19459,76933,67777,16757923,32330,18274,Tag0,unknown
1610201807695,200,356,7.822265625E-5,0,0,60,560459,329524,19459,76933,67777,16757923,32330,18274,Tag0,unknown
1610201807705,200,-721,-1.584228515625E-4,0,0,60,560459,329524,19459,76933,67777,16757923,32330,18274,Tag0,unknown
1610201807724,200,-949,-2.085205078125E-4,0,0,60,560459,329524,19459,76933,67777,16757923,32330,18274,Tag0,unknown
1610201807743,200,-940,-2.0654296875E-4,0,0,60,560459,329524,19459,76933,67777,16757923,32330,18274,Tag0,unknown
1610201807753,200,-1637,-3.596923828125E-4,0,0,60,560459,329524,19459,76933,67777,16757923,32330,18274,Tag0,unknown
1610201807799,200,-1634,-3.5903320312500003E-4,0,0,60,560459,329524,19459,76933,67777,16757923,32330,18274,Tag0,unknown
1610201807811,200,-1579,-3.469482421875E-4,0,0,60,560459,329524,19459,76933,67777,16757923,32330,18274,Tag0,unknown
1610201807821,200,-468,-1.0283203124999999E-4,0,0,60,560459,329524,19459,76933,67777,16757923,32330,18274,Tag0,unknown
1610201807831,200,152,3.33984375E-5,0,0,60,560459,329524,19459,76933,67777,16757923,32330,18274,Tag0,unknown
1610201807846,200,597,1.3117675781250003E-4,0,0,60,560459,329524,19459,76933,67777,16757923,32330,18274,Tag0,unknown
1610201807861,200,427,9.382324218750001E-5,0,0,60,560459,329524,19459,76933,67777,16757923,32330,18274,Tag0,unknown
1610201807871,200,1377,3.0256347656249996E-4,0,0,60,560459,329524,19459,76933,67777,16757923,32330,18274,Tag0,unknown
1610201807893,200,717,1.5754394531250002E-4,0,0,60,560459,329524,19459,76933,67777,16757923,32330,18274,Tag0,unknown
1610201807912,200,477,1.048095703125E-4,0,0,60,560459,329524,19459,76933,67777,16757923,32330,18274,Tag0,unknown
1610201807926,200,475,1.043701171875E-4,0,0,60,560459,329524,19459,76933,67777,16757923,32330,18274,Tag0,unknown
1610201807947,200,548,1.2041015624999999E-4,0,0,60,560459,329524,19459,76933,67777,16757923,32330,18274,Tag0,unknown
1610201807963,200,557,1.223876953125E-4,0,0,60,560459,329524,19459,76933,67777,16757923,32330,18274,Tag0,unknown
1610201807973,200,-846,-1.85888671875E-4,0,0,60,560459,329524,19459,76933,67777,16757923,32330,18274,Tag0,unknown
1610201807991,200,-734,-1.6127929687500002E-4,0,0,60,560459,329524,19459,76933,67777,16757923,32330,18274,Tag0,unknown
1610201808009,200,-741,-1.6281738281249998E-4,0,0,60,560459,329524,19459,76933,67777,16757923,32330,18274,Tag0,unknown
1610201808019,200,-701,-1.540283203125E-4,0,0,60,560459,329524,19459,76933,67777,16757923,32330,18274,Tag0,unknown
1610201808029,200,-838,-1.8413085937500002E-4,0,0,60,560459,329524,19459,76933,67777,16757923,32330,18274,Tag0,unknown
1610201808043,200,-612,-1.3447265625000002E-4,0,0,60,560459,329524,19459,76933,67777,16757923,32330,18274,Tag0,unknown
1610201808059,200,-284,-6.240234375E-5,0,0,60,560459,329524,19459,76933,67777,16757923,32330,18274,Tag0,unknown
1610201808097,200,681,1.496337890625E-4,0,0,60,560459,329524,19459,76933,67777,16757923,32330,18274,Tag0,unknown
1610201808109,200,1105,2.427978515625E-4,0,0,60,560459,329524,19459,76933,67777,16757923,32330,18274,Tag0,unknown
1610201808119,200,665,1.461181640625E-4,0,0,60,560459,329524,19459,76933,67777,16757923,32330,18274,Tag0,unknown
1610201808137,200,820,1.8017578125E-4,0,0,60,560459,329524,19459,76933,67777,16757923,32330,18274,Tag0,unknown
1610201808147,200,473,1.0393066406249999E-4,0,0,60,560459,329524,19459,76933,67777,16757923,32330,18274,Tag0,unknown
1610201808162,200,-311,-6.833496093750001E-5,0,0,60,499321,1169073,80069,16776280,16753714,21849,14564,16277,Tag0,unknown
1610201808179,200,-379,-8.32763671875E-5,0,0,60,499321,1169073,80069,16776280,16753714,21849,14564,16277,Tag0,unknown
1610201808193,200,-363,-7.97607421875E-5,0,0,60,499321,1169073,80069,16776280,16753714,21849,14564,16277,Tag0,unknown
1610201808219,200,-1889,-4.1506347656250004E-4,0,0,60,499321,1169073,80069,16776280,16753714,21849,14564,16277,Tag0,unknown
1610201808229,200,-1192,-2.619140625E-4,0,0,60,499321,1169073,80069,16776280,16753714,21849,14564,16277,Tag0,unknown
1610201808257,200,-419,-9.206542968750001E-5,0,0,60,499321,1169073,80069,16776280,16753714,21849,14564,16277,Tag0,unknown
1610201808275,200,-341,-7.492675781250002E-5,0,0,60,499321,1169073,80069,16776280,16753714,21849,14564,16277,Tag0,unknown
1610201808285,200,1371,3.012451171875E-4,0,0,60,499321,1169073,80069,16776280,16753714,21849,14564,16277,Tag0,unknown
1610201808296,200,1133,2.489501953125E-4,0,0,60,499321,1169073,80069,16776280,16753714,21849,14564,16277,Tag0,unknown
1610201808310,200,914,2.00830078125E-4,0,0,60,499321,1169073,80069,16776280,16753714,21849,14564,16277,Tag0,unknown
1610201808329,200,577,1.2678222656250002E-4,0,0,60,499321,1169073,80069,16776280,16753714,21849,14564,16277,Tag0,unknown
1610201808344,200,1037,2.278564453125E-4,0,0,60,499321,1169073,80069,16776280,16753714,21849,14564,16277,Tag0,unknown
1610201808366,200,789,1.7336425781250002E-4,0,0,60,499321,1169073,80069,16776280,16753714,21849,14564,16277,Tag0,unknown
1610201808376,200,427,9.382324218750001E-5,0,0,60,499321,1169073,80069,16776280,16753714,21849,14564,16277,Tag0,unknown
1610201808399,200,524,1.1513671875E-4,0,0,60,499321,1169073,80069,16776280,16753714,21849,14564,16277,Tag0,unknown
1610201808409,200,234,5.1416015624999996E-5,0,0,60,499321,1169073,80069,16776280,16753714,21849,14564,16277,Tag0,unknown
1610201808419,200,-881,-1.9357910156249998E-4,0,0,60,499321,1169073,80069,16776280,16753714,21849,14564,16277,Tag0,unknown
1610201808429,200,-1067,-2.344482421875E-4,0,0,60,499321,1169073,80069,16776280,16753714,21849,14564,16277,Tag0,unknown
1610201808444,200,-1285,-2.823486328125E-4,0,0,60,499321,1169073,80069,16776280,16753714,21849,14564,16277,Tag0,unknown
1610201808473,200,-1517,-3.333251953125E-4,0,0,60,499321,1169073,80069,16776280,16753714,21849,14564,16277,Tag0,unknown
1610201808492,200,-1841,-4.045166015625E-4,0,0,60,499321,1169073,80069,16776280,16753714,21849,14564,16277,Tag0,unknown
1610201808510,200,-281,-6.17431640625E-5,0,0,60,499321,1169073,80069,16776280,16753714,21849,14564,16277,Tag0,unknown
1610201808541,200,-60,-1.318359375E-5,0,0,60,499321,1169073,80069,16776280,16753714,21849,14564,16277,Tag0,unknown
1610201808559,200,84,1.8457031250000004E-5,0,0,60,499321,1169073,80069,16776280,16753714,21849,14564,16277,Tag0,unknown
1610201808585,200,424,9.316406250000001E-5,0,0,60,499321,1169073,80069,16776280,16753714,21849,14564,16277,Tag0,unknown
1610201808596,200,199,4.3725585937499995E-5,0,0,60,499321,1169073,80069,16776280,16753714,21849,14564,16277,Tag0,unknown
1610201808619,200,361,7.93212890625E-5,0,0,60,499321,1169073,80069,16776280,16753714,21849,14564,16277,Tag0,unknown
1610201808629,200,183,4.02099609375E-5,0,0,60,499321,1169073,80069,16776280,16753714,21849,14564,16277,Tag0,unknown
1610201808655,200,-561,-1.232666015625E-4,0,0,60,499321,1169073,80069,16776280,16753714,21849,14564,16277,Tag0,unknown
1610201808698,200,-1266,-2.7817382812500005E-4,0,0,60,499321,1169073,80069,16776280,16753714,21849,14564,16277,Tag0,unknown
1610201808710,200,-1627,-3.574951171875E-4,0,0,60,499321,1169073,80069,16776280,16753714,21849,14564,16277,Tag0,unknown
1610201808720,200,-1769,-3.886962890625E-4,0,0,60,499321,1169073,80069,16776280,16753714,21849,14564,16277,Tag0,unknown
1610201808735,200,-1689,-3.7111816406250006E-4,0,0,60,499321,1169073,80069,16776280,16753714,21849,14564,16277,Tag0,unknown
1610201808745,200,-1497,-3.289306640625E-4,0,0,60,499321,1169073,80069,16776280,16753714,21849,14564,16277,Tag0,unknown
1610201808781,200,-1595,-3.504638671875E-4,0,0,60,499321,1169073,80069,16776280,16753714,21849,14564,16277,Tag0,unknown
1610201808793,200,-1546,-3.3969726562500005E-4,0,0,60,499321,1169073,80069,16776280,16753714,21849,14564,16277,Tag0,unknown
1610201808803,200,-852,-1.8720703125E-4,0,0,60,499321,1169073,80069,16776280,16753714,21849,14564,16277,Tag0,unknown
1610201808813,200,-525,-1.153564453125E-4,0,0,60,499321,1169073,80069,16776280,16753714,21849,14564,16277,Tag0,unknown
1610201808828,200,149,3.27392578125E-5,0,0,60,499321,1169073,80069,16776280,16753714,21849,14564,16277,Tag0,unknown
1610201808845,200,1249,2.744384765625E-4,0,0,60,499321,1169073,80069,16776280,16753714,21849,14564,16277,Tag0,unknown
1610201808860,200,1791,3.935302734375E-4,0,0,60,499321,1169073,80069,16776280,16753714,21849,14564,16277,Tag0,unknown
1610201808881,200,1791,3.935302734375E-4,0,0,60,499321,1169073,80069,16776280,16753714,21849,14564,16277,Tag0,unknown
1610201808893,200,1791,3.935302734375E-4,0,0,60,499321,1169073,80069,16776280,16753714,21849,14564,16277,Tag0,unknown
1610201808924,200,1910,4.19677734375E-4,0,0,60,499321,1169073,80069,16776280,16753714,21849,14564,16277,Tag0,unknown
1610201808943,200,1848,4.060546875E-4,0,0,60,499321,1169073,80069,16776280,16753714,21849,14564,16277,Tag0,unknown
1610201808953,200,-1080,-2.373046875E-4,0,0,60,499321,1169073,80069,16776280,16753714,21849,14564,16277,Tag0,unknown
1610201808963,200,-1685,-3.702392578125E-4,0,0,60,499321,1169073,80069,16776280,16753714,21849,14564,16277,Tag0,unknown
1610201808978,200,-2048,-4.5E-4,0,0,60,499321,1169073,80069,16776280,16753714,21849,14564,16277,Tag0,unknown
1610201808988,200,456,1.0019531250000001E-4,0,0,60,499321,1169073,80069,16776280,16753714,21849,14564,16277,Tag0,unknown
1610201809011,200,1159,2.5466308593750003E-4,0,0,60,499321,1169073,80069,16776280,16753714,21849,14564,16277,Tag0,unknown
1610201809031,200,987,2.1687011718750002E-4,0,0,60,499321,1169073,80069,16776280,16753714,21849,14564,16277,Tag0,unknown
1610201809044,200,993,2.181884765625E-4,0,0,60,499321,1169073,80069,16776280,16753714,21849,14564,16277,Tag0,unknown
1610201809054,200,453,9.95361328125E-5,0,0,60,499321,1169073,80069,16776280,16753714,21849,14564,16277,Tag0,unknown
1610201809071,200,561,1.232666015625E-4,0,0,60,499321,1169073,80069,16776280,16753714,21849,14564,16277,Tag0,unknown
1610201809081,200,539,1.1843261718750001E-4,0,0,60,499321,1169073,80069,16776280,16753714,21849,14564,16277,Tag0,unknown
1610201809095,200,344,7.558593750000001E-5,0,0,60,499321,1169073,80069,16776280,16753714,21849,14564,16277,Tag0,unknown
1610201809113,200,-57,-1.2524414062500001E-5,0,0,60,499321,1169073,80069,16776280,16753714,21849,14564,16277,Tag0,unknown
1610201809128,200,-27,-5.9326171875000005E-6,0,0,60,499321,1169073,80069,16776280,16753714,21849,14564,16277,Tag0,unknown
1610201809152,200,-28,-6.15234375E-6,0,0,60,499321,1169073,80069,16776280,16753714,21849,14564,16277,Tag0,unknown
1610201809162,200,99,2.1752929687500003E-5,0,0,60,581088,126400,16748044,16758535,42159,16774788,25116,13590,Tag0,unknown
1610201809181,200,-302,-6.6357421875E-5,0,0,60,581088,126400,16748044,16758535,42159,16774788,25116,13590,Tag0,unknown
1610201809194,200,-309,-6.78955078125E-5,0,0,60,581088,126400,16748044,16758535,42159,16774788,25116,13590,Tag0,unknown
1610201809210,200,-229,-5.03173828125E-5,0,0,60,581088,126400,16748044,16758535,42159,16774788,25116,13590,Tag0,unknown
1610201809226,200,-163,-3.5815429687500006E-5,0,0,60,581088,126400,16748044,16758535,42159,16774788,25116,13590,Tag0,unknown
1610201809244,200,-314,-6.8994140625E-5,0,0,60,581088,126400,16748044,16758535,42159,16774788,25116,13590,Tag0,unknown
1610201809262,200,41,9.008789062499999E-6,0,0,60,581088,126400,16748044,16758535,42159,16774788,25116,13590,Tag0,unknown
1610201809277,200,67,1.4721679687500002E-5,0,0,60,581088,126400,16748044,16758535,42159,16774788,25116,13590,Tag0,unknown
1610201809287,200,-25,-5.4931640625E-6,0,0,60,581088,126400,16748044,16758535,42159,16774788,25116,13590,Tag0,unknown
1610201809298,200,-92,-2.021484375E-5,0,0,60,581088,126400,16748044,16758535,42159,16774788,25116,13590,Tag0,unknown
1610201809311,200,-75,-1.64794921875E-5,0,0,60,581088,126400,16748044,16758535,42159,16774788,25116,13590,Tag0,unknown
1610201809326,200,-68,-1.4941406250000001E-5,0,0,60,581088,126400,16748044,16758535,42159,16774788,25116,13590,Tag0,unknown
1610201809343,200,-93,-2.04345703125E-5,0,0,60,581088,126400,16748044,16758535,42159,16774788,25116,13590,Tag0,unknown
1610201809374,200,117,2.5708007812499998E-5,0,0,60,581088,126400,16748044,16758535,42159,16774788,25116,13590,Tag0,unknown
1610201809393,200,100,2.197265625E-5,0,0,60,581088,126400,16748044,16758535,42159,16774788,25116,13590,Tag0,unknown
1610201809403,200,-120,-2.63671875E-5,0,0,60,581088,126400,16748044,16758535,42159,16774788,25116,13590,Tag0,unknown
1610201809416,200,9,1.9775390625E-6,0,0,60,581088,126400,16748044,16758535,42159,16774788,25116,13590,Tag0,unknown
1610201809428,200,-278,-6.108398437500001E-5,0,0,60,581088,126400,16748044,16758535,42159,16774788,25116,13590,Tag0,unknown
1610201809439,200,-1061,-2.331298828125E-4,0,0,60,581088,126400,16748044,16758535,42159,16774788,25116,13590,Tag0,unknown
1610201809450,200,-634,-1.39306640625E-4,0,0,60,581088,126400,16748044,16758535,42159,16774788,25116,13590,Tag0,unknown
1610201809461,200,-215,-4.72412109375E-5,0,0,60,581088,126400,16748044,16758535,42159,16774788,25116,13590,Tag0,unknown
1610201809488,200,-322,-7.0751953125E-5,0,0,60,581088,126400,16748044,16758535,42159,16774788,25116,13590,Tag0,unknown
1610201809498,200,-5,-1.0986328125E-6,0,0,60,581088,126400,16748044,16758535,42159,16774788,25116,13590,Tag0,unknown
1610201809509,200,-609,-1.338134765625E-4,0,0,60,581088,126400,16748044,16758535,42159,16774788,25116,13590,Tag0,unknown
1610201809528,200,59,1.29638671875E-5,0,0,60,581088,126400,16748044,16758535,42159,16774788,25116,13590,Tag0,unknown
1610201809543,200,-301,-6.613769531250001E-5,0,0,60,581088,126400,16748044,16758535,42159,16774788,25116,13590,Tag0,unknown
1610201809562,200,-83,-1.82373046875E-5,0,0,60,581088,126400,16748044,16758535,42159,16774788,25116,13590,Tag0,unknown
1610201809576,200,21,4.614257812500001E-6,0,0,60,581088,126400,16748044,16758535,42159,16774788,25116,13590,Tag0,unknown
1610201809599,200,-1287,-2.8278808593749997E-4,0,0,60,581088,126400,16748044,16758535,42159,16774788,25116,13590,Tag0,unknown
1610201809612,200,-1337,-2.937744140625E-4,0,0,60,581088,126400,16748044,16758535,42159,16774788,25116,13590,Tag0,unknown
1610201809633,200,-1266,-2.7817382812500005E-4,0,0,60,581088,126400,16748044,16758535,42159,16774788,25116,13590,Tag0,unknown
1610201809643,200,-1498,-3.29150390625E-4,0,0,60,581088,126400,16748044,16758535,42159,16774788,25116,13590,Tag0,unknown
1610201809660,200,-643,-1.412841796875E-4,0,0,60,581088,126400,16748044,16758535,42159,16774788,25116,13590,Tag0,unknown
1610201809676,200,-439,-9.64599609375E-5,0,0,60,581088,126400,16748044,16758535,42159,16774788,25116,13590,Tag0,unknown
1610201809711,200,-580,-1.2744140625E-4,0,0,60,581088,126400,16748044,16758535,42159,16774788,25116,13590,Tag0,unknown
1610201809727,200,-247,-5.42724609375E-5,0,0,60,581088,126400,16748044,16758535,42159,16774788,25116,13590,Tag0,unknown
1610201809747,200,-789,-1.7336425781250002E-4,0,0,60,581088,126400,16748044,16758535,42159,16774788,25116,13590,Tag0,unknown
1610201809760,200,-775,-1.702880859375E-4,0,0,60,581088,126400,16748044,16758535,42159,16774788,25116,13590,Tag0,unknown
1610201809788,200,-899,-1.975341796875E-4,0,0,60,581088,126400,16748044,16758535,42159,16774788,25116,13590,Tag0,unknown
1610201809798,200,-361,-7.93212890625E-5,0,0,60,581088,126400,16748044,16758535,42159,16774788,25116,13590,Tag0,unknown
1610201809810,200,19,4.1748046875E-6,0,0,60,581088,126400,16748044,16758535,42159,16774788,25116,13590,Tag0,unknown
1610201809826,200,455,9.99755859375E-5,0,0,60,581088,126400,16748044,16758535,42159,16774788,25116,13590,Tag0,unknown
1610201809843,200,932,2.0478515625000002E-4,0,0,60,581088,126400,16748044,16758535,42159,16774788,25116,13590,Tag0,unknown
1610201809870,200,-1689,-3.7111816406250006E-4,0,0,60,581088,126400,16748044,16758535,42159,16774788,25116,13590,Tag0,unknown
1610201809880,200,-1812,-3.9814453125E-4,0,0,60,581088,126400,16748044,16758535,42159,16774788,25116,13590,Tag0,unknown
1610201809894,200,-109,-2.39501953125E-5,0,0,60,581088,126400,16748044,16758535,42159,16774788,25116,13590,Tag0,unknown
1610201809911,200,1847,4.0583496093749997E-4,0,0,60,581088,126400,16748044,16758535,42159,16774788,25116,13590,Tag0,unknown
1610201809937,200,1543,3.390380859375E-4,0,0,60,581088,126400,16748044,16758535,42159,16774788,25116,13590,Tag0,unknown
1610201809947,200,1634,3.5903320312500003E-4,0,0,60,581088,126400,16748044,16758535,42159,16774788,25116,13590,Tag0,unknown
1610201809972,200,914,2.00830078125E-4,0,0,60,581088,126400,16748044,16758535,42159,16774788,25116,13590,Tag0,unknown
1610201809982,200,777,1.707275390625E-4,0,0,60,581088,126400,16748044,16758535,42159,16774788,25116,13590,Tag0,unknown
1610201809993,200,491,1.078857421875E-4,0,0,60,581088,126400,16748044,16758535,42159,16774788,25116,13590,Tag0,unknown
1610201810010,200,-422,-9.2724609375E-5,0,0,60,581088,126400,16748044,16758535,42159,16774788,25116,13590,Tag0,unknown
1610201810061,200,436,9.580078125E-5,0,0,60,581088,126400,16748044,16758535,42159,16774788,25116,13590,Tag0,unknown
1610201810078,200,435,9.55810546875E-5,0,0,60,581088,126400,16748044,16758535,42159,16774788,25116,13590,Tag0,unknown
1610201810088,200,403,8.854980468749999E-5,0,0,60,581088,126400,16748044,16758535,42159,16774788,25116,13590,Tag0,unknown
1610201810098,200,184,4.04296875E-5,0,0,60,581088,126400,16748044,16758535,42159,16774788,25116,13590,Tag0,unknown
1610201810108,200,360,7.91015625E-5,0,0,60,581088,126400,16748044,16758535,42159,16774788,25116,13590,Tag0,unknown
1610201810118,200,-89,-1.95556640625E-5,0,0,60,581088,126400,16748044,16758535,42159,16774788,25116,13590,Tag0,unknown
1610201810136,200,118,2.5927734375E-5,0,0,60,581088,126400,16748044,16758535,42159,16774788,25116,13590,Tag0,unknown
1610201810147,200,-124,-2.724609375E-5,0,0,60,581088,126400,16748044,16758535,42159,16774788,25116,13590,Tag0,unknown
1610201810162,200,-305,-6.70166015625E-5,0,0,60,512622,192139,24408,15541,31429,16746347,19813,22861,Tag0,unknown
1610201810180,200,-221,-4.85595703125E-5,0,0,60,512622,192139,24408,15541,31429,16746347,19813,22861,Tag0,unknown
1610201810196,200,1,2.197265625E-7,0,0,60,512622,192139,24408,15541,31429,16746347,19813,22861,Tag0,unknown
1610201810211,200,25,5.4931640625E-6,0,0,60,512622,192139,24408,15541,31429,16746347,19813,22861,Tag0,unknown
1610201810230,200,-307,-6.74560546875E-5,0,0,60,512622,192139,24408,15541,31429,16746347,19813,22861,Tag0,unknown
1610201810243,200,43,9.448242187500001E-6,0,0,60,512622,192139,24408,15541,31429,16746347,19813,22861,Tag0,unknown
1610201810253,200,-77,-1.69189453125E-5,0,0,60,512622,192139,24408,15541,31429,16746347,19813,22861,Tag0,unknown
1610201810264,200,120,2.63671875E-5,0,0,60,512622,192139,24408,15541,31429,16746347,19813,22861,Tag0,unknown
1610201810278,200,75,1.64794921875E-5,0,0,60,512622,192139,24408,15541,31429,16746347,19813,22861,Tag0,unknown
1610201810293,200,9,1.9775390625E-6,0,0,60,512622,192139,24408,15541,31429,16746347,19813,22861,Tag0,unknown
1610201810311,200,-357,-7.844238281250001E-5,0,0,60,512622,192139,24408,15541,31429,16746347,19813,22861,Tag0,unknown
1610201810327,200,-333,-7.316894531249999E-5,0,0,60,512622,192139,24408,15541,31429,16746347,19813,22861,Tag0,unknown
1610201810346,200,-82,-1.8017578124999998E-5,0,0,60,512622,192139,24408,15541,31429,16746347,19813,22861,Tag0,unknown
1610201810362,200,-88,-1.93359375E-5,0,0,60,512622,192139,24408,15541,31429,16746347,19813,22861,Tag0,unknown
1610201810383,200,-273,-5.998535156250001E-5,0,0,60,512622,192139,24408,15541,31429,16746347,19813,22861,Tag0,unknown
1610201810393,200,1,2.197265625E-7,0,0,60,512622,192139,24408,15541,31429,16746347,19813,22861,Tag0,unknown
1610201810410,200,4,8.7890625E-7,0,0,60,512622,192139,24408,15541,31429,16746347,19813,22861,Tag0,unknown
1610201810427,200,-329,-7.229003906250001E-5,0,0,60,512622,192139,24408,15541,31429,16746347,19813,22861,Tag0,unknown
1610201810443,200,28,6.15234375E-6,0,0,60,512622,192139,24408,15541,31429,16746347,19813,22861,Tag0,unknown
1610201810467,200,71,1.56005859375E-5,0,0,60,512622,192139,24408,15541,31429,16746347,19813,22861,Tag0,unknown
1610201810477,200,39,8.5693359375E-6,0,0,60,512622,192139,24408,15541,31429,16746347,19813,22861,Tag0,unknown
1610201810514,200,-292,-6.416015625000001E-5,0,0,60,512622,192139,24408,15541,31429,16746347,19813,22861,Tag0,unknown
1610201810526,200,-229,-5.03173828125E-5,0,0,60,512622,192139,24408,15541,31429,16746347,19813,22861,Tag0,unknown
1610201810536,200,-109,-2.39501953125E-5,0,0,60,512622,192139,24408,15541,31429,16746347,19813,22861,Tag0,unknown
1610201810554,200,-85,-1.86767578125E-5,0,0,60,512622,192139,24408,15541,31429,16746347,19813,22861,Tag0,unknown
1610201810564,200,-293,-6.43798828125E-5,0,0,60,512622,192139,24408,15541,31429,16746347,19813,22861,Tag0,unknown
1610201810576,200,-328,-7.207031249999999E-5,0,0,60,512622,192139,24408,15541,31429,16746347,19813,22861,Tag0,unknown
1610201810598,200,-161,-3.53759765625E-5,0,0,60,512622,192139,24408,15541,31429,16746347,19813,22861,Tag0,unknown
1610201810614,200,-2048,-4.5E-4,0,0,60,512622,192139,24408,15541,31429,16746347,19813,22861,Tag0,unknown
1610201810627,200,-2048,-4.5E-4,0,0,60,512622,192139,24408,15541,31429,16746347,19813,22861,Tag0,unknown
1610201810647,200,-518,-1.13818359375E-4,0,0,60,512622,192139,24408,15541,31429,16746347,19813,22861,Tag0,unknown
1610201810660,200,-182,-3.9990234375E-5,0,0,60,512622,192139,24408,15541,31429,16746347,19813,22861,Tag0,unknown
1610201810670,200,-2034,-4.4692382812500006E-4,0,0,60,512622,192139,24408,15541,31429,16746347,19813,22861,Tag0,unknown
1610201810680,200,-1675,-3.680419921875E-4,0,0,60,512622,192139,24408,15541,31429,16746347,19813,22861,Tag0,unknown
1610201810695,200,-1864,-4.0957031250000005E-4,0,0,60,512622,192139,24408,15541,31429,16746347,19813,22861,Tag0,unknown
1610201810711,200,-1528,-3.357421875E-4,0,0,60,512622,192139,24408,15541,31429,16746347,19813,22861,Tag0,unknown
1610201810728,200,1104,2.42578125E-4,0,0,60,512622,192139,24408,15541,31429,16746347,19813,22861,Tag0,unknown
1610201810744,200,659,1.4479980468750002E-4,0,0,60,512622,192139,24408,15541,31429,16746347,19813,22861,Tag0,unknown
1610201810766,200,731,1.6062011718749998E-4,0,0,60,512622,192139,24408,15541,31429,16746347,19813,22861,Tag0,unknown
1610201810778,200,1032,2.2675781250000002E-4,0,0,60,512622,192139,24408,15541,31429,16746347,19813,22861,Tag0,unknown
1610201810788,200,1353,2.972900390625E-4,0,0,60,512622,192139,24408,15541,31429,16746347,19813,22861,Tag0,unknown
1610201810822,200,1377,3.0256347656249996E-4,0,0,60,512622,192139,24408,15541,31429,16746347,19813,22861,Tag0,unknown
1610201810844,200,1344,2.9531250000000006E-4,0,0,60,512622,192139,24408,15541,31429,16746347,19813,22861,Tag0,unknown
1610201810854,200,427,9.382324218750001E-5,0,0,60,512622,192139,24408,15541,31429,16746347,19813,22861,Tag0,unknown
1610201810872,200,409,8.986816406250001E-5,0,0,60,512622,192139,24408,15541,31429,16746347,19813,22861,Tag0,unknown
1610201810882,200,381,8.371582031250001E-5,0,0,60,512622,192139,24408,15541,31429,16746347,19813,22861,Tag0,unknown
1610201810893,200,172,3.7792968750000005E-5,0,0,60,512622,192139,24408,15541,31429,16746347,19813,22861,Tag0,unknown
1610201810911,200,476,1.0458984375000001E-4,0,0,60,512622,192139,24408,15541,31429,16746347,19813,22861,Tag0,unknown
1610201810927,200,1030,2.26318359375E-4,0,0,60,512622,192139,24408,15541,31429,16746347,19813,22861,Tag0,unknown
1610201810954,200,151,3.31787109375E-5,0,0,60,512622,192139,24408,15541,31429,16746347,19813,22861,Tag0,unknown
1610201810964,200,-151,-3.31787109375E-5,0,0,60,512622,192139,24408,15541,31429,16746347,19813,22861,Tag0,unknown
1610201811002,200,-843,-1.852294921875E-4,0,0,60,512622,192139,24408,15541,31429,16746347,19813,22861,Tag0,unknown
1610201811012,200,-1051,-2.309326171875E-4,0,0,60,512622,192139,24408,15541,31429,16746347,19813,22861,Tag0,unknown
1610201811022,200,-966,-2.12255859375E-4,0,0,60,512622,192139,24408,15541,31429,16746347,19813,22861,Tag0,unknown
1610201811032,200,-1131,-2.485107421875E-4,0,0,60,512622,192139,24408,15541,31429,16746347,19813,22861,Tag0,unknown
1610201811044,200,-677,-1.4875488281250002E-4,0,0,60,512622,192139,24408,15541,31429,16746347,19813,22861,Tag0,unknown
1610201811062,200,-1033,-2.2697753906250002E-4,0,0,60,512622,192139,24408,15541,31429,16746347,19813,22861,Tag0,unknown
1610201811077,200,-731,-1.6062011718749998E-4,0,0,60,512622,192139,24408,15541,31429,16746347,19813,22861,Tag0,unknown
1610201811087,200,-205,-4.50439453125E-5,0,0,60,512622,192139,24408,15541,31429,16746347,19813,22861,Tag0,unknown
1610201811105,200,64,1.40625E-5,0,0,60,512622,192139,24408,15541,31429,16746347,19813,22861,Tag0,unknown
1610201811128,200,-85,-1.86767578125E-5,0,0,60,512622,192139,24408,15541,31429,16746347,19813,22861,Tag0,unknown
1610201811144,200,-369,-8.10791015625E-5,0,0,60,512622,192139,24408,15541,31429,16746347,19813,22861,Tag0,unknown
1610201811162,200,320,7.03125E-5,0,0,60,1633038,111873,62479,84998,140089,75848,16754592,17158,Tag0,unknown
1610201811177,200,201,4.41650390625E-5,0,0,60,1633038,111873,62479,84998,140089,75848,16754592,17158,Tag0,unknown
1610201811193,200,148,3.251953125E-5,0,0,60,1633038,111873,62479,84998,140089,75848,16754592,17158,Tag0,unknown
1610201811210,200,169,3.7133789062499996E-5,0,0,60,1633038,111873,62479,84998,140089,75848,16754592,17158,Tag0,unknown
1610201811247,200,-79,-1.7358398437500003E-5,0,0,60,1633038,111873,62479,84998,140089,75848,16754592,17158,Tag0,unknown
1610201811259,200,-79,-1.7358398437500003E-5,0,0,60,1633038,111873,62479,84998,140089,75848,16754592,17158,Tag0,unknown
1610201811283,200,-103,-2.26318359375E-5,0,0,60,1633038,111873,62479,84998,140089,75848,16754592,17158,Tag0,unknown
1610201811293,200,12,2.63671875E-6,0,0,60,1633038,111873,62479,84998,140089,75848,16754592,17158,Tag0,unknown
1610201811343,200,121,2.6586914062500003E-5,0,0,60,1633038,111873,62479,84998,140089,75848,16754592,17158,Tag0,unknown
1610201811361,200,73,1.6040039062500002E-5,0,0,60,1633038,111873,62479,84998,140089,75848,16754592,17158,Tag0,unknown
1610201811371,200,-499,-1.096435546875E-4,0,0,60,1633038,111873,62479,84998,140089,75848,16754592,17158,Tag0,unknown
1610201811399,200,-949,-2.085205078125E-4,0,0,60,1633038,111873,62479,84998,140089,75848,16754592,17158,Tag0,unknown
1610201811410,200,-1361,-2.990478515625E-4,0,0,60,1633038,111873,62479,84998,140089,75848,16754592,17158,Tag0,unknown
1610201811420,200,1398,3.07177734375E-4,0,0,60,1633038,111873,62479,84998,140089,75848,16754592,17158,Tag0,unknown
1610201811436,200,1415,3.109130859375E-4,0,0,60,1633038,111873,62479,84998,140089,75848,16754592,17158,Tag0,unknown
1610201811446,200,1651,3.627685546875E-4,0,0,60,1633038,111873,62479,84998,140089,75848,16754592,17158,Tag0,unknown
1610201811460,200,769,1.689697265625E-4,0,0,60,1633038,111873,62479,84998,140089,75848,16754592,17158,Tag0,unknown
1610201811479,200,-437,-9.602050781250001E-5,0,0,60,1633038,111873,62479,84998,140089,75848,16754592,17158,Tag0,unknown
1610201811493,200,-577,-1.2678222656250002E-4,0,0,60,1633038,111873,62479,84998,140089,75848,16754592,17158,Tag0,unknown
1610201811513,200,85,1.86767578125E-5,0,0,60,1633038,111873,62479,84998,140089,75848,16754592,17158,Tag0,unknown
1610201811527,200,-364,-7.998046875E-5,0,0,60,1633038,111873,62479,84998,140089,75848,16754592,17158,Tag0,unknown
1610201811537,200,776,1.705078125E-4,0,0,60,1633038,111873,62479,84998,140089,75848,16754592,17158,Tag0,unknown
1610201811551,200,1124,2.4697265625E-4,0,0,60,1633038,111873,62479,84998,140089,75848,16754592,17158,Tag0,unknown
1610201811561,200,1014,2.2280273437500002E-4,0,0,60,1633038,111873,62479,84998,140089,75848,16754592,17158,Tag0,unknown
1610201811584,200,1233,2.7092285156250003E-4,0,0,60,1633038,111873,62479,84998,140089,75848,16754592,17158,Tag0,unknown
1610201811596,200,1159,2.5466308593750003E-4,0,0,60,1633038,111873,62479,84998,140089,75848,16754592,17158,Tag0,unknown
1610201811610,200,1461,3.2102050781250004E-4,0,0,60,1633038,111873,62479,84998,140089,75848,16754592,17158,Tag0,unknown
1610201811633,200,1381,3.0344238281250003E-4,0,0,60,1633038,111873,62479,84998,140089,75848,16754592,17158,Tag0,unknown
1610201811643,200,1333,2.928955078125E-4,0,0,60,1633038,111873,62479,84998,140089,75848,16754592,17158,Tag0,unknown
1610201811672,200,533,1.171142578125E-4,0,0,60,1633038,111873,62479,84998,140089,75848,16754592,17158,Tag0,unknown
1610201811693,200,278,6.108398437500001E-5,0,0,60,1633038,111873,62479,84998,140089,75848,16754592,17158,Tag0,unknown
1610201811711,200,-13,-2.8564453125E-6,0,0,60,1633038,111873,62479,84998,140089,75848,16754592,17158,Tag0,unknown
1610201811735,200,-293,-6.43798828125E-5,0,0,60,1633038,111873,62479,84998,140089,75848,16754592,17158,Tag0,unknown
1610201811745,200,-308,-6.767578125E-5,0,0,60,1633038,111873,62479,84998,140089,75848,16754592,17158,Tag0,unknown
1610201811775,200,-614,-1.34912109375E-4,0,0,60,1633038,111873,62479,84998,140089,75848,16754592,17158,Tag0,unknown
1610201811793,200,-571,-1.254638671875E-4,0,0,60,1633038,111873,62479,84998,140089,75848,16754592,17158,Tag0,unknown
1610201811816,200,-148,-3.251953125E-5,0,0,60,1633038,111873,62479,84998,140089,75848,16754592,17158,Tag0,unknown
1610201811828,200,-225,-4.94384765625E-5,0,0,60,1633038,111873,62479,84998,140089,75848,16754592,17158,Tag0,unknown
1610201811853,200,-611,-1.3425292968749999E-4,0,0,60,1633038,111873,62479,84998,140089,75848,16754592,17158,Tag0,unknown
1610201811863,200,-388,-8.525390625E-5,0,0,60,1633038,111873,62479,84998,140089,75848,16754592,17158,Tag0,unknown
1610201811877,200,-195,-4.28466796875E-5,0,0,60,1633038,111873,62479,84998,140089,75848,16754592,17158,Tag0,unknown
1610201811895,200,263,5.7788085937500005E-5,0,0,60,1633038,111873,62479,84998,140089,75848,16754592,17158,Tag0,unknown
1610201811911,200,-107,-2.35107421875E-5,0,0,60,1633038,111873,62479,84998,140089,75848,16754592,17158,Tag0,unknown
1610201811929,200,-62,-1.3623046875E-5,0,0,60,1633038,111873,62479,84998,140089,75848,16754592,17158,Tag0,unknown
1610201811946,200,-87,-1.91162109375E-5,0,0,60,1633038,111873,62479,84998,140089,75848,16754592,17158,Tag0,unknown
1610201811956,200,197,4.32861328125E-5,0,0,60,1633038,111873,62479,84998,140089,75848,16754592,17158,Tag0,unknown
1610201811974,200,199,4.3725585937499995E-5,0,0,60,1633038,111873,62479,84998,140089,75848,16754592,17158,Tag0,unknown
1610201811994,200,229,5.03173828125E-5,0,0,60,1633038,111873,62479,84998,140089,75848,16754592,17158,Tag0,unknown
1610201812029,200,-2,-4.39453125E-7,0,0,60,1633038,111873,62479,84998,140089,75848,16754592,17158,Tag0,unknown
1610201812044,200,-44,-9.66796875E-6,0,0,60,1633038,111873,62479,84998,140089,75848,16754592,17158,Tag0,unknown
1610201812054,200,-31,-6.8115234375E-6,0,0,60,1633038,111873,62479,84998,140089,75848,16754592,17158,Tag0,unknown
1610201812073,200,-15,-3.2958984375E-6,0,0,60,1633038,111873,62479,84998,140089,75848,16754592,17158,Tag0,unknown
1610201812083,200,291,6.39404296875E-5,0,0,60,1633038,111873,62479,84998,140089,75848,16754592,17158,Tag0,unknown
1610201812099,200,320,7.03125E-5,0,0,60,1633038,111873,62479,84998,140089,75848,16754592,17158,Tag0,unknown
1610201812111,200,291,6.39404296875E-5,0,0,60,1633038,111873,62479,84998,140089,75848,16754592,17158,Tag0,unknown
1610201812127,200,-23,-5.0537109375E-6,0,0,60,1633038,111873,62479,84998,140089,75848,16754592,17158,Tag0,unknown
1610201812146,200,-51,-1.1206054687499999E-5,0,0,60,1633038,111873,62479,84998,140089,75848,16754592,17158,Tag0,unknown
1610201812161,200,-59,-1.29638671875E-5,0,0,60,1633038,111873,62479,84998,140089,75848,16754592,17158,Tag0,unknown
1610201812188,200,113,2.48291015625E-5,0,0,60,1259224,399251,175916,414248,100764,237980,160352,16774786,Tag0,unknown
1610201812198,200,51,1.1206054687499999E-5,0,0,60,1259224,399251,175916,414248,100764,237980,160352,16774786,Tag0,unknown
1610201812210,200,62,1.3623046875E-5,0,0,60,1259224,399251,175916,414248,100764,237980,160352,16774786,Tag0,unknown
1610201812227,200,69,1.51611328125E-5,0,0,60,1259224,399251,175916,414248,100764,237980,160352,16774786,Tag0,unknown
1610201812244,200,76,1.669921875E-5,0,0,60,1259224,399251,175916,414248,100764,237980,160352,16774786,Tag0,unknown
1610201812261,200,50,1.0986328125E-5,0,0,60,1259224,399251,175916,414248,100764,237980,160352,16774786,Tag0,unknown
1610201812279,200,12,2.63671875E-6,0,0,60,1259224,399251,175916,414248,100764,237980,160352,16774786,Tag0,unknown
1610201812297,200,-376,-8.261718750000001E-5,0,0,60,1259224,399251,175916,414248,100764,237980,160352,16774786,Tag0,unknown
1610201812311,200,-139,-3.0541992187500004E-5,0,0,60,1259224,399251,175916,414248,100764,237980,160352,16774786,Tag0,unknown
1610201812335,200,-181,-3.9770507812500004E-5,0,0,60,1259224,399251,175916,414248,100764,237980,160352,16774786,Tag0,unknown
1610201812345,200,-578,-1.27001953125E-4,0,0,60,1259224,399251,175916,414248,100764,237980,160352,16774786,Tag0,unknown
1610201812361,200,-153,-3.3618164062500004E-5,0,0,60,1259224,399251,175916,414248,100764,237980,160352,16774786,Tag0,unknown
1610201812379,200,-609,-1.338134765625E-4,0,0,60,1259224,399251,175916,414248,100764,237980,160352,16774786,Tag0,unknown
1610201812394,200,-235,-5.16357421875E-5,0,0,60,1259224,399251,175916,414248,100764,237980,160352,16774786,Tag0,unknown
1610201812416,200,-529,-1.162353515625E-4,0,0,60,1259224,399251,175916,414248,100764,237980,160352,16774786,Tag0,unknown
1610201812427,200,-584,-1.2832031250000002E-4,0,0,60,1259224,399251,175916,414248,100764,237980,160352,16774786,Tag0,unknown
1610201812450,200,-243,-5.33935546875E-5,0,0,60,1259224,399251,175916,414248,100764,237980,160352,16774786,Tag0,unknown
1610201812462,200,-529,-1.162353515625E-4,0,0,60,1259224,399251,175916,414248,100764,237980,160352,16774786,Tag0,unknown
1610201812490,200,49,1.07666015625E-5,0,0,60,1259224,399251,175916,414248,100764,237980,160352,16774786,Tag0,unknown
1610201812510,200,-258,-5.6689453125000004E-5,0,0,60,1259224,399251,175916,414248,100764,237980,160352,16774786,Tag0,unknown
1610201812530,200,-706,-1.55126953125E-4,0,0,60,1259224,399251,175916,414248,100764,237980,160352,16774786,Tag0,unknown
1610201812544,200,-679,-1.491943359375E-4,0,0,60,1259224,399251,175916,414248,100764,237980,160352,16774786,Tag0,unknown
1610201812560,200,-459,-1.008544921875E-4,0,0,60,1259224,399251,175916,414248,100764,237980,160352,16774786,Tag0,unknown
1610201812618,200,-205,-4.50439453125E-5,0,0,60,1259224,399251,175916,414248,100764,237980,160352,16774786,Tag0,unknown
1610201812629,200,-181,-3.9770507812500004E-5,0,0,60,1259224,399251,175916,414248,100764,237980,160352,16774786,Tag0,unknown
1610201812646,200,-166,-3.6474609375E-5,0,0,60,1259224,399251,175916,414248,100764,237980,160352,16774786,Tag0,unknown
1610201812672,200,-25,-5.4931640625E-6,0,0,60,1259224,399251,175916,414248,100764,237980,160352,16774786,Tag0,unknown
1610201812682,200,269,5.9106445312499996E-5,0,0,60,1259224,399251,175916,414248,100764,237980,160352,16774786,Tag0,unknown
1610201812694,200,215,4.72412109375E-5,0,0,60,1259224,399251,175916,414248,100764,237980,160352,16774786,Tag0,unknown
1610201812710,200,375,8.23974609375E-5,0,0,60,1259224,399251,175916,414248,100764,237980,160352,16774786,Tag0,unknown
1610201812727,200,373,8.19580078125E-5,0,0,60,1259224,399251,175916,414248,100764,237980,160352,16774786,Tag0,unknown
1610201812747,200,262,5.7568359375E-5,0,0,60,1259224,399251,175916,414248,100764,237980,160352,16774786,Tag0,unknown
1610201812760,200,301,6.613769531250001E-5,0,0,60,1259224,399251,175916,414248,100764,237980,160352,16774786,Tag0,unknown
1610201812785,200,289,6.35009765625E-5,0,0,60,1259224,399251,175916,414248,100764,237980,160352,16774786,Tag0,unknown
1610201812795,200,45,9.8876953125E-6,0,0,60,1259224,399251,175916,414248,100764,237980,160352,16774786,Tag0,unknown
1610201812822,200,43,9.448242187500001E-6,0,0,60,1259224,399251,175916,414248,100764,237980,160352,16774786,Tag0,unknown
1610201812832,200,-329,-7.229003906250001E-5,0,0,60,1259224,399251,175916,414248,100764,237980,160352,16774786,Tag0,unknown
1610201812844,200,-198,-4.3505859375000006E-5,0,0,60,1259224,399251,175916,414248,100764,237980,160352,16774786,Tag0,unknown
1610201812861,200,-338,-7.426757812499999E-5,0,0,60,1259224,399251,175916,414248,100764,237980,160352,16774786,Tag0,unknown
1610201812877,200,-340,-7.470703125E-5,0,0,60,1259224,399251,175916,414248,100764,237980,160352,16774786,Tag0,unknown
1610201812898,200,359,7.88818359375E-5,0,0,60,1259224,399251,175916,414248,100764,237980,160352,16774786,Tag0,unknown
1610201812911,200,377,8.28369140625E-5,0,0,60,1259224,399251,175916,414248,100764,237980,160352,16774786,Tag0,unknown
1610201812921,200,-445,-9.77783203125E-5,0,0,60,1259224,399251,175916,414248,100764,237980,160352,16774786,Tag0,unknown
1610201812936,200,-829,-1.821533203125E-4,0,0,60,1259224,399251,175916,414248,100764,237980,160352,16774786,Tag0,unknown
1610201812946,200,-1113,-2.445556640625E-4,0,0,60,1259224,399251,175916,414248,100764,237980,160352,16774786,Tag0,unknown
1610201812961,200,-2053,-4.5109863281250003E-4,0,0,60,1259224,399251,175916,414248,100764,237980,160352,16774786,Tag0,unknown
1610201812978,200,-1692,-3.7177734375E-4,0,0,60,1259224,399251,175916,414248,100764,237980,160352,16774786,Tag0,unknown
1610201812995,200,-1897,-4.168212890625E-4,0,0,60,1259224,399251,175916,414248,100764,237980,160352,16774786,Tag0,unknown
1610201813011,200,-1403,-3.0827636718750004E-4,0,0,60,1259224,399251,175916,414248,100764,237980,160352,16774786,Tag0,unknown
1610201813028,200,-1282,-2.81689453125E-4,0,0,60,1259224,399251,175916,414248,100764,237980,160352,16774786,Tag0,unknown
1610201813053,200,-227,-4.98779296875E-5,0,0,60,1259224,399251,175916,414248,100764,237980,160352,16774786,Tag0,unknown
1610201813063,200,100,2.197265625E-5,0,0,60,1259224,399251,175916,414248,100764,237980,160352,16774786,Tag0,unknown
1610201813087,200,196,4.306640625E-5,0,0,60,1259224,399251,175916,414248,100764,237980,160352,16774786,Tag0,unknown
1610201813098,200,630,1.38427734375E-4,0,0,60,1259224,399251,175916,414248,100764,237980,160352,16774786,Tag0,unknown
1610201813111,200,937,2.058837890625E-4,0,0,60,1259224,399251,175916,414248,100764,237980,160352,16774786,Tag0,unknown
1610201813129,200,1106,2.43017578125E-4,0,0,60,1259224,399251,175916,414248,100764,237980,160352,16774786,Tag0,unknown
1610201813146,200,853,1.874267578125E-4,0,0,60,845939,214951,16770076,23240,27782,16754159,8959,7320,Tag0,unknown
1610201813165,200,427,9.382324218750001E-5,0,0,60,845939,214951,16770076,23240,27782,16754159,8959,7320,Tag0,unknown
1610201813178,200,771,1.694091796875E-4,0,0,60,845939,214951,16770076,23240,27782,16754159,8959,7320,Tag0,unknown
1610201813200,200,320,7.03125E-5,0,0,60,845939,214951,16770076,23240,27782,16754159,8959,7320,Tag0,unknown
1610201813211,200,268,5.8886718750000006E-5,0,0,60,845939,214951,16770076,23240,27782,16754159,8959,7320,Tag0,unknown
1610201813236,200,-684,-1.5029296875E-4,0,0,60,845939,214951,16770076,23240,27782,16754159,8959,7320,Tag0,unknown
1610201813246,200,-851,-1.869873046875E-4,0,0,60,845939,214951,16770076,23240,27782,16754159,8959,7320,Tag0,unknown
1610201813261,200,-885,-1.944580078125E-4,0,0,60,845939,214951,16770076,23240,27782,16754159,8959,7320,Tag0,unknown
1610201813285,200,-529,-1.162353515625E-4,0,0,60,845939,214951,16770076,23240,27782,16754159,8959,7320,Tag0,unknown
1610201813295,200,-140,-3.076171875E-5,0,0,60,845939,214951,16770076,23240,27782,16754159,8959,7320,Tag0,unknown
1610201813320,200,-567,-1.245849609375E-4,0,0,60,845939,214951,16770076,23240,27782,16754159,8959,7320,Tag0,unknown
1610201813330,200,-377,-8.28369140625E-5,0,0,60,845939,214951,16770076,23240,27782,16754159,8959,7320,Tag0,unknown
1610201813344,200,-40,-8.7890625E-6,0,0,60,845939,214951,16770076,23240,27782,16754159,8959,7320,Tag0,unknown
1610201813361,200,173,3.80126953125E-5,0,0,60,845939,214951,16770076,23240,27782,16754159,8959,7320,Tag0,unknown
1610201813379,200,596,1.3095703125E-4,0,0,60,845939,214951,16770076,23240,27782,16754159,8959,7320,Tag0,unknown
1610201813395,200,868,1.9072265625E-4,0,0,60,845939,214951,16770076,23240,27782,16754159,8959,7320,Tag0,unknown
1610201813411,200,889,1.953369140625E-4,0,0,60,845939,214951,16770076,23240,27782,16754159,8959,7320,Tag0,unknown
1610201813428,200,1367,3.003662109375E-4,0,0,60,845939,214951,16770076,23240,27782,16754159,8959,7320,Tag0,unknown
1610201813456,200,1540,3.3837890625E-4,0,0,60,845939,214951,16770076,23240,27782,16754159,8959,7320,Tag0,unknown
1610201813466,200,994,2.1840820312500002E-4,0,0,60,845939,214951,16770076,23240,27782,16754159,8959,7320,Tag0,unknown
1610201813478,200,903,1.9841308593750002E-4,0,0,60,845939,214951,16770076,23240,27782,16754159,8959,7320,Tag0,unknown
1610201813500,200,526,1.1557617187500001E-4,0,0,60,845939,214951,16770076,23240,27782,16754159,8959,7320,Tag0,unknown
1610201813511,200,517,1.135986328125E-4,0,0,60,845939,214951,16770076,23240,27782,16754159,8959,7320,Tag0,unknown
1610201813533,200,344,7.558593750000001E-5,0,0,60,845939,214951,16770076,23240,27782,16754159,8959,7320,Tag0,unknown
1610201813544,200,329,7.229003906250001E-5,0,0,60,845939,214951,16770076,23240,27782,16754159,8959,7320,Tag0,unknown
1610201813572,200,-85,-1.86767578125E-5,0,0,60,845939,214951,16770076,23240,27782,16754159,8959,7320,Tag0,unknown
1610201813582,200,45,9.8876953125E-6,0,0,60,845939,214951,16770076,23240,27782,16754159,8959,7320,Tag0,unknown
1610201813595,200,279,6.13037109375E-5,0,0,60,845939,214951,16770076,23240,27782,16754159,8959,7320,Tag0,unknown
1610201813611,200,307,6.74560546875E-5,0,0,60,845939,214951,16770076,23240,27782,16754159,8959,7320,Tag0,unknown
1610201813627,200,311,6.833496093750001E-5,0,0,60,845939,214951,16770076,23240,27782,16754159,8959,7320,Tag0,unknown
1610201813637,200,44,9.66796875E-6,0,0,60,845939,214951,16770076,23240,27782,16754159,8959,7320,Tag0,unknown
1610201813649,200,-27,-5.9326171875000005E-6,0,0,60,845939,214951,16770076,23240,27782,16754159,8959,7320,Tag0,unknown
1610201813662,200,-59,-1.29638671875E-5,0,0,60,845939,214951,16770076,23240,27782,16754159,8959,7320,Tag0,unknown
1610201813682,200,64,1.40625E-5,0,0,60,845939,214951,16770076,23240,27782,16754159,8959,7320,Tag0,unknown
1610201813693,200,89,1.95556640625E-5,0,0,60,845939,214951,16770076,23240,27782,16754159,8959,7320,Tag0,unknown
1610201813721,200,27,5.9326171875000005E-6,0,0,60,845939,214951,16770076,23240,27782,16754159,8959,7320,Tag0,unknown
1610201813731,200,1791,3.935302734375E-4,0,0,60,845939,214951,16770076,23240,27782,16754159,8959,7320,Tag0,unknown
1610201813755,200,1791,3.935302734375E-4,0,0,60,845939,214951,16770076,23240,27782,16754159,8959,7320,Tag0,unknown
1610201813766,200,1791,3.935302734375E-4,0,0,60,845939,214951,16770076,23240,27782,16754159,8959,7320,Tag0,unknown
1610201813778,200,1401,3.0783691406250003E-4,0,0,60,845939,214951,16770076,23240,27782,16754159,8959,7320,Tag0,unknown
1610201813799,200,764,1.6787109375E-4,0,0,60,845939,214951,16770076,23240,27782,16754159,8959,7320,Tag0,unknown
1610201813812,200,731,1.6062011718749998E-4,0,0,60,845939,214951,16770076,23240,27782,16754159,8959,7320,Tag0,unknown
1610201813833,200,585,1.285400390625E-4,0,0,60,845939,214951,16770076,23240,27782,16754159,8959,7320,Tag0,unknown
1610201813844,200,-2048,-4.5E-4,0,0,60,845939,214951,16770076,23240,27782,16754159,8959,7320,Tag0,unknown
1610201813854,200,504,1.107421875E-4,0,0,60,845939,214951,16770076,23240,27782,16754159,8959,7320,Tag0,unknown
1610201813897,200,429,9.42626953125E-5,0,0,60,845939,214951,16770076,23240,27782,16754159,8959,7320,Tag0,unknown
1610201813911,200,407,8.94287109375E-5,0,0,60,845939,214951,16770076,23240,27782,16754159,8959,7320,Tag0,unknown
1610201813921,200,1847,4.0583496093749997E-4,0,0,60,845939,214951,16770076,23240,27782,16754159,8959,7320,Tag0,unknown
1610201813947,200,1064,2.337890625E-4,0,0,60,845939,214951,16770076,23240,27782,16754159,8959,7320,Tag0,unknown
1610201813962,200,-1747,-3.838623046875E-4,0,0,60,845939,214951,16770076,23240,27782,16754159,8959,7320,Tag0,unknown
1610201813981,200,-2048,-4.5E-4,0,0,60,845939,214951,16770076,23240,27782,16754159,8959,7320,Tag0,unknown
1610201813994,200,-2048,-4.5E-4,0,0,60,845939,214951,16770076,23240,27782,16754159,8959,7320,Tag0,unknown
1610201814011,200,-2048,-4.5E-4,0,0,60,845939,214951,16770076,23240,27782,16754159,8959,7320,Tag0,unknown
1610201814029,200,1791,3.935302734375E-4,0,0,60,845939,214951,16770076,23240,27782,16754159,8959,7320,Tag0,unknown
1610201814044,200,1791,3.935302734375E-4,0,0,60,845939,214951,16770076,23240,27782,16754159,8959,7320,Tag0,unknown
1610201814067,200,1899,4.172607421875E-4,0,0,60,845939,214951,16770076,23240,27782,16754159,8959,7320,Tag0,unknown
1610201814078,200,1835,4.031982421875E-4,0,0,60,845939,214951,16770076,23240,27782,16754159,8959,7320,Tag0,unknown
1610201814104,200,945,2.076416015625E-4,0,0,60,845939,214951,16770076,23240,27782,16754159,8959,7320,Tag0,unknown
1610201814114,200,716,1.5732421875E-4,0,0,60,845939,214951,16770076,23240,27782,16754159,8959,7320,Tag0,unknown
1610201814128,200,548,1.2041015624999999E-4,0,0,60,845939,214951,16770076,23240,27782,16754159,8959,7320,Tag0,unknown
1610201814146,51,514,1.12939453125E-4,0,0,60,31794,16773928,8642,5097,7945,4960,21104,4047,Tag0,unknown
1610201814164,51,361,7.93212890625E-5,0,0,60,31794,16773928,8642,5097,7945,4960,21104,4047,Tag0,unknown
1610201814180,51,1543,3.390380859375E-4,0,0,60,31794,16773928,8642,5097,7945,4960,21104,4047,Tag0,unknown
1610201814195,51,-2048,-4.5E-4,0,0,60,31794,16773928,8642,5097,7945,4960,21104,4047,Tag0,unknown
1610201814211,51,-2048,-4.5E-4,0,0,60,31794,16773928,8642,5097,7945,4960,21104,4047,Tag0,unknown
1610201814247,51,-1748,-3.8408203125000004E-4,0,0,60,31794,16773928,8642,5097,7945,4960,21104,4047,Tag0,unknown
1610201814261,51,-1683,-3.697998046875E-4,0,0,60,31794,16773928,8642,5097,7945,4960,21104,4047,Tag0,unknown
1610201814271,51,1791,3.935302734375E-4,0,0,60,31794,16773928,8642,5097,7945,4960,21104,4047,Tag0,unknown
1610201814283,51,1791,3.935302734375E-4,0,0,60,31794,16773928,8642,5097,7945,4960,21104,4047,Tag0,unknown
1610201814295,51,1791,3.935302734375E-4,0,0,60,31794,16773928,8642,5097,7945,4960,21104,4047,Tag0,unknown
1610201814321,51,716,1.5732421875E-4,0,0,60,31794,16773928,8642,5097,7945,4960,21104,4047,Tag0,unknown
1610201814331,51,843,1.852294921875E-4,0,0,60,31794,16773928,8642,5097,7945,4960,21104,4047,Tag0,unknown
1610201814362,51,621,1.364501953125E-4,0,0,60,31794,16773928,8642,5097,7945,4960,21104,4047,Tag0,unknown
1610201814379,51,601,1.3205566406249998E-4,0,0,60,31794,16773928,8642,5097,7945,4960,21104,4047,Tag0,unknown
1610201814389,51,361,7.93212890625E-5,0,0,60,31794,16773928,8642,5097,7945,4960,21104,4047,Tag0,unknown
1610201814399,51,283,6.218261718750001E-5,0,0,60,31794,16773928,8642,5097,7945,4960,21104,4047,Tag0,unknown
1610201814411,51,277,6.0864257812500005E-5,0,0,60,31794,16773928,8642,5097,7945,4960,21104,4047,Tag0,unknown
1610201814430,51,-51,-1.1206054687499999E-5,0,0,60,31794,16773928,8642,5097,7945,4960,21104,4047,Tag0,unknown
1610201814445,51,-55,-1.20849609375E-5,0,0,60,31794,16773928,8642,5097,7945,4960,21104,4047,Tag0,unknown
1610201814455,51,-120,-2.63671875E-5,0,0,60,31794,16773928,8642,5097,7945,4960,21104,4047,Tag0,unknown
1610201814471,51,122,2.6806640625E-5,0,0,60,31794,16773928,8642,5097,7945,4960,21104,4047,Tag0,unknown
1610201814481,51,113,2.48291015625E-5,0,0,60,31794,16773928,8642,5097,7945,4960,21104,4047,Tag0,unknown
1610201814495,51,104,2.28515625E-5,0,0,60,31794,16773928,8642,5097,7945,4960,21104,4047,Tag0,unknown
1610201814516,51,87,1.91162109375E-5,0,0,60,31794,16773928,8642,5097,7945,4960,21104,4047,Tag0,unknown
1610201814528,51,87,1.91162109375E-5,0,0,60,31794,16773928,8642,5097,7945,4960,21104,4047,Tag0,unknown
1610201814551,51,85,1.86767578125E-5,0,0,60,31794,16773928,8642,5097,7945,4960,21104,4047,Tag0,unknown
1610201814561,51,-2048,-4.5E-4,0,0,60,31794,16773928,8642,5097,7945,4960,21104,4047,Tag0,unknown
1610201814571,51,-2048,-4.5E-4,0,0,60,31794,16773928,8642,5097,7945,4960,21104,4047,Tag0,unknown
1610201814588,51,-2048,-4.5E-4,0,0,60,31794,16773928,8642,5097,7945,4960,21104,4047,Tag0,unknown
1610201814598,51,-2055,-4.515380859375E-4,0,0,60,31794,16773928,8642,5097,7945,4960,21104,4047,Tag0,unknown
1610201814625,51,-1798,-3.95068359375E-4,0,0,60,31794,16773928,8642,5097,7945,4960,21104,4047,Tag0,unknown
1610201814645,51,-1483,-3.258544921875E-4,0,0,60,31794,16773928,8642,5097,7945,4960,21104,4047,Tag0,unknown
1610201814655,51,-643,-1.412841796875E-4,0,0,60,31794,16773928,8642,5097,7945,4960,21104,4047,Tag0,unknown
1610201814665,51,-796,-1.7490234374999998E-4,0,0,60,31794,16773928,8642,5097,7945,4960,21104,4047,Tag0,unknown
1610201814678,51,-777,-1.707275390625E-4,0,0,60,31794,16773928,8642,5097,7945,4960,21104,4047,Tag0,unknown
1610201814688,51,-405,-8.89892578125E-5,0,0,60,31794,16773928,8642,5097,7945,4960,21104,4047,Tag0,unknown
1610201814712,51,-569,-1.250244140625E-4,0,0,60,31794,16773928,8642,5097,7945,4960,21104,4047,Tag0,unknown
1610201814722,51,1791,3.935302734375E-4,0,0,60,31794,16773928,8642,5097,7945,4960,21104,4047,Tag0,unknown
1610201814735,51,1672,3.673828125E-4,0,0,60,31794,16773928,8642,5097,7945,4960,21104,4047,Tag0,unknown
1610201814745,51,1559,3.4255371093750006E-4,0,0,60,31794,16773928,8642,5097,7945,4960,21104,4047,Tag0,unknown
1610201814761,51,1005,2.208251953125E-4,0,0,60,31794,16773928,8642,5097,7945,4960,21104,4047,Tag0,unknown
1610201814777,51,802,1.7622070312500003E-4,0,0,60,31794,16773928,8642,5097,7945,4960,21104,4047,Tag0,unknown
1610201814805,51,536,1.1777343750000001E-4,0,0,60,31794,16773928,8642,5097,7945,4960,21104,4047,Tag0,unknown
1610201814815,51,185,4.06494140625E-5,0,0,60,31794,16773928,8642,5097,7945,4960,21104,4047,Tag0,unknown
1610201814847,51,356,7.822265625E-5,0,0,60,31794,16773928,8642,5097,7945,4960,21104,4047,Tag0,unknown
1610201814861,51,344,7.558593750000001E-5,0,0,60,31794,16773928,8642,5097,7945,4960,21104,4047,Tag0,unknown
1610201814871,51,-71,-1.56005859375E-5,0,0,60,31794,16773928,8642,5097,7945,4960,21104,4047,Tag0,unknown
1610201814883,51,-77,-1.69189453125E-5,0,0,60,31794,16773928,8642,5097,7945,4960,21104,4047,Tag0,unknown
1610201814895,51,-76,-1.669921875E-5,0,0,60,31794,16773928,8642,5097,7945,4960,21104,4047,Tag0,unknown
1610201814922,51,-119,-2.6147460937500004E-5,0,0,60,31794,16773928,8642,5097,7945,4960,21104,4047,Tag0,unknown
1610201814932,51,123,2.70263671875E-5,0,0,60,31794,16773928,8642,5097,7945,4960,21104,4047,Tag0,unknown
1610201814946,51,112,2.4609375E-5,0,0,60,31794,16773928,8642,5097,7945,4960,21104,4047,Tag0,unknown
1610201814961,51,92,2.021484375E-5,0,0,60,31794,16773928,8642,5097,7945,4960,21104,4047,Tag0,unknown
1610201814978,51,89,1.95556640625E-5,0,0,60,31794,16773928,8642,5097,7945,4960,21104,4047,Tag0,unknown
1610201815000,51,76,1.669921875E-5,0,0,60,31794,16773928,8642,5097,7945,4960,21104,4047,Tag0,unknown
1610201815012,51,76,1.669921875E-5,0,0,60,31794,16773928,8642,5097,7945,4960,21104,4047,Tag0,unknown
1610201815034,51,75,1.64794921875E-5,0,0,60,31794,16773928,8642,5097,7945,4960,21104,4047,Tag0,unknown
1610201815047,51,73,1.6040039062500002E-5,0,0,60,31794,16773928,8642,5097,7945,4960,21104,4047,Tag0,unknown
1610201815057,51,71,1.56005859375E-5,0,0,60,31794,16773928,8642,5097,7945,4960,21104,4047,Tag0,unknown
1610201815080,51,72,1.58203125E-5,0,0,60,31794,16773928,8642,5097,7945,4960,21104,4047,Tag0,unknown
1610201815095,51,71,1.56005859375E-5,0,0,60,31794,16773928,8642,5097,7945,4960,21104,4047,Tag0,unknown
1610201815115,51,69,1.51611328125E-5,0,0,60,31794,16773928,8642,5097,7945,4960,21104,4047,Tag0,unknown
1610201815132,51,70,1.5380859375E-5,0,0,60,31794,16773928,8642,5097,7945,4960,21104,4047,Tag0,unknown
1610201815142,51,69,1.51611328125E-5,0,0,60,21237,11881,6300,16597,7653,8041,11770,6204,Tag0,unknown
1610201815171,51,69,1.51611328125E-5,0,0,60,21237,11881,6300,16597,7653,8041,11770,6204,Tag0,unknown
1610201815181,51,68,1.4941406250000001E-5,0,0,60,21237,11881,6300,16597,7653,8041,11770,6204,Tag0,unknown
1610201815195,51,59,1.29638671875E-5,0,0,60,21237,11881,6300,16597,7653,8041,11770,6204,Tag0,unknown
1610201815225,51,67,1.4721679687500002E-5,0,0,60,21237,11881,6300,16597,7653,8041,11770,6204,Tag0,unknown
1610201815245,51,60,1.318359375E-5,0,0,60,21237,11881,6300,16597,7653,8041,11770,6204,Tag0,unknown
1610201815255,51,17,3.7353515625000003E-6,0,0,60,21237,11881,6300,16597,7653,8041,11770,6204,Tag0,unknown
1610201815278,51,45,9.8876953125E-6,0,0,60,21237,11881,6300,16597,7653,8041,11770,6204,Tag0,unknown
1610201815298,51,-277,-6.0864257812500005E-5,0,0,60,21237,11881,6300,16597,7653,8041,11770,6204,Tag0,unknown
1610201815312,51,23,5.0537109375E-6,0,0,60,21237,11881,6300,16597,7653,8041,11770,6204,Tag0,unknown
1610201815322,51,1,2.197265625E-7,0,0,60,21237,11881,6300,16597,7653,8041,11770,6204,Tag0,unknown
1610201815334,51,18,3.955078125E-6,0,0,60,21237,11881,6300,16597,7653,8041,11770,6204,Tag0,unknown
1610201815345,51,-278,-6.108398437500001E-5,0,0,60,21237,11881,6300,16597,7653,8041,11770,6204,Tag0,unknown
1610201815372,51,-338,-7.426757812499999E-5,0,0,60,21237,11881,6300,16597,7653,8041,11770,6204,Tag0,unknown
1610201815382,51,-348,-7.646484375E-5,0,0,60,21237,11881,6300,16597,7653,8041,11770,6204,Tag0,unknown
1610201815395,51,97,2.13134765625E-5,0,0,60,21237,11881,6300,16597,7653,8041,11770,6204,Tag0,unknown
1610201815413,51,85,1.86767578125E-5,0,0,60,21237,11881,6300,16597,7653,8041,11770,6204,Tag0,unknown
1610201815447,51,-289,-6.35009765625E-5,0,0,60,21237,11881,6300,16597,7653,8041,11770,6204,Tag0,unknown
1610201815463,51,-293,-6.43798828125E-5,0,0,60,21237,11881,6300,16597,7653,8041,11770,6204,Tag0,unknown
1610201815473,51,-148,-3.251953125E-5,0,0,60,21237,11881,6300,16597,7653,8041,11770,6204,Tag0,unknown
1610201815485,51,-373,-8.19580078125E-5,0,0,60,21237,11881,6300,16597,7653,8041,11770,6204,Tag0,unknown
1610201815495,51,-162,-3.5595703125E-5,0,0,60,21237,11881,6300,16597,7653,8041,11770,6204,Tag0,unknown
1610201815512,51,-375,-8.23974609375E-5,0,0,60,21237,11881,6300,16597,7653,8041,11770,6204,Tag0,unknown
1610201815529,51,-183,-4.02099609375E-5,0,0,60,21237,11881,6300,16597,7653,8041,11770,6204,Tag0,unknown
1610201815555,51,-73,-1.6040039062500002E-5,0,0,60,21237,11881,6300,16597,7653,8041,11770,6204,Tag0,unknown
1610201815565,51,-103,-2.26318359375E-5,0,0,60,21237,11881,6300,16597,7653,8041,11770,6204,Tag0,unknown
1610201815597,51,-109,-2.39501953125E-5,0,0,60,21237,11881,6300,16597,7653,8041,11770,6204,Tag0,unknown
1610201815617,51,-89,-1.95556640625E-5,0,0,60,21237,11881,6300,16597,7653,8041,11770,6204,Tag0,unknown
1610201815627,51,51,1.1206054687499999E-5,0,0,60,21237,11881,6300,16597,7653,8041,11770,6204,Tag0,unknown
1610201815647,51,37,8.1298828125E-6,0,0,60,21237,11881,6300,16597,7653,8041,11770,6204,Tag0,unknown
1610201815657,51,25,5.4931640625E-6,0,0,60,21237,11881,6300,16597,7653,8041,11770,6204,Tag0,unknown
1610201815675,51,32,7.03125E-6,0,0,60,21237,11881,6300,16597,7653,8041,11770,6204,Tag0,unknown
1610201815695,51,6,1.318359375E-6,0,0,60,21237,11881,6300,16597,7653,8041,11770,6204,Tag0,unknown
1610201815712,51,39,8.5693359375E-6,0,0,60,21237,11881,6300,16597,7653,8041,11770,6204,Tag0,unknown
1610201815731,51,-308,-6.767578125E-5,0,0,60,21237,11881,6300,16597,7653,8041,11770,6204,Tag0,unknown
1610201815752,51,41,9.008789062499999E-6,0,0,60,21237,11881,6300,16597,7653,8041,11770,6204,Tag0,unknown
1610201815779,51,27,5.9326171875000005E-6,0,0,60,21237,11881,6300,16597,7653,8041,11770,6204,Tag0,unknown
1610201815793,51,21,4.614257812500001E-6,0,0,60,21237,11881,6300,16597,7653,8041,11770,6204,Tag0,unknown
1610201815821,51,-275,-6.04248046875E-5,0,0,60,21237,11881,6300,16597,7653,8041,11770,6204,Tag0,unknown
1610201815831,51,-301,-6.613769531250001E-5,0,0,60,21237,11881,6300,16597,7653,8041,11770,6204,Tag0,unknown
1610201815855,51,-349,-7.668457031250001E-5,0,0,60,21237,11881,6300,16597,7653,8041,11770,6204,Tag0,unknown
1610201815865,51,-263,-5.7788085937500005E-5,0,0,60,21237,11881,6300,16597,7653,8041,11770,6204,Tag0,unknown
1610201815879,51,-279,-6.13037109375E-5,0,0,60,21237,11881,6300,16597,7653,8041,11770,6204,Tag0,unknown
1610201815897,51,-299,-6.56982421875E-5,0,0,60,21237,11881,6300,16597,7653,8041,11770,6204,Tag0,unknown
1610201815911,51,-321,-7.053222656250001E-5,0,0,60,21237,11881,6300,16597,7653,8041,11770,6204,Tag0,unknown
1610201815930,51,50,1.0986328125E-5,0,0,60,21237,11881,6300,16597,7653,8041,11770,6204,Tag0,unknown
1610201815945,51,83,1.82373046875E-5,0,0,60,21237,11881,6300,16597,7653,8041,11770,6204,Tag0,unknown
1610201815955,51,-287,-6.306152343750001E-5,0,0,60,21237,11881,6300,16597,7653,8041,11770,6204,Tag0,unknown
1610201815972,51,-289,-6.35009765625E-5,0,0,60,21237,11881,6300,16597,7653,8041,11770,6204,Tag0,unknown
1610201815982,51,-339,-7.448730468750001E-5,0,0,60,21237,11881,6300,16597,7653,8041,11770,6204,Tag0,unknown
1610201815994,51,-125,-2.74658203125E-5,0,0,60,21237,11881,6300,16597,7653,8041,11770,6204,Tag0,unknown
1610201816012,51,13,2.8564453125E-6,0,0,60,21237,11881,6300,16597,7653,8041,11770,6204,Tag0,unknown
1610201816047,51,-59,-1.29638671875E-5,0,0,60,21237,11881,6300,16597,7653,8041,11770,6204,Tag0,unknown
1610201816061,51,290,6.3720703125E-5,0,0,60,21237,11881,6300,16597,7653,8041,11770,6204,Tag0,unknown
1610201816071,51,-101,-2.2192382812500002E-5,0,0,60,21237,11881,6300,16597,7653,8041,11770,6204,Tag0,unknown
1610201816092,51,-109,-2.39501953125E-5,0,0,60,21237,11881,6300,16597,7653,8041,11770,6204,Tag0,unknown
1610201816113,51,-77,-1.69189453125E-5,0,0,60,21237,11881,6300,16597,7653,8041,11770,6204,Tag0,unknown
1610201816123,51,325,7.14111328125E-5,0,0,60,21237,11881,6300,16597,7653,8041,11770,6204,Tag0,unknown
1610201816133,0,-78,-1.7138671875E-5,0,0,60,224088,389621,87428,28401,16746760,25092,31205,14862,Tag0,unknown
1610201816158,0,-241,-5.29541015625E-5,0,0,60,224088,389621,87428,28401,16746760,25092,31205,14862,Tag0,unknown
1610201816178,0,-239,-5.2514648437499996E-5,0,0,60,224088,389621,87428,28401,16746760,25092,31205,14862,Tag0,unknown
1610201816188,0,-163,-3.5815429687500006E-5,0,0,60,224088,389621,87428,28401,16746760,25092,31205,14862,Tag0,unknown
1610201816199,0,-265,-5.82275390625E-5,0,0,60,224088,389621,87428,28401,16746760,25092,31205,14862,Tag0,unknown
1610201816211,0,7,1.5380859375E-6,0,0,60,224088,389621,87428,28401,16746760,25092,31205,14862,Tag0,unknown
1610201816274,0,-293,-6.43798828125E-5,0,0,60,224088,389621,87428,28401,16746760,25092,31205,14862,Tag0,unknown
1610201816295,0,-259,-5.69091796875E-5,0,0,60,224088,389621,87428,28401,16746760,25092,31205,14862,Tag0,unknown
1610201816305,0,331,7.272949218750001E-5,0,0,60,224088,389621,87428,28401,16746760,25092,31205,14862,Tag0,unknown
1610201816326,0,264,5.80078125E-5,0,0,60,224088,389621,87428,28401,16746760,25092,31205,14862,Tag0,unknown
1610201816345,0,-9,-1.9775390625E-6,0,0,60,224088,389621,87428,28401,16746760,25092,31205,14862,Tag0,unknown
1610201816355,0,5,1.0986328125E-6,0,0,60,224088,389621,87428,28401,16746760,25092,31205,14862,Tag0,unknown
1610201816365,0,-317,-6.96533203125E-5,0,0,60,224088,389621,87428,28401,16746760,25092,31205,14862,Tag0,unknown
1610201816392,0,-140,-3.076171875E-5,0,0,60,224088,389621,87428,28401,16746760,25092,31205,14862,Tag0,unknown
1610201816411,0,-564,-1.2392578125E-4,0,0,60,224088,389621,87428,28401,16746760,25092,31205,14862,Tag0,unknown
1610201816421,0,-597,-1.3117675781250003E-4,0,0,60,224088,389621,87428,28401,16746760,25092,31205,14862,Tag0,unknown
1610201816444,0,-151,-3.31787109375E-5,0,0,60,224088,389621,87428,28401,16746760,25092,31205,14862,Tag0,unknown
1610201816454,0,-397,-8.72314453125E-5,0,0,60,224088,389621,87428,28401,16746760,25092,31205,14862,Tag0,unknown
1610201816474,0,-585,-1.285400390625E-4,0,0,60,224088,389621,87428,28401,16746760,25092,31205,14862,Tag0,unknown
1610201816484,0,-370,-8.1298828125E-5,0,0,60,224088,389621,87428,28401,16746760,25092,31205,14862,Tag0,unknown
1610201816502,0,-197,-4.32861328125E-5,0,0,60,224088,389621,87428,28401,16746760,25092,31205,14862,Tag0,unknown
1610201816513,0,-193,-4.2407226562500005E-5,0,0,60,224088,389621,87428,28401,16746760,25092,31205,14862,Tag0,unknown
1610201816528,0,230,5.0537109375E-5,0,0,60,224088,389621,87428,28401,16746760,25092,31205,14862,Tag0,unknown
1610201816544,0,797,1.751220703125E-4,0,0,60,224088,389621,87428,28401,16746760,25092,31205,14862,Tag0,unknown
1610201816562,0,450,9.8876953125E-5,0,0,60,224088,389621,87428,28401,16746760,25092,31205,14862,Tag0,unknown
1610201816579,0,230,5.0537109375E-5,0,0,60,224088,389621,87428,28401,16746760,25092,31205,14862,Tag0,unknown
1610201816595,0,194,4.2626953125E-5,0,0,60,224088,389621,87428,28401,16746760,25092,31205,14862,Tag0,unknown
1610201816605,0,-452,-9.931640625E-5,0,0,60,224088,389621,87428,28401,16746760,25092,31205,14862,Tag0,unknown
1610201816616,0,-555,-1.219482421875E-4,0,0,60,224088,389621,87428,28401,16746760,25092,31205,14862,Tag0,unknown
1610201816628,0,-547,-1.201904296875E-4,0,0,60,224088,389621,87428,28401,16746760,25092,31205,14862,Tag0,unknown
1610201816654,0,-325,-7.14111328125E-5,0,0,60,224088,389621,87428,28401,16746760,25092,31205,14862,Tag0,unknown
1610201816664,0,184,4.04296875E-5,0,0,60,224088,389621,87428,28401,16746760,25092,31205,14862,Tag0,unknown
1610201816679,0,481,1.056884765625E-4,0,0,60,224088,389621,87428,28401,16746760,25092,31205,14862,Tag0,unknown
1610201816696,0,634,1.39306640625E-4,0,0,60,224088,389621,87428,28401,16746760,25092,31205,14862,Tag0,unknown
1610201816711,0,504,1.107421875E-4,0,0,60,224088,389621,87428,28401,16746760,25092,31205,14862,Tag0,unknown
1610201816729,0,-145,-3.18603515625E-5,0,0,60,224088,389621,87428,28401,16746760,25092,31205,14862,Tag0,unknown
1610201816744,0,-217,-4.76806640625E-5,0,0,60,224088,389621,87428,28401,16746760,25092,31205,14862,Tag0,unknown
1610201816762,0,-372,-8.173828125E-5,0,0,60,224088,389621,87428,28401,16746760,25092,31205,14862,Tag0,unknown
1610201816778,0,11,2.4169921875E-6,0,0,60,224088,389621,87428,28401,16746760,25092,31205,14862,Tag0,unknown
1610201816799,0,5,1.0986328125E-6,0,0,60,224088,389621,87428,28401,16746760,25092,31205,14862,Tag0,unknown
1610201816811,0,-375,-8.23974609375E-5,0,0,60,224088,389621,87428,28401,16746760,25092,31205,14862,Tag0,unknown
1610201816821,0,-57,-1.2524414062500001E-5,0,0,60,224088,389621,87428,28401,16746760,25092,31205,14862,Tag0,unknown
1610201816839,0,112,2.4609375E-5,0,0,60,224088,389621,87428,28401,16746760,25092,31205,14862,Tag0,unknown
1610201816849,0,-57,-1.2524414062500001E-5,0,0,60,224088,389621,87428,28401,16746760,25092,31205,14862,Tag0,unknown
1610201816861,0,-16,-3.515625E-6,0,0,60,224088,389621,87428,28401,16746760,25092,31205,14862,Tag0,unknown
1610201816878,0,-133,-2.92236328125E-5,0,0,60,224088,389621,87428,28401,16746760,25092,31205,14862,Tag0,unknown
1610201816897,0,201,4.41650390625E-5,0,0,60,224088,389621,87428,28401,16746760,25092,31205,14862,Tag0,unknown
1610201816911,0,-497,-1.0920410156250001E-4,0,0,60,224088,389621,87428,28401,16746760,25092,31205,14862,Tag0,unknown
1610201816948,0,-120,-2.63671875E-5,0,0,60,224088,389621,87428,28401,16746760,25092,31205,14862,Tag0,unknown
1610201816962,0,-332,-7.294921875E-5,0,0,60,224088,389621,87428,28401,16746760,25092,31205,14862,Tag0,unknown
1610201816972,0,-93,-2.04345703125E-5,0,0,60,224088,389621,87428,28401,16746760,25092,31205,14862,Tag0,unknown
1610201816985,0,277,6.0864257812500005E-5,0,0,60,224088,389621,87428,28401,16746760,25092,31205,14862,Tag0,unknown
1610201816995,0,147,3.22998046875E-5,0,0,60,224088,389621,87428,28401,16746760,25092,31205,14862,Tag0,unknown
1610201817012,0,332,7.294921875E-5,0,0,60,224088,389621,87428,28401,16746760,25092,31205,14862,Tag0,unknown
1610201817035,0,97,2.13134765625E-5,0,0,60,224088,389621,87428,28401,16746760,25092,31205,14862,Tag0,unknown
1610201817046,0,115,2.52685546875E-5,0,0,60,224088,389621,87428,28401,16746760,25092,31205,14862,Tag0,unknown
1610201817063,0,-301,-6.613769531250001E-5,0,0,60,224088,389621,87428,28401,16746760,25092,31205,14862,Tag0,unknown
1610201817079,0,115,2.52685546875E-5,0,0,60,224088,389621,87428,28401,16746760,25092,31205,14862,Tag0,unknown
1610201817095,0,-324,-7.119140625E-5,0,0,60,224088,389621,87428,28401,16746760,25092,31205,14862,Tag0,unknown
1610201817131,0,-268,-5.8886718750000006E-5,0,0,60,1600409,1313416,401427,400196,390700,369634,47518,162158,Tag0,unknown
1610201817149,0,-317,-6.96533203125E-5,0,0,60,1600409,1313416,401427,400196,390700,369634,47518,162158,Tag0,unknown
1610201817163,0,4,8.7890625E-7,0,0,60,1600409,1313416,401427,400196,390700,369634,47518,162158,Tag0,unknown
1610201817179,0,-9,-1.9775390625E-6,0,0,60,1600409,1313416,401427,400196,390700,369634,47518,162158,Tag0,unknown
1610201817195,0,-102,-2.2412109374999998E-5,0,0,60,1600409,1313416,401427,400196,390700,369634,47518,162158,Tag0,unknown
1610201817213,0,-353,-7.75634765625E-5,0,0,60,1600409,1313416,401427,400196,390700,369634,47518,162158,Tag0,unknown
1610201817229,0,-359,-7.88818359375E-5,0,0,60,1600409,1313416,401427,400196,390700,369634,47518,162158,Tag0,unknown
1610201817252,0,57,1.2524414062500001E-5,0,0,60,1600409,1313416,401427,400196,390700,369634,47518,162158,Tag0,unknown
1610201817262,0,70,1.5380859375E-5,0,0,60,1600409,1313416,401427,400196,390700,369634,47518,162158,Tag0,unknown
1610201817272,0,-116,-2.548828125E-5,0,0,60,1600409,1313416,401427,400196,390700,369634,47518,162158,Tag0,unknown
1610201817288,0,-261,-5.73486328125E-5,0,0,60,1600409,1313416,401427,400196,390700,369634,47518,162158,Tag0,unknown
1610201817298,0,-265,-5.82275390625E-5,0,0,60,1600409,1313416,401427,400196,390700,369634,47518,162158,Tag0,unknown
1610201817322,0,-322,-7.0751953125E-5,0,0,60,1600409,1313416,401427,400196,390700,369634,47518,162158,Tag0,unknown
1610201817332,0,-325,-7.14111328125E-5,0,0,60,1600409,1313416,401427,400196,390700,369634,47518,162158,Tag0,unknown
1610201817344,0,-327,-7.18505859375E-5,0,0,60,1600409,1313416,401427,400196,390700,369634,47518,162158,Tag0,unknown
1610201817362,0,34,7.4707031250000005E-6,0,0,60,1600409,1313416,401427,400196,390700,369634,47518,162158,Tag0,unknown
1610201817379,0,-309,-6.78955078125E-5,0,0,60,1600409,1313416,401427,400196,390700,369634,47518,162158,Tag0,unknown
1610201817398,0,121,2.6586914062500003E-5,0,0,60,1600409,1313416,401427,400196,390700,369634,47518,162158,Tag0,unknown
1610201817412,0,-264,-5.80078125E-5,0,0,60,1600409,1313416,401427,400196,390700,369634,47518,162158,Tag0,unknown
1610201817422,0,295,6.48193359375E-5,0,0,53,1600409,1313416,401427,400196,390700,369634,47518,162158,Tag0,unknown
1610201817433,0,-76,-1.669921875E-5,0,0,53,1600409,1313416,401427,400196,390700,369634,47518,162158,Tag0,unknown
1610201817445,0,-51,-1.1206054687499999E-5,0,0,53,1600409,1313416,401427,400196,390700,369634,47518,162158,Tag0,unknown
1610201817475,0,368,8.0859375E-5,0,0,53,1600409,1313416,401427,400196,390700,369634,47518,162158,Tag0,unknown
1610201817495,0,347,7.62451171875E-5,0,0,53,1600409,1313416,401427,400196,390700,369634,47518,162158,Tag0,unknown
1610201817505,0,309,6.78955078125E-5,0,0,53,1600409,1313416,401427,400196,390700,369634,47518,162158,Tag0,unknown
1610201817516,0,349,7.668457031250001E-5,0,0,53,1600409,1313416,401427,400196,390700,369634,47518,162158,Tag0,unknown
1610201817528,0,373,8.19580078125E-5,0,0,53,1600409,1313416,401427,400196,390700,369634,47518,162158,Tag0,unknown
1610201817538,0,-578,-1.27001953125E-4,0,0,53,1600409,1313416,401427,400196,390700,369634,47518,162158,Tag0,unknown
1610201817553,0,-532,-1.1689453125E-4,0,0,53,1600409,1313416,401427,400196,390700,369634,47518,162158,Tag0,unknown
1610201817563,0,-147,-3.22998046875E-5,0,0,53,1600409,1313416,401427,400196,390700,369634,47518,162158,Tag0,unknown
1610201817587,0,-677,-1.4875488281250002E-4,0,0,53,1600409,1313416,401427,400196,390700,369634,47518,162158,Tag0,unknown
1610201817597,0,-773,-1.6984863281250002E-4,0,0,53,1600409,1313416,401427,400196,390700,369634,47518,162158,Tag0,unknown
1610201817615,0,169,3.7133789062499996E-5,0,0,53,1600409,1313416,401427,400196,390700,369634,47518,162158,Tag0,unknown
1610201817629,0,77,1.69189453125E-5,0,0,53,1600409,1313416,401427,400196,390700,369634,47518,162158,Tag0,unknown
1610201817645,0,119,2.6147460937500004E-5,0,0,53,1600409,1313416,401427,400196,390700,369634,47518,162158,Tag0,unknown
1610201817665,0,-417,-9.16259765625E-5,0,0,53,1600409,1313416,401427,400196,390700,369634,47518,162158,Tag0,unknown
1610201817678,0,349,7.668457031250001E-5,0,0,53,1600409,1313416,401427,400196,390700,369634,47518,162158,Tag0,unknown
1610201817721,0,-69,-1.51611328125E-5,0,0,53,1600409,1313416,401427,400196,390700,369634,47518,162158,Tag0,unknown
1610201817731,0,355,7.80029296875E-5,0,0,53,1600409,1313416,401427,400196,390700,369634,47518,162158,Tag0,unknown
1610201817751,0,-344,-7.558593750000001E-5,0,0,53,1600409,1313416,401427,400196,390700,369634,47518,162158,Tag0,unknown
1610201817761,0,-235,-5.16357421875E-5,0,0,53,1600409,1313416,401427,400196,390700,369634,47518,162158,Tag0,unknown
1610201817784,0,91,1.99951171875E-5,0,0,53,1600409,1313416,401427,400196,390700,369634,47518,162158,Tag0,unknown
1610201817795,0,103,2.26318359375E-5,0,0,53,1600409,1313416,401427,400196,390700,369634,47518,162158,Tag0,unknown
1610201817825,0,105,2.30712890625E-5,0,0,53,1600409,1313416,401427,400196,390700,369634,47518,162158,Tag0,unknown
1610201817845,0,99,2.1752929687500003E-5,0,0,53,1600409,1313416,401427,400196,390700,369634,47518,162158,Tag0,unknown
1610201817861,0,49,1.07666015625E-5,0,0,53,1600409,1313416,401427,400196,390700,369634,47518,162158,Tag0,unknown
1610201817877,0,81,1.77978515625E-5,0,0,53,1600409,1313416,401427,400196,390700,369634,47518,162158,Tag0,unknown
1610201817896,0,-301,-6.613769531250001E-5,0,0,53,1600409,1313416,401427,400196,390700,369634,47518,162158,Tag0,unknown
1610201817911,0,35,7.6904296875E-6,0,0,53,1600409,1313416,401427,400196,390700,369634,47518,162158,Tag0,unknown
1610201817929,0,-373,-8.19580078125E-5,0,0,53,1600409,1313416,401427,400196,390700,369634,47518,162158,Tag0,unknown
1610201817945,0,-333,-7.316894531249999E-5,0,0,53,1600409,1313416,401427,400196,390700,369634,47518,162158,Tag0,unknown
1610201817970,0,45,9.8876953125E-6,0,0,53,1600409,1313416,401427,400196,390700,369634,47518,162158,Tag0,unknown
1610201817980,0,-323,-7.09716796875E-5,0,0,53,1600409,1313416,401427,400196,390700,369634,47518,162158,Tag0,unknown
1610201818003,0,-291,-6.39404296875E-5,0,0,53,1600409,1313416,401427,400196,390700,369634,47518,162158,Tag0,unknown
1610201818013,0,-313,-6.87744140625E-5,0,0,53,1600409,1313416,401427,400196,390700,369634,47518,162158,Tag0,unknown
1610201818040,0,-31,-6.8115234375E-6,0,0,56,1600409,1313416,401427,400196,390700,369634,47518,162158,Tag0,unknown
1610201818050,0,357,7.844238281250001E-5,0,0,56,1600409,1313416,401427,400196,390700,369634,47518,162158,Tag0,unknown
1610201818073,0,-122,-2.6806640625E-5,0,0,56,1600409,1313416,401427,400196,390700,369634,47518,162158,Tag0,unknown
1610201818083,0,-23,-5.0537109375E-6,0,0,56,1600409,1313416,401427,400196,390700,369634,47518,162158,Tag0,unknown
1610201818095,0,619,1.360107421875E-4,0,0,56,1600409,1313416,401427,400196,390700,369634,47518,162158,Tag0,unknown
1610201818119,0,445,9.77783203125E-5,0,0,56,1600409,1313416,401427,400196,390700,369634,47518,162158,Tag0,unknown
1610201818129,0,385,8.45947265625E-5,0,0,56,1600409,1313416,401427,400196,390700,369634,47518,162158,Tag0,unknown
1610201818148,0,-121,-2.6586914062500003E-5,0,0,56,809122,153620,119355,92545,93083,53686,72630,16746357,Tag0,unknown
1610201818163,0,280,6.15234375E-5,0,0,56,809122,153620,119355,92545,93083,53686,72630,16746357,Tag0,unknown
1610201818187,0,881,1.9357910156249998E-4,0,0,56,809122,153620,119355,92545,93083,53686,72630,16746357,Tag0,unknown
1610201818198,0,6,1.318359375E-6,0,0,56,809122,153620,119355,92545,93083,53686,72630,16746357,Tag0,unknown
1610201818211,0,597,1.3117675781250003E-4,0,0,56,809122,153620,119355,92545,93083,53686,72630,16746357,Tag0,unknown
1610201818230,0,-1593,-3.500244140625E-4,0,0,56,809122,153620,119355,92545,93083,53686,72630,16746357,Tag0,unknown
1610201818269,0,-1781,-3.913330078125E-4,0,0,56,809122,153620,119355,92545,93083,53686,72630,16746357,Tag0,unknown
1610201818279,0,1655,3.636474609375E-4,0,0,56,809122,153620,119355,92545,93083,53686,72630,16746357,Tag0,unknown
1610201818300,0,992,2.1796875E-4,0,0,56,809122,153620,119355,92545,93083,53686,72630,16746357,Tag0,unknown
1610201818312,0,949,2.085205078125E-4,0,0,56,809122,153620,119355,92545,93083,53686,72630,16746357,Tag0,unknown
1610201818333,0,-923,-2.028076171875E-4,0,0,56,809122,153620,119355,92545,93083,53686,72630,16746357,Tag0,unknown
1610201818345,0,1791,3.935302734375E-4,0,0,56,809122,153620,119355,92545,93083,53686,72630,16746357,Tag0,unknown
1610201818355,0,-2048,-4.5E-4,0,0,56,809122,153620,119355,92545,93083,53686,72630,16746357,Tag0,unknown
1610201818371,0,-2048,-4.5E-4,0,0,56,809122,153620,119355,92545,93083,53686,72630,16746357,Tag0,unknown
1610201818381,0,1791,3.935302734375E-4,0,0,56,809122,153620,119355,92545,93083,53686,72630,16746357,Tag0,unknown
1610201818395,0,-2048,-4.5E-4,0,0,56,809122,153620,119355,92545,93083,53686,72630,16746357,Tag0,unknown
1610201818413,0,-2081,-4.572509765625E-4,0,0,56,809122,153620,119355,92545,93083,53686,72630,16746357,Tag0,unknown
1610201818429,0,-1444,-3.1728515625E-4,0,0,56,809122,153620,119355,92545,93083,53686,72630,16746357,Tag0,unknown
1610201818449,0,-1355,-2.977294921875E-4,0,0,56,809122,153620,119355,92545,93083,53686,72630,16746357,Tag0,unknown
1610201818462,0,-977,-2.1467285156250002E-4,0,0,56,809122,153620,119355,92545,93083,53686,72630,16746357,Tag0,unknown
1610201818480,0,-676,-1.4853515624999999E-4,0,0,56,809122,153620,119355,92545,93083,53686,72630,16746357,Tag0,unknown
