timestampMs,poorSignal,eegRawValue,eegRawValueVolts,attention,meditation,blinkStrength,delta,theta,alphaLow,alphaHigh,betaLow,betaHigh,gammaLow,gammaMid,tagEvent,location
1610200467826,51,806,1.7709960937499998E-4,0,0,41,533977,28859,1830,1473,7660,4835,5365,3556,Tag0,unknown
1610200467841,51,-653,-1.434814453125E-4,0,0,41,533977,28859,1830,1473,7660,4835,5365,3556,Tag0,unknown
1610200467860,51,-1884,-4.1396484375000005E-4,0,0,41,533977,28859,1830,1473,7660,4835,5365,3556,Tag0,unknown
1610200467874,51,-1528,-3.357421875E-4,0,0,41,533977,28859,1830,1473,7660,4835,5365,3556,Tag0,unknown
1610200467903,51,-1789,-3.930908203125E-4,0,0,41,533977,28859,1830,1473,7660,4835,5365,3556,Tag0,unknown
1610200467924,51,-1003,-2.2038574218750001E-4,0,0,41,533977,28859,1830,1473,7660,4835,5365,3556,Tag0,unknown
1610200467942,51,-653,-1.434814453125E-4,0,0,41,533977,28859,1830,1473,7660,4835,5365,3556,Tag0,unknown
1610200467957,51,-661,-1.452392578125E-4,0,0,41,533977,28859,1830,1473,7660,4835,5365,3556,Tag0,unknown
1610200467979,51,-393,-8.63525390625E-5,0,0,41,533977,28859,1830,1473,7660,4835,5365,3556,Tag0,unknown
1610200467990,51,-600,-1.318359375E-4,0,0,41,533977,28859,1830,1473,7660,4835,5365,3556,Tag0,unknown
1610200468007,51,-345,-7.58056640625E-5,0,0,41,533977,28859,1830,1473,7660,4835,5365,3556,Tag0,unknown
1610200468025,51,-375,-8.23974609375E-5,0,0,41,533977,28859,1830,1473,7660,4835,5365,3556,Tag0,unknown
1610200468041,51,-279,-6.13037109375E-5,0,0,41,533977,28859,1830,1473,7660,4835,5365,3556,Tag0,unknown
1610200468064,51,87,1.91162109375E-5,0,0,41,533977,28859,1830,1473,7660,4835,5365,3556,Tag0,unknown
1610200468075,51,27,5.9326171875000005E-6,0,0,41,533977,28859,1830,1473,7660,4835,5365,3556,Tag0,unknown
1610200468098,51,279,6.13037109375E-5,0,0,41,533977,28859,1830,1473,7660,4835,5365,3556,Tag0,unknown
1610200468109,51,297,6.525878906250001E-5,0,0,41,533977,28859,1830,1473,7660,4835,5365,3556,Tag0,unknown
1610200468140,51,669,1.469970703125E-4,0,0,41,533977,28859,1830,1473,7660,4835,5365,3556,Tag0,unknown
1610200468158,51,461,1.0129394531250001E-4,0,0,41,533977,28859,1830,1473,7660,4835,5365,3556,Tag0,unknown
1610200468175,51,1027,2.2565917968750003E-4,0,0,41,533977,28859,1830,1473,7660,4835,5365,3556,Tag0,unknown
1610200468192,51,1411,3.100341796875E-4,0,0,41,533977,28859,1830,1473,7660,4835,5365,3556,Tag0,unknown
1610200468209,51,952,2.0917968750000003E-4,0,0,41,533977,28859,1830,1473,7660,4835,5365,3556,Tag0,unknown
1610200468228,51,1661,3.6496582031250003E-4,0,0,41,533977,28859,1830,1473,7660,4835,5365,3556,Tag0,unknown
1610200468242,51,1763,3.873779296875E-4,0,0,41,533977,28859,1830,1473,7660,4835,5365,3556,Tag0,unknown
1610200468280,51,1638,3.59912109375E-4,0,0,41,533977,28859,1830,1473,7660,4835,5365,3556,Tag0,unknown
1610200468292,51,1209,2.656494140625E-4,0,0,41,533977,28859,1830,1473,7660,4835,5365,3556,Tag0,unknown
1610200468317,51,801,1.760009765625E-4,0,0,41,533977,28859,1830,1473,7660,4835,5365,3556,Tag0,unknown
1610200468327,51,425,9.33837890625E-5,0,0,41,533977,28859,1830,1473,7660,4835,5365,3556,Tag0,unknown
1610200468357,51,369,8.10791015625E-5,0,0,41,533977,28859,1830,1473,7660,4835,5365,3556,Tag0,unknown
1610200468376,51,348,7.646484375E-5,0,0,41,533977,28859,1830,1473,7660,4835,5365,3556,Tag0,unknown
1610200468394,51,264,5.80078125E-5,0,0,41,533977,28859,1830,1473,7660,4835,5365,3556,Tag0,unknown
1610200468409,51,-68,-1.4941406250000001E-5,0,0,41,533977,28859,1830,1473,7660,4835,5365,3556,Tag0,unknown
1610200468433,51,-111,-2.43896484375E-5,0,0,41,533977,28859,1830,1473,7660,4835,5365,3556,Tag0,unknown
1610200468444,51,-117,-2.5708007812499998E-5,0,0,41,533977,28859,1830,1473,7660,4835,5365,3556,Tag0,unknown
1610200468467,51,115,2.52685546875E-5,0,0,41,533977,28859,1830,1473,7660,4835,5365,3556,Tag0,unknown
1610200468477,51,112,2.4609375E-5,0,0,41,533977,28859,1830,1473,7660,4835,5365,3556,Tag0,unknown
1610200468528,51,78,1.7138671875E-5,0,0,41,533977,28859,1830,1473,7660,4835,5365,3556,Tag0,unknown
1610200468544,51,67,1.4721679687500002E-5,0,0,41,533977,28859,1830,1473,7660,4835,5365,3556,Tag0,unknown
1610200468554,51,-292,-6.416015625000001E-5,0,0,41,533977,28859,1830,1473,7660,4835,5365,3556,Tag0,unknown
1610200468595,51,-1091,-2.397216796875E-4,0,0,41,533977,28859,1830,1473,7660,4835,5365,3556,Tag0,unknown
1610200468612,51,-1053,-2.3137207031250002E-4,0,0,41,533977,28859,1830,1473,7660,4835,5365,3556,Tag0,unknown
1610200468627,51,-706,-1.55126953125E-4,0,0,41,533977,28859,1830,1473,7660,4835,5365,3556,Tag0,unknown
1610200468661,51,-663,-1.456787109375E-4,0,0,41,533977,28859,1830,1473,7660,4835,5365,3556,Tag0,unknown
1610200468677,51,-617,-1.355712890625E-4,0,0,41,533977,28859,1830,1473,7660,4835,5365,3556,Tag0,unknown
1610200468687,51,-235,-5.16357421875E-5,0,0,41,533977,28859,1830,1473,7660,4835,5365,3556,Tag0,unknown
1610200468713,51,-773,-1.6984863281250002E-4,0,0,41,533977,28859,1830,1473,7660,4835,5365,3556,Tag0,unknown
1610200468727,51,-821,-1.803955078125E-4,0,0,41,533977,28859,1830,1473,7660,4835,5365,3556,Tag0,unknown
1610200468750,51,-699,-1.535888671875E-4,0,0,41,533977,28859,1830,1473,7660,4835,5365,3556,Tag0,unknown
1610200468763,51,-439,-9.64599609375E-5,0,0,41,533977,28859,1830,1473,7660,4835,5365,3556,Tag0,unknown
1610200468773,51,-42,-9.228515625000002E-6,0,0,41,533977,28859,1830,1473,7660,4835,5365,3556,Tag0,unknown
1610200468797,26,112,2.4609375E-5,0,0,41,673320,16749353,12541,6252,30701,17475,6630,1322,Tag0,unknown
1610200468810,26,350,7.6904296875E-5,0,0,41,673320,16749353,12541,6252,30701,17475,6630,1322,Tag0,unknown
1610200468829,26,21,4.614257812500001E-6,0,0,41,673320,16749353,12541,6252,30701,17475,6630,1322,Tag0,unknown
1610200468846,26,-409,-8.986816406250001E-5,0,0,41,673320,16749353,12541,6252,30701,17475,6630,1322,Tag0,unknown
1610200468860,26,-577,-1.2678222656250002E-4,0,0,41,673320,16749353,12541,6252,30701,17475,6630,1322,Tag0,unknown
1610200468870,26,-821,-1.803955078125E-4,0,0,41,673320,16749353,12541,6252,30701,17475,6630,1322,Tag0,unknown
1610200468900,26,-745,-1.636962890625E-4,0,0,41,673320,16749353,12541,6252,30701,17475,6630,1322,Tag0,unknown
1610200468911,26,-1335,-2.933349609375E-4,0,0,41,673320,16749353,12541,6252,30701,17475,6630,1322,Tag0,unknown
1610200468921,26,-933,-2.050048828125E-4,0,0,41,673320,16749353,12541,6252,30701,17475,6630,1322,Tag0,unknown
1610200468954,26,-1075,-2.362060546875E-4,0,0,41,673320,16749353,12541,6252,30701,17475,6630,1322,Tag0,unknown
1610200468964,26,-827,-1.8171386718750002E-4,0,0,41,673320,16749353,12541,6252,30701,17475,6630,1322,Tag0,unknown
1610200468977,26,-411,-9.03076171875E-5,0,0,41,673320,16749353,12541,6252,30701,17475,6630,1322,Tag0,unknown
1610200468994,26,-497,-1.0920410156250001E-4,0,0,41,673320,16749353,12541,6252,30701,17475,6630,1322,Tag0,unknown
1610200469010,26,-388,-8.525390625E-5,0,0,41,673320,16749353,12541,6252,30701,17475,6630,1322,Tag0,unknown
1610200469020,26,-289,-6.35009765625E-5,0,0,41,673320,16749353,12541,6252,30701,17475,6630,1322,Tag0,unknown
1610200469031,26,24,5.2734375E-6,0,0,41,673320,16749353,12541,6252,30701,17475,6630,1322,Tag0,unknown
1610200469045,26,-112,-2.4609375E-5,0,0,41,673320,16749353,12541,6252,30701,17475,6630,1322,Tag0,unknown
1610200469066,26,413,9.07470703125E-5,0,0,41,673320,16749353,12541,6252,30701,17475,6630,1322,Tag0,unknown
1610200469077,26,199,4.3725585937499995E-5,0,0,41,673320,16749353,12541,6252,30701,17475,6630,1322,Tag0,unknown
1610200469103,26,348,7.646484375E-5,0,0,41,673320,16749353,12541,6252,30701,17475,6630,1322,Tag0,unknown
1610200469113,26,-168,-3.691406250000001E-5,0,0,41,673320,16749353,12541,6252,30701,17475,6630,1322,Tag0,unknown
1610200469127,26,-428,-9.404296875E-5,0,0,41,673320,16749353,12541,6252,30701,17475,6630,1322,Tag0,unknown
1610200469146,26,-5,-1.0986328125E-6,0,0,41,673320,16749353,12541,6252,30701,17475,6630,1322,Tag0,unknown
1610200469159,26,572,1.2568359375E-4,0,0,41,673320,16749353,12541,6252,30701,17475,6630,1322,Tag0,unknown
1610200469177,26,1,2.197265625E-7,0,0,41,673320,16749353,12541,6252,30701,17475,6630,1322,Tag0,unknown
1610200469194,26,-260,-5.712890625E-5,0,0,41,673320,16749353,12541,6252,30701,17475,6630,1322,Tag0,unknown
1610200469212,26,1077,2.366455078125E-4,0,0,41,673320,16749353,12541,6252,30701,17475,6630,1322,Tag0,unknown
1610200469227,26,246,5.4052734375E-5,0,0,41,673320,16749353,12541,6252,30701,17475,6630,1322,Tag0,unknown
1610200469259,26,1483,3.258544921875E-4,0,0,41,673320,16749353,12541,6252,30701,17475,6630,1322,Tag0,unknown
1610200469277,26,1911,4.198974609375E-4,0,0,41,673320,16749353,12541,6252,30701,17475,6630,1322,Tag0,unknown
1610200469297,26,1062,2.3334960937500002E-4,0,0,41,673320,16749353,12541,6252,30701,17475,6630,1322,Tag0,unknown
1610200469310,26,1456,3.19921875E-4,0,0,41,673320,16749353,12541,6252,30701,17475,6630,1322,Tag0,unknown
1610200469331,26,745,1.636962890625E-4,0,0,41,673320,16749353,12541,6252,30701,17475,6630,1322,Tag0,unknown
1610200469345,26,694,1.52490234375E-4,0,0,41,673320,16749353,12541,6252,30701,17475,6630,1322,Tag0,unknown
1610200469368,26,116,2.548828125E-5,0,0,41,673320,16749353,12541,6252,30701,17475,6630,1322,Tag0,unknown
1610200469378,26,1,2.197265625E-7,0,0,41,673320,16749353,12541,6252,30701,17475,6630,1322,Tag0,unknown
1610200469403,26,-419,-9.206542968750001E-5,0,0,41,673320,16749353,12541,6252,30701,17475,6630,1322,Tag0,unknown
1610200469413,26,-552,-1.212890625E-4,0,0,41,673320,16749353,12541,6252,30701,17475,6630,1322,Tag0,unknown
1610200469427,26,635,1.395263671875E-4,0,0,41,673320,16749353,12541,6252,30701,17475,6630,1322,Tag0,unknown
1610200469444,26,539,1.1843261718750001E-4,0,0,41,673320,16749353,12541,6252,30701,17475,6630,1322,Tag0,unknown
1610200469461,26,572,1.2568359375E-4,0,0,41,673320,16749353,12541,6252,30701,17475,6630,1322,Tag0,unknown
1610200469479,26,302,6.6357421875E-5,0,0,41,673320,16749353,12541,6252,30701,17475,6630,1322,Tag0,unknown
1610200469495,26,188,4.1308593750000004E-5,0,0,41,673320,16749353,12541,6252,30701,17475,6630,1322,Tag0,unknown
1610200469505,26,283,6.218261718750001E-5,0,0,41,673320,16749353,12541,6252,30701,17475,6630,1322,Tag0,unknown
1610200469516,26,257,5.64697265625E-5,0,0,41,673320,16749353,12541,6252,30701,17475,6630,1322,Tag0,unknown
1610200469527,26,-39,-8.5693359375E-6,0,0,41,673320,16749353,12541,6252,30701,17475,6630,1322,Tag0,unknown
1610200469551,26,306,6.723632812500001E-5,0,0,41,673320,16749353,12541,6252,30701,17475,6630,1322,Tag0,unknown
1610200469561,26,279,6.13037109375E-5,0,0,41,673320,16749353,12541,6252,30701,17475,6630,1322,Tag0,unknown
1610200469592,26,-29,-6.3720703125E-6,0,0,41,673320,16749353,12541,6252,30701,17475,6630,1322,Tag0,unknown
1610200469610,26,-8,-1.7578125E-6,0,0,41,673320,16749353,12541,6252,30701,17475,6630,1322,Tag0,unknown
1610200469628,26,-77,-1.69189453125E-5,0,0,41,673320,16749353,12541,6252,30701,17475,6630,1322,Tag0,unknown
1610200469646,26,-45,-9.8876953125E-6,0,0,41,673320,16749353,12541,6252,30701,17475,6630,1322,Tag0,unknown
1610200469657,26,-127,-2.79052734375E-5,0,0,41,673320,16749353,12541,6252,30701,17475,6630,1322,Tag0,unknown
1610200469682,26,-128,-2.8125E-5,0,0,41,673320,16749353,12541,6252,30701,17475,6630,1322,Tag0,unknown
1610200469703,26,38,8.349609375E-6,0,0,41,673320,16749353,12541,6252,30701,17475,6630,1322,Tag0,unknown
1610200469715,26,25,5.4931640625E-6,0,0,41,673320,16749353,12541,6252,30701,17475,6630,1322,Tag0,unknown
1610200469727,26,-291,-6.39404296875E-5,0,0,41,673320,16749353,12541,6252,30701,17475,6630,1322,Tag0,unknown
1610200469744,26,-617,-1.355712890625E-4,0,0,41,673320,16749353,12541,6252,30701,17475,6630,1322,Tag0,unknown
1610200469760,26,-453,-9.95361328125E-5,0,0,41,673320,16749353,12541,6252,30701,17475,6630,1322,Tag0,unknown
1610200469778,26,-653,-1.434814453125E-4,0,0,41,775202,16751880,3228,18983,18933,23633,14703,13156,Tag0,unknown
1610200469797,26,-1076,-2.3642578124999998E-4,0,0,41,775202,16751880,3228,18983,18933,23633,14703,13156,Tag0,unknown
1610200469811,26,-884,-1.9423828125E-4,0,0,41,775202,16751880,3228,18983,18933,23633,14703,13156,Tag0,unknown
1610200469827,26,-859,-1.887451171875E-4,0,0,41,775202,16751880,3228,18983,18933,23633,14703,13156,Tag0,unknown
1610200469853,26,-917,-2.014892578125E-4,0,0,41,775202,16751880,3228,18983,18933,23633,14703,13156,Tag0,unknown
1610200469863,26,-683,-1.500732421875E-4,0,0,41,775202,16751880,3228,18983,18933,23633,14703,13156,Tag0,unknown
1610200469877,26,-529,-1.162353515625E-4,0,0,41,775202,16751880,3228,18983,18933,23633,14703,13156,Tag0,unknown
1610200469899,26,-822,-1.80615234375E-4,0,0,41,775202,16751880,3228,18983,18933,23633,14703,13156,Tag0,unknown
1610200469910,26,-254,-5.5810546875E-5,0,0,41,775202,16751880,3228,18983,18933,23633,14703,13156,Tag0,unknown
1610200469933,26,-122,-2.6806640625E-5,0,0,41,775202,16751880,3228,18983,18933,23633,14703,13156,Tag0,unknown
1610200469943,26,-103,-2.26318359375E-5,0,0,41,775202,16751880,3228,18983,18933,23633,14703,13156,Tag0,unknown
1610200469969,26,-739,-1.623779296875E-4,0,0,41,775202,16751880,3228,18983,18933,23633,14703,13156,Tag0,unknown
1610200469979,26,-597,-1.3117675781250003E-4,0,0,41,775202,16751880,3228,18983,18933,23633,14703,13156,Tag0,unknown
1610200470007,26,-519,-1.140380859375E-4,0,0,41,775202,16751880,3228,18983,18933,23633,14703,13156,Tag0,unknown
1610200470027,26,-880,-1.93359375E-4,0,0,41,775202,16751880,3228,18983,18933,23633,14703,13156,Tag0,unknown
1610200470043,26,-555,-1.219482421875E-4,0,0,41,775202,16751880,3228,18983,18933,23633,14703,13156,Tag0,unknown
1610200470061,26,-809,-1.777587890625E-4,0,0,41,775202,16751880,3228,18983,18933,23633,14703,13156,Tag0,unknown
1610200470078,26,32,7.03125E-6,0,0,41,775202,16751880,3228,18983,18933,23633,14703,13156,Tag0,unknown
1610200470094,26,-617,-1.355712890625E-4,0,0,41,775202,16751880,3228,18983,18933,23633,14703,13156,Tag0,unknown
1610200470114,26,-541,-1.1887207031250001E-4,0,0,41,775202,16751880,3228,18983,18933,23633,14703,13156,Tag0,unknown
1610200470127,26,-405,-8.89892578125E-5,0,0,41,775202,16751880,3228,18983,18933,23633,14703,13156,Tag0,unknown
1610200470175,26,-618,-1.35791015625E-4,0,0,41,775202,16751880,3228,18983,18933,23633,14703,13156,Tag0,unknown
1610200470194,26,-245,-5.38330078125E-5,0,0,41,775202,16751880,3228,18983,18933,23633,14703,13156,Tag0,unknown
1610200470204,26,668,1.4677734375000002E-4,0,0,41,775202,16751880,3228,18983,18933,23633,14703,13156,Tag0,unknown
1610200470227,26,1791,3.935302734375E-4,0,0,41,775202,16751880,3228,18983,18933,23633,14703,13156,Tag0,unknown
1610200470243,26,1791,3.935302734375E-4,0,0,41,775202,16751880,3228,18983,18933,23633,14703,13156,Tag0,unknown
1610200470253,26,-811,-1.781982421875E-4,0,0,41,775202,16751880,3228,18983,18933,23633,14703,13156,Tag0,unknown
1610200470265,26,-1154,-2.5356445312500005E-4,0,0,41,775202,16751880,3228,18983,18933,23633,14703,13156,Tag0,unknown
1610200470277,26,-1481,-3.2541503906250005E-4,0,0,41,775202,16751880,3228,18983,18933,23633,14703,13156,Tag0,unknown
1610200470295,26,-625,-1.373291015625E-4,0,0,41,775202,16751880,3228,18983,18933,23633,14703,13156,Tag0,unknown
1610200470311,26,-105,-2.30712890625E-5,0,0,41,775202,16751880,3228,18983,18933,23633,14703,13156,Tag0,unknown
1610200470328,26,107,2.35107421875E-5,0,0,41,775202,16751880,3228,18983,18933,23633,14703,13156,Tag0,unknown
1610200470344,26,285,6.26220703125E-5,0,0,41,775202,16751880,3228,18983,18933,23633,14703,13156,Tag0,unknown
1610200470379,26,669,1.469970703125E-4,0,0,41,775202,16751880,3228,18983,18933,23633,14703,13156,Tag0,unknown
1610200470394,26,1240,2.724609375E-4,0,0,41,775202,16751880,3228,18983,18933,23633,14703,13156,Tag0,unknown
1610200470415,26,1395,3.065185546875E-4,0,0,41,775202,16751880,3228,18983,18933,23633,14703,13156,Tag0,unknown
1610200470427,26,969,2.129150390625E-4,0,0,41,775202,16751880,3228,18983,18933,23633,14703,13156,Tag0,unknown
1610200470437,26,513,1.127197265625E-4,0,0,41,775202,16751880,3228,18983,18933,23633,14703,13156,Tag0,unknown
1610200470463,26,881,1.9357910156249998E-4,0,0,41,775202,16751880,3228,18983,18933,23633,14703,13156,Tag0,unknown
1610200470483,26,535,1.175537109375E-4,0,0,41,775202,16751880,3228,18983,18933,23633,14703,13156,Tag0,unknown
1610200470494,26,660,1.4501953125E-4,0,0,41,775202,16751880,3228,18983,18933,23633,14703,13156,Tag0,unknown
1610200470519,26,601,1.3205566406249998E-4,0,0,41,775202,16751880,3228,18983,18933,23633,14703,13156,Tag0,unknown
1610200470529,26,525,1.153564453125E-4,0,0,41,775202,16751880,3228,18983,18933,23633,14703,13156,Tag0,unknown
1610200470544,26,-278,-6.108398437500001E-5,0,0,41,775202,16751880,3228,18983,18933,23633,14703,13156,Tag0,unknown
1610200470561,26,-518,-1.13818359375E-4,0,0,41,775202,16751880,3228,18983,18933,23633,14703,13156,Tag0,unknown
1610200470578,26,358,7.8662109375E-5,0,0,41,775202,16751880,3228,18983,18933,23633,14703,13156,Tag0,unknown
1610200470602,26,108,2.3730468750000002E-5,0,0,41,775202,16751880,3228,18983,18933,23633,14703,13156,Tag0,unknown
1610200470612,26,308,6.767578125E-5,0,0,41,775202,16751880,3228,18983,18933,23633,14703,13156,Tag0,unknown
1610200470636,26,547,1.201904296875E-4,0,0,41,775202,16751880,3228,18983,18933,23633,14703,13156,Tag0,unknown
1610200470646,26,245,5.38330078125E-5,0,0,41,775202,16751880,3228,18983,18933,23633,14703,13156,Tag0,unknown
1610200470661,26,244,5.361328125E-5,0,0,41,775202,16751880,3228,18983,18933,23633,14703,13156,Tag0,unknown
1610200470677,26,360,7.91015625E-5,0,0,41,775202,16751880,3228,18983,18933,23633,14703,13156,Tag0,unknown
1610200470693,26,261,5.73486328125E-5,0,0,41,775202,16751880,3228,18983,18933,23633,14703,13156,Tag0,unknown
1610200470711,26,99,2.1752929687500003E-5,0,0,41,775202,16751880,3228,18983,18933,23633,14703,13156,Tag0,unknown
1610200470726,26,-529,-1.162353515625E-4,0,0,41,775202,16751880,3228,18983,18933,23633,14703,13156,Tag0,unknown
1610200470754,26,-825,-1.812744140625E-4,0,0,41,775202,16751880,3228,18983,18933,23633,14703,13156,Tag0,unknown
1610200470776,26,-1163,-2.555419921875E-4,0,0,41,775202,16751880,3228,18983,18933,23633,14703,13156,Tag0,unknown
1610200470795,26,-1063,-2.335693359375E-4,0,0,41,1079062,16760476,19584,24508,12572,18297,8272,7757,Tag0,unknown
1610200470829,26,-1321,-2.902587890625E-4,0,0,41,1079062,16760476,19584,24508,12572,18297,8272,7757,Tag0,unknown
1610200470843,26,-1267,-2.7839355468749997E-4,0,0,41,1079062,16760476,19584,24508,12572,18297,8272,7757,Tag0,unknown
1610200470867,26,545,1.197509765625E-4,0,0,41,1079062,16760476,19584,24508,12572,18297,8272,7757,Tag0,unknown
1610200470877,26,164,3.6035156249999995E-5,0,0,41,1079062,16760476,19584,24508,12572,18297,8272,7757,Tag0,unknown
1610200470893,26,436,9.580078125E-5,0,0,41,1079062,16760476,19584,24508,12572,18297,8272,7757,Tag0,unknown
1610200470943,26,218,4.7900390625E-5,0,0,41,1079062,16760476,19584,24508,12572,18297,8272,7757,Tag0,unknown
1610200470961,26,421,9.25048828125E-5,0,0,41,1079062,16760476,19584,24508,12572,18297,8272,7757,Tag0,unknown
1610200470976,26,-35,-7.6904296875E-6,0,0,41,1079062,16760476,19584,24508,12572,18297,8272,7757,Tag0,unknown
1610200470993,26,-295,-6.48193359375E-5,0,0,41,1079062,16760476,19584,24508,12572,18297,8272,7757,Tag0,unknown
1610200471019,26,829,1.821533203125E-4,0,0,41,1079062,16760476,19584,24508,12572,18297,8272,7757,Tag0,unknown
1610200471029,26,728,1.599609375E-4,0,0,41,1079062,16760476,19584,24508,12572,18297,8272,7757,Tag0,unknown
1610200471043,26,-2048,-4.5E-4,0,0,41,1079062,16760476,19584,24508,12572,18297,8272,7757,Tag0,unknown
1610200471059,26,-2048,-4.5E-4,0,0,41,1079062,16760476,19584,24508,12572,18297,8272,7757,Tag0,unknown
1610200471076,26,-1337,-2.937744140625E-4,0,0,41,1079062,16760476,19584,24508,12572,18297,8272,7757,Tag0,unknown
1610200471097,26,-1189,-2.612548828125E-4,0,0,41,1079062,16760476,19584,24508,12572,18297,8272,7757,Tag0,unknown
1610200471112,26,-1206,-2.6499023437500003E-4,0,0,41,1079062,16760476,19584,24508,12572,18297,8272,7757,Tag0,unknown
1610200471142,26,120,2.63671875E-5,0,0,41,1079062,16760476,19584,24508,12572,18297,8272,7757,Tag0,unknown
1610200471161,26,613,1.3469238281250002E-4,0,0,41,1079062,16760476,19584,24508,12572,18297,8272,7757,Tag0,unknown
1610200471171,26,-891,-1.957763671875E-4,0,0,41,1079062,16760476,19584,24508,12572,18297,8272,7757,Tag0,unknown
1610200471193,26,-794,-1.74462890625E-4,0,0,41,1079062,16760476,19584,24508,12572,18297,8272,7757,Tag0,unknown
1610200471214,26,955,2.098388671875E-4,0,0,41,1079062,16760476,19584,24508,12572,18297,8272,7757,Tag0,unknown
1610200471227,26,1128,2.478515625E-4,0,0,41,1079062,16760476,19584,24508,12572,18297,8272,7757,Tag0,unknown
1610200471251,26,1335,2.933349609375E-4,0,0,41,1079062,16760476,19584,24508,12572,18297,8272,7757,Tag0,unknown
1610200471261,26,980,2.1533203125E-4,0,0,41,1079062,16760476,19584,24508,12572,18297,8272,7757,Tag0,unknown
1610200471287,26,825,1.812744140625E-4,0,0,41,1079062,16760476,19584,24508,12572,18297,8272,7757,Tag0,unknown
1610200471297,26,529,1.162353515625E-4,0,0,41,1079062,16760476,19584,24508,12572,18297,8272,7757,Tag0,unknown
1610200471310,26,-433,-9.51416015625E-5,0,0,41,1079062,16760476,19584,24508,12572,18297,8272,7757,Tag0,unknown
1610200471327,26,-646,-1.41943359375E-4,0,0,41,1079062,16760476,19584,24508,12572,18297,8272,7757,Tag0,unknown
1610200471344,26,-1026,-2.25439453125E-4,0,0,41,1079062,16760476,19584,24508,12572,18297,8272,7757,Tag0,unknown
1610200471362,26,-712,-1.564453125E-4,0,0,41,1079062,16760476,19584,24508,12572,18297,8272,7757,Tag0,unknown
1610200471377,26,-555,-1.219482421875E-4,0,0,41,1079062,16760476,19584,24508,12572,18297,8272,7757,Tag0,unknown
1610200471397,26,1400,3.076171875E-4,0,0,41,1079062,16760476,19584,24508,12572,18297,8272,7757,Tag0,unknown
1610200471411,26,1349,2.9641113281250004E-4,0,0,41,1079062,16760476,19584,24508,12572,18297,8272,7757,Tag0,unknown
1610200471450,26,1735,3.812255859375E-4,0,0,41,1079062,16760476,19584,24508,12572,18297,8272,7757,Tag0,unknown
1610200471460,26,1760,3.8671875E-4,0,0,41,1079062,16760476,19584,24508,12572,18297,8272,7757,Tag0,unknown
1610200471470,26,835,1.834716796875E-4,0,0,41,1079062,16760476,19584,24508,12572,18297,8272,7757,Tag0,unknown
1610200471480,26,582,1.27880859375E-4,0,0,41,1079062,16760476,19584,24508,12572,18297,8272,7757,Tag0,unknown
1610200471502,26,221,4.85595703125E-5,0,0,41,1079062,16760476,19584,24508,12572,18297,8272,7757,Tag0,unknown
1610200471512,26,340,7.470703125E-5,0,0,41,1079062,16760476,19584,24508,12572,18297,8272,7757,Tag0,unknown
1610200471527,26,-203,-4.460449218750001E-5,0,0,41,1079062,16760476,19584,24508,12572,18297,8272,7757,Tag0,unknown
1610200471544,26,-567,-1.245849609375E-4,0,0,41,1079062,16760476,19584,24508,12572,18297,8272,7757,Tag0,unknown
1610200471560,26,-339,-7.448730468750001E-5,0,0,41,1079062,16760476,19584,24508,12572,18297,8272,7757,Tag0,unknown
1610200471578,26,-261,-5.73486328125E-5,0,0,41,1079062,16760476,19584,24508,12572,18297,8272,7757,Tag0,unknown
1610200471593,26,-573,-1.259033203125E-4,0,0,41,1079062,16760476,19584,24508,12572,18297,8272,7757,Tag0,unknown
1610200471615,26,65,1.42822265625E-5,0,0,41,1079062,16760476,19584,24508,12572,18297,8272,7757,Tag0,unknown
1610200471626,26,27,5.9326171875000005E-6,0,0,41,1079062,16760476,19584,24508,12572,18297,8272,7757,Tag0,unknown
1610200471651,26,-47,-1.0327148437500001E-5,0,0,41,1079062,16760476,19584,24508,12572,18297,8272,7757,Tag0,unknown
1610200471661,26,353,7.75634765625E-5,0,0,41,1079062,16760476,19584,24508,12572,18297,8272,7757,Tag0,unknown
1610200471677,26,578,1.27001953125E-4,0,0,41,1079062,16760476,19584,24508,12572,18297,8272,7757,Tag0,unknown
1610200471729,26,560,1.23046875E-4,0,0,41,1079062,16760476,19584,24508,12572,18297,8272,7757,Tag0,unknown
1610200471744,26,535,1.175537109375E-4,0,0,41,1079062,16760476,19584,24508,12572,18297,8272,7757,Tag0,unknown
1610200471754,26,-1349,-2.9641113281250004E-4,0,0,41,1079062,16760476,19584,24508,12572,18297,8272,7757,Tag0,unknown
1610200471765,26,-949,-2.085205078125E-4,0,0,41,1079062,16760476,19584,24508,12572,18297,8272,7757,Tag0,unknown
1610200471777,26,-1297,-2.849853515625E-4,0,0,41,1079062,16760476,19584,24508,12572,18297,8272,7757,Tag0,unknown
1610200471800,26,-949,-2.085205078125E-4,0,0,41,1079062,16760476,19584,24508,12572,18297,8272,7757,Tag0,unknown
1610200471815,26,-1226,-2.6938476562500004E-4,0,0,41,1079062,16760476,19584,24508,12572,18297,8272,7757,Tag0,unknown
1610200471876,26,-807,-1.7731933593750001E-4,0,0,41,690889,91981,16744521,13499,16931,16757299,26025,15527,Tag0,unknown
1610200471894,26,-561,-1.232666015625E-4,0,0,41,690889,91981,16744521,13499,16931,16757299,26025,15527,Tag0,unknown
1610200471904,26,93,2.04345703125E-5,0,0,41,690889,91981,16744521,13499,16931,16757299,26025,15527,Tag0,unknown
1610200471914,26,213,4.68017578125E-5,0,0,41,690889,91981,16744521,13499,16931,16757299,26025,15527,Tag0,unknown
1610200471930,26,1115,2.449951171875E-4,0,0,41,690889,91981,16744521,13499,16931,16757299,26025,15527,Tag0,unknown
1610200471943,26,800,1.7578125E-4,0,0,41,690889,91981,16744521,13499,16931,16757299,26025,15527,Tag0,unknown
1610200471969,26,-617,-1.355712890625E-4,0,0,41,690889,91981,16744521,13499,16931,16757299,26025,15527,Tag0,unknown
1610200471979,26,-1062,-2.3334960937500002E-4,0,0,41,690889,91981,16744521,13499,16931,16757299,26025,15527,Tag0,unknown
1610200472003,26,-868,-1.9072265625E-4,0,0,41,690889,91981,16744521,13499,16931,16757299,26025,15527,Tag0,unknown
1610200472013,26,-440,-9.66796875E-5,0,0,41,690889,91981,16744521,13499,16931,16757299,26025,15527,Tag0,unknown
1610200472027,26,-164,-3.6035156249999995E-5,0,0,41,690889,91981,16744521,13499,16931,16757299,26025,15527,Tag0,unknown
1610200472043,26,-126,-2.7685546875E-5,0,0,41,690889,91981,16744521,13499,16931,16757299,26025,15527,Tag0,unknown
1610200472059,26,-151,-3.31787109375E-5,0,0,41,690889,91981,16744521,13499,16931,16757299,26025,15527,Tag0,unknown
1610200472078,26,325,7.14111328125E-5,0,0,41,690889,91981,16744521,13499,16931,16757299,26025,15527,Tag0,unknown
1610200472093,26,-7,-1.5380859375E-6,0,0,41,690889,91981,16744521,13499,16931,16757299,26025,15527,Tag0,unknown
1610200472110,26,189,4.15283203125E-5,0,0,41,690889,91981,16744521,13499,16931,16757299,26025,15527,Tag0,unknown
1610200472127,26,609,1.338134765625E-4,0,0,41,690889,91981,16744521,13499,16931,16757299,26025,15527,Tag0,unknown
1610200472144,26,-63,-1.38427734375E-5,0,0,41,690889,91981,16744521,13499,16931,16757299,26025,15527,Tag0,unknown
1610200472176,26,371,8.151855468750001E-5,0,0,41,690889,91981,16744521,13499,16931,16757299,26025,15527,Tag0,unknown
1610200472193,26,-37,-8.1298828125E-6,0,0,41,690889,91981,16744521,13499,16931,16757299,26025,15527,Tag0,unknown
1610200472213,26,-281,-6.17431640625E-5,0,0,41,690889,91981,16744521,13499,16931,16757299,26025,15527,Tag0,unknown
1610200472227,26,-51,-1.1206054687499999E-5,0,0,41,690889,91981,16744521,13499,16931,16757299,26025,15527,Tag0,unknown
1610200472251,26,-69,-1.51611328125E-5,0,0,41,690889,91981,16744521,13499,16931,16757299,26025,15527,Tag0,unknown
1610200472261,26,-283,-6.218261718750001E-5,0,0,41,690889,91981,16744521,13499,16931,16757299,26025,15527,Tag0,unknown
1610200472288,26,337,7.40478515625E-5,0,0,41,690889,91981,16744521,13499,16931,16757299,26025,15527,Tag0,unknown
1610200472327,26,167,3.6694335937500004E-5,0,0,41,690889,91981,16744521,13499,16931,16757299,26025,15527,Tag0,unknown
1610200472343,26,97,2.13134765625E-5,0,0,41,690889,91981,16744521,13499,16931,16757299,26025,15527,Tag0,unknown
1610200472365,26,328,7.207031249999999E-5,0,0,41,690889,91981,16744521,13499,16931,16757299,26025,15527,Tag0,unknown
1610200472377,26,-107,-2.35107421875E-5,0,0,41,690889,91981,16744521,13499,16931,16757299,26025,15527,Tag0,unknown
1610200472387,26,73,1.6040039062500002E-5,0,0,41,690889,91981,16744521,13499,16931,16757299,26025,15527,Tag0,unknown
1610200472397,26,-168,-3.691406250000001E-5,0,0,41,690889,91981,16744521,13499,16931,16757299,26025,15527,Tag0,unknown
1610200472410,26,-135,-2.96630859375E-5,0,0,41,690889,91981,16744521,13499,16931,16757299,26025,15527,Tag0,unknown
1610200472438,26,-83,-1.82373046875E-5,0,0,41,690889,91981,16744521,13499,16931,16757299,26025,15527,Tag0,unknown
1610200472448,26,552,1.212890625E-4,0,0,41,690889,91981,16744521,13499,16931,16757299,26025,15527,Tag0,unknown
1610200472463,26,700,1.5380859375E-4,0,0,41,690889,91981,16744521,13499,16931,16757299,26025,15527,Tag0,unknown
1610200472490,26,-513,-1.127197265625E-4,0,0,41,690889,91981,16744521,13499,16931,16757299,26025,15527,Tag0,unknown
1610200472500,26,755,1.658935546875E-4,0,0,41,690889,91981,16744521,13499,16931,16757299,26025,15527,Tag0,unknown
1610200472511,26,-213,-4.68017578125E-5,0,0,41,690889,91981,16744521,13499,16931,16757299,26025,15527,Tag0,unknown
1610200472527,26,982,2.15771484375E-4,0,0,41,690889,91981,16744521,13499,16931,16757299,26025,15527,Tag0,unknown
1610200472543,26,178,3.9111328125E-5,0,0,41,690889,91981,16744521,13499,16931,16757299,26025,15527,Tag0,unknown
1610200472566,26,-279,-6.13037109375E-5,0,0,41,690889,91981,16744521,13499,16931,16757299,26025,15527,Tag0,unknown
1610200472577,26,-881,-1.9357910156249998E-4,0,0,41,690889,91981,16744521,13499,16931,16757299,26025,15527,Tag0,unknown
1610200472613,26,535,1.175537109375E-4,0,0,41,690889,91981,16744521,13499,16931,16757299,26025,15527,Tag0,unknown
1610200472627,26,-301,-6.613769531250001E-5,0,0,41,690889,91981,16744521,13499,16931,16757299,26025,15527,Tag0,unknown
1610200472637,26,-663,-1.456787109375E-4,0,0,41,690889,91981,16744521,13499,16931,16757299,26025,15527,Tag0,unknown
1610200472653,26,1587,3.487060546875E-4,0,0,41,690889,91981,16744521,13499,16931,16757299,26025,15527,Tag0,unknown
1610200472663,26,1611,3.5397949218750005E-4,0,0,41,690889,91981,16744521,13499,16931,16757299,26025,15527,Tag0,unknown
1610200472728,26,866,1.90283203125E-4,0,0,41,690889,91981,16744521,13499,16931,16757299,26025,15527,Tag0,unknown
1610200472745,26,1095,2.406005859375E-4,0,0,41,690889,91981,16744521,13499,16931,16757299,26025,15527,Tag0,unknown
1610200472755,26,-229,-5.03173828125E-5,0,0,41,690889,91981,16744521,13499,16931,16757299,26025,15527,Tag0,unknown
1610200472765,26,-597,-1.3117675781250003E-4,0,0,41,690889,91981,16744521,13499,16931,16757299,26025,15527,Tag0,unknown
1610200472778,26,-75,-1.64794921875E-5,0,0,41,690889,91981,16744521,13499,16931,16757299,26025,15527,Tag0,unknown
1610200472794,26,-102,-2.2412109374999998E-5,0,0,41,1120385,291948,90643,66081,16760128,16770493,21221,19679,Tag0,unknown
1610200472816,26,5,1.0986328125E-6,0,0,41,1120385,291948,90643,66081,16760128,16770493,21221,19679,Tag0,unknown
1610200472826,26,279,6.13037109375E-5,0,0,41,1120385,291948,90643,66081,16760128,16770493,21221,19679,Tag0,unknown
1610200472854,26,-118,-2.5927734375E-5,0,0,41,1120385,291948,90643,66081,16760128,16770493,21221,19679,Tag0,unknown
1610200472864,26,69,1.51611328125E-5,0,0,41,1120385,291948,90643,66081,16760128,16770493,21221,19679,Tag0,unknown
1610200472876,26,352,7.734375E-5,0,0,41,1120385,291948,90643,66081,16760128,16770493,21221,19679,Tag0,unknown
1610200472894,26,-128,-2.8125E-5,0,0,41,1120385,291948,90643,66081,16760128,16770493,21221,19679,Tag0,unknown
1610200472910,26,-259,-5.69091796875E-5,0,0,41,1120385,291948,90643,66081,16760128,16770493,21221,19679,Tag0,unknown
1610200472934,26,-538,-1.1821289062499999E-4,0,0,41,1120385,291948,90643,66081,16760128,16770493,21221,19679,Tag0,unknown
1610200472944,26,-596,-1.3095703125E-4,0,0,41,1120385,291948,90643,66081,16760128,16770493,21221,19679,Tag0,unknown
1610200472968,26,-44,-9.66796875E-6,0,0,41,1120385,291948,90643,66081,16760128,16770493,21221,19679,Tag0,unknown
1610200472979,26,133,2.92236328125E-5,0,0,41,1120385,291948,90643,66081,16760128,16770493,21221,19679,Tag0,unknown
1610200473005,26,903,1.9841308593750002E-4,0,0,41,1120385,291948,90643,66081,16760128,16770493,21221,19679,Tag0,unknown
1610200473015,26,1380,3.0322265625E-4,0,0,41,1120385,291948,90643,66081,16760128,16770493,21221,19679,Tag0,unknown
1610200473041,26,663,1.456787109375E-4,0,0,41,1120385,291948,90643,66081,16760128,16770493,21221,19679,Tag0,unknown
1610200473060,26,963,2.115966796875E-4,0,0,41,1120385,291948,90643,66081,16760128,16770493,21221,19679,Tag0,unknown
1610200473070,26,-1704,-3.744140625E-4,0,0,41,1120385,291948,90643,66081,16760128,16770493,21221,19679,Tag0,unknown
1610200473080,26,-1301,-2.858642578125E-4,0,0,41,1120385,291948,90643,66081,16760128,16770493,21221,19679,Tag0,unknown
1610200473094,26,-1193,-2.621337890625E-4,0,0,41,1120385,291948,90643,66081,16760128,16770493,21221,19679,Tag0,unknown
1610200473113,26,-609,-1.338134765625E-4,0,0,41,1120385,291948,90643,66081,16760128,16770493,21221,19679,Tag0,unknown
1610200473127,26,-861,-1.8918457031249998E-4,0,0,41,1120385,291948,90643,66081,16760128,16770493,21221,19679,Tag0,unknown
1610200473154,26,-84,-1.8457031250000004E-5,0,0,41,1120385,291948,90643,66081,16760128,16770493,21221,19679,Tag0,unknown
1610200473164,26,-375,-8.23974609375E-5,0,0,41,1120385,291948,90643,66081,16760128,16770493,21221,19679,Tag0,unknown
1610200473193,26,181,3.9770507812500004E-5,0,0,41,1120385,291948,90643,66081,16760128,16770493,21221,19679,Tag0,unknown
1610200473210,26,75,1.64794921875E-5,0,0,41,1120385,291948,90643,66081,16760128,16770493,21221,19679,Tag0,unknown
1610200473220,26,-27,-5.9326171875000005E-6,0,0,41,1120385,291948,90643,66081,16760128,16770493,21221,19679,Tag0,unknown
1610200473231,26,381,8.371582031250001E-5,0,0,41,1120385,291948,90643,66081,16760128,16770493,21221,19679,Tag0,unknown
1610200473245,26,528,1.16015625E-4,0,0,41,1120385,291948,90643,66081,16760128,16770493,21221,19679,Tag0,unknown
1610200473261,26,163,3.5815429687500006E-5,0,0,41,1120385,291948,90643,66081,16760128,16770493,21221,19679,Tag0,unknown
1610200473277,26,91,1.99951171875E-5,0,0,41,1120385,291948,90643,66081,16760128,16770493,21221,19679,Tag0,unknown
1610200473293,26,310,6.8115234375E-5,0,0,41,1120385,291948,90643,66081,16760128,16770493,21221,19679,Tag0,unknown
1610200473315,26,280,6.15234375E-5,0,0,41,1120385,291948,90643,66081,16760128,16770493,21221,19679,Tag0,unknown
1610200473327,26,86,1.8896484375000003E-5,0,0,41,1120385,291948,90643,66081,16760128,16770493,21221,19679,Tag0,unknown
1610200473355,26,577,1.2678222656250002E-4,0,0,41,1120385,291948,90643,66081,16760128,16770493,21221,19679,Tag0,unknown
1610200473365,26,425,9.33837890625E-5,0,0,41,1120385,291948,90643,66081,16760128,16770493,21221,19679,Tag0,unknown
1610200473380,26,892,1.9599609375000002E-4,0,0,41,1120385,291948,90643,66081,16760128,16770493,21221,19679,Tag0,unknown
1610200473395,26,568,1.248046875E-4,0,0,41,1120385,291948,90643,66081,16760128,16770493,21221,19679,Tag0,unknown
1610200473405,26,-264,-5.80078125E-5,0,0,41,1120385,291948,90643,66081,16760128,16770493,21221,19679,Tag0,unknown
1610200473420,26,-285,-6.26220703125E-5,0,0,41,1120385,291948,90643,66081,16760128,16770493,21221,19679,Tag0,unknown
1610200473430,26,-541,-1.1887207031250001E-4,0,0,41,1120385,291948,90643,66081,16760128,16770493,21221,19679,Tag0,unknown
1610200473456,26,-726,-1.59521484375E-4,0,0,41,1120385,291948,90643,66081,16760128,16770493,21221,19679,Tag0,unknown
1610200473466,26,-1387,-3.047607421875E-4,0,0,41,1120385,291948,90643,66081,16760128,16770493,21221,19679,Tag0,unknown
1610200473479,26,-1345,-2.955322265625E-4,0,0,41,1120385,291948,90643,66081,16760128,16770493,21221,19679,Tag0,unknown
1610200473495,26,-580,-1.2744140625E-4,0,0,41,1120385,291948,90643,66081,16760128,16770493,21221,19679,Tag0,unknown
1610200473512,26,-797,-1.751220703125E-4,0,0,41,1120385,291948,90643,66081,16760128,16770493,21221,19679,Tag0,unknown
1610200473530,26,1217,2.674072265625E-4,0,0,41,1120385,291948,90643,66081,16760128,16770493,21221,19679,Tag0,unknown
1610200473546,26,1344,2.9531250000000006E-4,0,0,41,1120385,291948,90643,66081,16760128,16770493,21221,19679,Tag0,unknown
1610200473566,26,694,1.52490234375E-4,0,0,41,1120385,291948,90643,66081,16760128,16770493,21221,19679,Tag0,unknown
1610200473580,26,628,1.3798828125E-4,0,0,41,1120385,291948,90643,66081,16760128,16770493,21221,19679,Tag0,unknown
1610200473604,26,-396,-8.701171875000001E-5,0,0,41,1120385,291948,90643,66081,16760128,16770493,21221,19679,Tag0,unknown
1610200473614,26,-323,-7.09716796875E-5,0,0,41,1120385,291948,90643,66081,16760128,16770493,21221,19679,Tag0,unknown
1610200473624,26,-531,-1.1667480468750001E-4,0,0,41,1120385,291948,90643,66081,16760128,16770493,21221,19679,Tag0,unknown
1610200473645,26,-259,-5.69091796875E-5,0,0,41,1120385,291948,90643,66081,16760128,16770493,21221,19679,Tag0,unknown
1610200473663,26,-105,-2.30712890625E-5,0,0,41,1120385,291948,90643,66081,16760128,16770493,21221,19679,Tag0,unknown
1610200473683,26,-895,-1.966552734375E-4,0,0,41,1120385,291948,90643,66081,16760128,16770493,21221,19679,Tag0,unknown
1610200473695,26,-455,-9.99755859375E-5,0,0,41,1120385,291948,90643,66081,16760128,16770493,21221,19679,Tag0,unknown
1610200473716,26,-405,-8.89892578125E-5,0,0,41,1120385,291948,90643,66081,16760128,16770493,21221,19679,Tag0,unknown
1610200473728,26,-125,-2.74658203125E-5,0,0,41,1120385,291948,90643,66081,16760128,16770493,21221,19679,Tag0,unknown
1610200473746,26,1577,3.465087890625E-4,0,0,41,1120385,291948,90643,66081,16760128,16770493,21221,19679,Tag0,unknown
1610200473762,26,-1129,-2.480712890625E-4,0,0,41,1120385,291948,90643,66081,16760128,16770493,21221,19679,Tag0,unknown
1610200473785,26,1260,2.7685546875E-4,0,0,41,568528,188149,51438,76832,37707,149662,106999,78405,Tag0,unknown
1610200473795,26,1639,3.601318359375E-4,0,0,41,568528,188149,51438,76832,37707,149662,106999,78405,Tag0,unknown
1610200473817,26,1173,2.577392578125E-4,0,0,41,568528,188149,51438,76832,37707,149662,106999,78405,Tag0,unknown
1610200473831,26,996,2.1884765625E-4,0,0,41,568528,188149,51438,76832,37707,149662,106999,78405,Tag0,unknown
1610200473841,26,-2048,-4.5E-4,0,0,41,568528,188149,51438,76832,37707,149662,106999,78405,Tag0,unknown
1610200473853,26,-1666,-3.66064453125E-4,0,0,41,568528,188149,51438,76832,37707,149662,106999,78405,Tag0,unknown
1610200473863,26,-2048,-4.5E-4,0,0,41,568528,188149,51438,76832,37707,149662,106999,78405,Tag0,unknown
1610200473904,26,-2094,-4.60107421875E-4,0,0,41,568528,188149,51438,76832,37707,149662,106999,78405,Tag0,unknown
1610200473914,26,-1859,-4.084716796875E-4,0,0,41,568528,188149,51438,76832,37707,149662,106999,78405,Tag0,unknown
1610200473928,26,-855,-1.878662109375E-4,0,0,41,568528,188149,51438,76832,37707,149662,106999,78405,Tag0,unknown
1610200473953,26,-576,-1.265625E-4,0,0,41,568528,188149,51438,76832,37707,149662,106999,78405,Tag0,unknown
1610200474007,26,1791,3.935302734375E-4,0,0,41,568528,188149,51438,76832,37707,149662,106999,78405,Tag0,unknown
1610200474028,26,1791,3.935302734375E-4,0,0,41,568528,188149,51438,76832,37707,149662,106999,78405,Tag0,unknown
1610200474038,26,651,1.430419921875E-4,0,0,41,568528,188149,51438,76832,37707,149662,106999,78405,Tag0,unknown
1610200474053,26,-2048,-4.5E-4,0,0,41,568528,188149,51438,76832,37707,149662,106999,78405,Tag0,unknown
1610200474065,26,-2048,-4.5E-4,0,0,41,568528,188149,51438,76832,37707,149662,106999,78405,Tag0,unknown
1610200474075,26,-1271,-2.7927246093750003E-4,0,0,41,568528,188149,51438,76832,37707,149662,106999,78405,Tag0,unknown
1610200474091,26,-1376,-3.0234375000000004E-4,0,0,41,568528,188149,51438,76832,37707,149662,106999,78405,Tag0,unknown
1610200474101,26,-1041,-2.287353515625E-4,0,0,41,568528,188149,51438,76832,37707,149662,106999,78405,Tag0,unknown
1610200474128,26,1450,3.18603515625E-4,0,0,41,568528,188149,51438,76832,37707,149662,106999,78405,Tag0,unknown
1610200474146,26,1917,4.212158203125E-4,0,0,41,568528,188149,51438,76832,37707,149662,106999,78405,Tag0,unknown
1610200474156,26,1791,3.935302734375E-4,0,0,41,568528,188149,51438,76832,37707,149662,106999,78405,Tag0,unknown
1610200474168,26,-2075,-4.559326171875E-4,0,0,41,568528,188149,51438,76832,37707,149662,106999,78405,Tag0,unknown
1610200474179,26,-2048,-4.5E-4,0,0,41,568528,188149,51438,76832,37707,149662,106999,78405,Tag0,unknown
1610200474197,26,-1634,-3.5903320312500003E-4,0,0,41,568528,188149,51438,76832,37707,149662,106999,78405,Tag0,unknown
1610200474213,26,282,6.1962890625E-5,0,0,41,568528,188149,51438,76832,37707,149662,106999,78405,Tag0,unknown
1610200474230,26,306,6.723632812500001E-5,0,0,41,568528,188149,51438,76832,37707,149662,106999,78405,Tag0,unknown
1610200474245,26,-491,-1.078857421875E-4,0,0,41,568528,188149,51438,76832,37707,149662,106999,78405,Tag0,unknown
1610200474282,26,1791,3.935302734375E-4,0,0,41,568528,188149,51438,76832,37707,149662,106999,78405,Tag0,unknown
1610200474295,26,1791,3.935302734375E-4,0,0,41,568528,188149,51438,76832,37707,149662,106999,78405,Tag0,unknown
1610200474305,26,-537,-1.179931640625E-4,0,0,41,568528,188149,51438,76832,37707,149662,106999,78405,Tag0,unknown
1610200474316,26,1791,3.935302734375E-4,0,0,41,568528,188149,51438,76832,37707,149662,106999,78405,Tag0,unknown
1610200474329,26,1791,3.935302734375E-4,0,0,41,568528,188149,51438,76832,37707,149662,106999,78405,Tag0,unknown
1610200474345,26,-2048,-4.5E-4,0,0,41,568528,188149,51438,76832,37707,149662,106999,78405,Tag0,unknown
1610200474362,26,-1993,-4.379150390625E-4,0,0,41,568528,188149,51438,76832,37707,149662,106999,78405,Tag0,unknown
1610200474378,26,1791,3.935302734375E-4,0,0,41,568528,188149,51438,76832,37707,149662,106999,78405,Tag0,unknown
1610200474400,26,1791,3.935302734375E-4,0,0,41,568528,188149,51438,76832,37707,149662,106999,78405,Tag0,unknown
1610200474412,26,1791,3.935302734375E-4,0,0,41,568528,188149,51438,76832,37707,149662,106999,78405,Tag0,unknown
1610200474434,26,-552,-1.212890625E-4,0,0,41,568528,188149,51438,76832,37707,149662,106999,78405,Tag0,unknown
1610200474446,26,-2048,-4.5E-4,0,0,41,568528,188149,51438,76832,37707,149662,106999,78405,Tag0,unknown
1610200474467,26,1791,3.935302734375E-4,0,0,41,568528,188149,51438,76832,37707,149662,106999,78405,Tag0,unknown
1610200474478,26,1791,3.935302734375E-4,0,0,41,568528,188149,51438,76832,37707,149662,106999,78405,Tag0,unknown
1610200474512,26,871,1.9138183593749998E-4,0,0,41,568528,188149,51438,76832,37707,149662,106999,78405,Tag0,unknown
1610200474529,26,843,1.852294921875E-4,0,0,41,568528,188149,51438,76832,37707,149662,106999,78405,Tag0,unknown
1610200474539,26,-825,-1.812744140625E-4,0,0,41,568528,188149,51438,76832,37707,149662,106999,78405,Tag0,unknown
1610200474558,26,1616,3.5507812500000003E-4,0,0,41,568528,188149,51438,76832,37707,149662,106999,78405,Tag0,unknown
1610200474568,26,918,2.01708984375E-4,0,0,41,568528,188149,51438,76832,37707,149662,106999,78405,Tag0,unknown
1610200474579,26,1100,2.4169921875E-4,0,0,41,568528,188149,51438,76832,37707,149662,106999,78405,Tag0,unknown
1610200474595,26,-2048,-4.5E-4,0,0,41,568528,188149,51438,76832,37707,149662,106999,78405,Tag0,unknown
1610200474614,26,-2048,-4.5E-4,0,0,41,568528,188149,51438,76832,37707,149662,106999,78405,Tag0,unknown
1610200474629,26,-2048,-4.5E-4,0,0,41,568528,188149,51438,76832,37707,149662,106999,78405,Tag0,unknown
1610200474639,26,-1421,-3.1223144531250004E-4,0,0,41,568528,188149,51438,76832,37707,149662,106999,78405,Tag0,unknown
1610200474654,26,-1265,-2.779541015625E-4,0,0,41,568528,188149,51438,76832,37707,149662,106999,78405,Tag0,unknown
1610200474664,26,-1381,-3.0344238281250003E-4,0,0,41,568528,188149,51438,76832,37707,149662,106999,78405,Tag0,unknown
1610200474687,26,-753,-1.6545410156250002E-4,0,0,41,568528,188149,51438,76832,37707,149662,106999,78405,Tag0,unknown
1610200474697,26,-723,-1.5886230468750001E-4,0,0,41,568528,188149,51438,76832,37707,149662,106999,78405,Tag0,unknown
1610200474712,26,-563,-1.237060546875E-4,0,0,41,568528,188149,51438,76832,37707,149662,106999,78405,Tag0,unknown
1610200474730,26,-253,-5.55908203125E-5,0,0,41,568528,188149,51438,76832,37707,149662,106999,78405,Tag0,unknown
1610200474745,26,-199,-4.3725585937499995E-5,0,0,41,568528,188149,51438,76832,37707,149662,106999,78405,Tag0,unknown
1610200474777,51,-341,-7.492675781250002E-5,0,0,41,249889,318906,49398,42411,195989,46690,143713,110880,Tag0,unknown
1610200474796,51,-334,-7.338867187500001E-5,0,0,41,249889,318906,49398,42411,195989,46690,143713,110880,Tag0,unknown
1610200474806,51,-261,-5.73486328125E-5,0,0,41,249889,318906,49398,42411,195989,46690,143713,110880,Tag0,unknown
1610200474816,51,41,9.008789062499999E-6,0,0,41,249889,318906,49398,42411,195989,46690,143713,110880,Tag0,unknown
1610200474830,51,26,5.712890625E-6,0,0,41,249889,318906,49398,42411,195989,46690,143713,110880,Tag0,unknown
1610200474845,51,27,5.9326171875000005E-6,0,0,41,249889,318906,49398,42411,195989,46690,143713,110880,Tag0,unknown
1610200474881,51,581,1.276611328125E-4,0,0,41,249889,318906,49398,42411,195989,46690,143713,110880,Tag0,unknown
1610200474895,51,451,9.909667968750001E-5,0,0,41,249889,318906,49398,42411,195989,46690,143713,110880,Tag0,unknown
1610200474921,51,1791,3.935302734375E-4,0,0,41,249889,318906,49398,42411,195989,46690,143713,110880,Tag0,unknown
1610200474931,51,1421,3.1223144531250004E-4,0,0,41,249889,318906,49398,42411,195989,46690,143713,110880,Tag0,unknown
1610200474946,51,-2048,-4.5E-4,0,0,41,249889,318906,49398,42411,195989,46690,143713,110880,Tag0,unknown
1610200474962,51,1791,3.935302734375E-4,0,0,41,249889,318906,49398,42411,195989,46690,143713,110880,Tag0,unknown
1610200474980,51,-595,-1.307373046875E-4,0,0,41,249889,318906,49398,42411,195989,46690,143713,110880,Tag0,unknown
1610200474995,51,-2033,-4.467041015625E-4,0,0,41,249889,318906,49398,42411,195989,46690,143713,110880,Tag0,unknown
1610200475017,51,-1537,-3.377197265625E-4,0,0,41,249889,318906,49398,42411,195989,46690,143713,110880,Tag0,unknown
1610200475029,51,-1229,-2.700439453125E-4,0,0,41,249889,318906,49398,42411,195989,46690,143713,110880,Tag0,unknown
1610200475050,51,-762,-1.6743164062500002E-4,0,0,41,249889,318906,49398,42411,195989,46690,143713,110880,Tag0,unknown
1610200475063,51,-731,-1.6062011718749998E-4,0,0,41,249889,318906,49398,42411,195989,46690,143713,110880,Tag0,unknown
1610200475073,51,-581,-1.276611328125E-4,0,0,41,249889,318906,49398,42411,195989,46690,143713,110880,Tag0,unknown
1610200475089,51,-515,-1.131591796875E-4,0,0,41,249889,318906,49398,42411,195989,46690,143713,110880,Tag0,unknown
1610200475099,51,-194,-4.2626953125E-5,0,0,41,249889,318906,49398,42411,195989,46690,143713,110880,Tag0,unknown
1610200475114,51,-139,-3.0541992187500004E-5,0,0,41,249889,318906,49398,42411,195989,46690,143713,110880,Tag0,unknown
1610200475131,51,-315,-6.92138671875E-5,0,0,41,249889,318906,49398,42411,195989,46690,143713,110880,Tag0,unknown
1610200475145,51,-311,-6.833496093750001E-5,0,0,41,249889,318906,49398,42411,195989,46690,143713,110880,Tag0,unknown
1610200475178,51,-269,-5.9106445312499996E-5,0,0,41,249889,318906,49398,42411,195989,46690,143713,110880,Tag0,unknown
1610200475195,51,-266,-5.8447265625E-5,0,0,41,249889,318906,49398,42411,195989,46690,143713,110880,Tag0,unknown
1610200475205,51,33,7.2509765625E-6,0,0,41,249889,318906,49398,42411,195989,46690,143713,110880,Tag0,unknown
1610200475215,51,49,1.07666015625E-5,0,0,41,249889,318906,49398,42411,195989,46690,143713,110880,Tag0,unknown
1610200475230,51,49,1.07666015625E-5,0,0,41,249889,318906,49398,42411,195989,46690,143713,110880,Tag0,unknown
1610200475245,51,53,1.1645507812500002E-5,0,0,41,249889,318906,49398,42411,195989,46690,143713,110880,Tag0,unknown
1610200475282,51,55,1.20849609375E-5,0,0,41,249889,318906,49398,42411,195989,46690,143713,110880,Tag0,unknown
1610200475296,51,55,1.20849609375E-5,0,0,41,249889,318906,49398,42411,195989,46690,143713,110880,Tag0,unknown
1610200475306,51,60,1.318359375E-5,0,0,41,249889,318906,49398,42411,195989,46690,143713,110880,Tag0,unknown
1610200475332,51,64,1.40625E-5,0,0,41,249889,318906,49398,42411,195989,46690,143713,110880,Tag0,unknown
1610200475345,51,65,1.42822265625E-5,0,0,41,249889,318906,49398,42411,195989,46690,143713,110880,Tag0,unknown
1610200475363,51,66,1.4501953125E-5,0,0,41,249889,318906,49398,42411,195989,46690,143713,110880,Tag0,unknown
1610200475378,51,88,1.93359375E-5,0,0,41,249889,318906,49398,42411,195989,46690,143713,110880,Tag0,unknown
1610200475406,51,587,1.2897949218750003E-4,0,0,41,249889,318906,49398,42411,195989,46690,143713,110880,Tag0,unknown
1610200475416,51,1894,4.1616210937500003E-4,0,0,41,249889,318906,49398,42411,195989,46690,143713,110880,Tag0,unknown
1610200475429,51,1571,3.4519042968750004E-4,0,0,41,249889,318906,49398,42411,195989,46690,143713,110880,Tag0,unknown
1610200475447,51,1791,3.935302734375E-4,0,0,41,249889,318906,49398,42411,195989,46690,143713,110880,Tag0,unknown
1610200475462,51,1791,3.935302734375E-4,0,0,41,249889,318906,49398,42411,195989,46690,143713,110880,Tag0,unknown
1610200475530,51,937,2.058837890625E-4,0,0,41,249889,318906,49398,42411,195989,46690,143713,110880,Tag0,unknown
1610200475547,51,386,8.481445312500001E-5,0,0,41,249889,318906,49398,42411,195989,46690,143713,110880,Tag0,unknown
1610200475557,51,1791,3.935302734375E-4,0,0,41,249889,318906,49398,42411,195989,46690,143713,110880,Tag0,unknown
1610200475567,51,1169,2.568603515625E-4,0,0,41,249889,318906,49398,42411,195989,46690,143713,110880,Tag0,unknown
1610200475607,51,765,1.680908203125E-4,0,0,41,249889,318906,49398,42411,195989,46690,143713,110880,Tag0,unknown
1610200475631,51,695,1.527099609375E-4,0,0,41,249889,318906,49398,42411,195989,46690,143713,110880,Tag0,unknown
1610200475641,51,1075,2.362060546875E-4,0,0,41,249889,318906,49398,42411,195989,46690,143713,110880,Tag0,unknown
1610200475706,51,-2048,-4.5E-4,0,0,41,249889,318906,49398,42411,195989,46690,143713,110880,Tag0,unknown
1610200475716,51,-553,-1.215087890625E-4,0,0,41,249889,318906,49398,42411,195989,46690,143713,110880,Tag0,unknown
1610200475731,51,821,1.803955078125E-4,0,0,41,249889,318906,49398,42411,195989,46690,143713,110880,Tag0,unknown
1610200475741,51,-1699,-3.7331542968750003E-4,0,0,41,249889,318906,49398,42411,195989,46690,143713,110880,Tag0,unknown
1610200475752,51,-1370,-3.01025390625E-4,0,0,41,249889,318906,49398,42411,195989,46690,143713,110880,Tag0,unknown
1610200475766,51,-680,-1.494140625E-4,0,0,41,249889,318906,49398,42411,195989,46690,143713,110880,Tag0,unknown
1610200475781,51,-451,-9.909667968750001E-5,0,0,41,879120,702191,187396,270407,96822,268136,167852,57591,Tag0,unknown
1610200475791,51,-186,-4.0869140625E-5,0,0,41,879120,702191,187396,270407,96822,268136,167852,57591,Tag0,unknown
1610200475801,51,-176,-3.8671875E-5,0,0,41,879120,702191,187396,270407,96822,268136,167852,57591,Tag0,unknown
1610200475812,51,-161,-3.53759765625E-5,0,0,41,879120,702191,187396,270407,96822,268136,167852,57591,Tag0,unknown
1610200475822,51,-341,-7.492675781250002E-5,0,0,41,879120,702191,187396,270407,96822,268136,167852,57591,Tag0,unknown
1610200475840,51,-326,-7.163085937500001E-5,0,0,41,879120,702191,187396,270407,96822,268136,167852,57591,Tag0,unknown
1610200475861,51,-296,-6.50390625E-5,0,0,41,879120,702191,187396,270407,96822,268136,167852,57591,Tag0,unknown
1610200475883,51,11,2.4169921875E-6,0,0,41,879120,702191,187396,270407,96822,268136,167852,57591,Tag0,unknown
1610200475895,51,13,2.8564453125E-6,0,0,41,879120,702191,187396,270407,96822,268136,167852,57591,Tag0,unknown
1610200475933,51,45,9.8876953125E-6,0,0,41,879120,702191,187396,270407,96822,268136,167852,57591,Tag0,unknown
1610200475945,51,52,1.142578125E-5,0,0,41,879120,702191,187396,270407,96822,268136,167852,57591,Tag0,unknown
1610200475971,51,59,1.29638671875E-5,0,0,41,879120,702191,187396,270407,96822,268136,167852,57591,Tag0,unknown
1610200475981,51,59,1.29638671875E-5,0,0,41,879120,702191,187396,270407,96822,268136,167852,57591,Tag0,unknown
1610200476008,51,61,1.34033203125E-5,0,0,41,879120,702191,187396,270407,96822,268136,167852,57591,Tag0,unknown
1610200476018,51,68,1.4941406250000001E-5,0,0,41,879120,702191,187396,270407,96822,268136,167852,57591,Tag0,unknown
1610200476029,51,69,1.51611328125E-5,0,0,41,879120,702191,187396,270407,96822,268136,167852,57591,Tag0,unknown
1610200476048,51,67,1.4721679687500002E-5,0,0,41,879120,702191,187396,270407,96822,268136,167852,57591,Tag0,unknown
1610200476063,51,67,1.4721679687500002E-5,0,0,41,879120,702191,187396,270407,96822,268136,167852,57591,Tag0,unknown
1610200476081,51,-791,-1.738037109375E-4,0,0,41,879120,702191,187396,270407,96822,268136,167852,57591,Tag0,unknown
1610200476095,51,-769,-1.689697265625E-4,0,0,41,879120,702191,187396,270407,96822,268136,167852,57591,Tag0,unknown
1610200476105,51,-197,-4.32861328125E-5,0,0,41,879120,702191,187396,270407,96822,268136,167852,57591,Tag0,unknown
1610200476120,51,-168,-3.691406250000001E-5,0,0,41,879120,702191,187396,270407,96822,268136,167852,57591,Tag0,unknown
1610200476130,51,-151,-3.31787109375E-5,0,0,41,879120,702191,187396,270407,96822,268136,167852,57591,Tag0,unknown
1610200476154,51,-339,-7.448730468750001E-5,0,0,41,879120,702191,187396,270407,96822,268136,167852,57591,Tag0,unknown
1610200476164,51,-327,-7.18505859375E-5,0,0,41,879120,702191,187396,270407,96822,268136,167852,57591,Tag0,unknown
1610200476180,51,0,0.0,0,0,41,879120,702191,187396,270407,96822,268136,167852,57591,Tag0,unknown
1610200476195,51,7,1.5380859375E-6,0,0,41,879120,702191,187396,270407,96822,268136,167852,57591,Tag0,unknown
1610200476212,51,13,2.8564453125E-6,0,0,41,879120,702191,187396,270407,96822,268136,167852,57591,Tag0,unknown
1610200476234,51,42,9.228515625000002E-6,0,0,41,879120,702191,187396,270407,96822,268136,167852,57591,Tag0,unknown
1610200476246,51,48,1.0546875E-5,0,0,41,879120,702191,187396,270407,96822,268136,167852,57591,Tag0,unknown
1610200476267,51,52,1.142578125E-5,0,0,41,879120,702191,187396,270407,96822,268136,167852,57591,Tag0,unknown
1610200476279,51,53,1.1645507812500002E-5,0,0,41,879120,702191,187396,270407,96822,268136,167852,57591,Tag0,unknown
1610200476304,51,57,1.2524414062500001E-5,0,0,41,879120,702191,187396,270407,96822,268136,167852,57591,Tag0,unknown
1610200476314,51,58,1.2744140625E-5,0,0,41,879120,702191,187396,270407,96822,268136,167852,57591,Tag0,unknown
1610200476342,51,1791,3.935302734375E-4,0,0,41,879120,702191,187396,270407,96822,268136,167852,57591,Tag0,unknown
1610200476362,51,1791,3.935302734375E-4,0,0,41,879120,702191,187396,270407,96822,268136,167852,57591,Tag0,unknown
1610200476372,51,-2048,-4.5E-4,0,0,41,879120,702191,187396,270407,96822,268136,167852,57591,Tag0,unknown
1610200476403,51,-2048,-4.5E-4,0,0,41,879120,702191,187396,270407,96822,268136,167852,57591,Tag0,unknown
1610200476413,51,-2048,-4.5E-4,0,0,41,879120,702191,187396,270407,96822,268136,167852,57591,Tag0,unknown
1610200476453,51,-1721,-3.7814941406250004E-4,0,0,41,879120,702191,187396,270407,96822,268136,167852,57591,Tag0,unknown
1610200476463,51,-1909,-4.1945800781250004E-4,0,0,41,879120,702191,187396,270407,96822,268136,167852,57591,Tag0,unknown
1610200476473,51,1791,3.935302734375E-4,0,0,41,879120,702191,187396,270407,96822,268136,167852,57591,Tag0,unknown
1610200476489,51,1791,3.935302734375E-4,0,0,41,879120,702191,187396,270407,96822,268136,167852,57591,Tag0,unknown
1610200476499,51,1791,3.935302734375E-4,0,0,41,879120,702191,187396,270407,96822,268136,167852,57591,Tag0,unknown
1610200476513,51,1494,3.2827148437500006E-4,0,0,41,879120,702191,187396,270407,96822,268136,167852,57591,Tag0,unknown
1610200476533,51,-2048,-4.5E-4,0,0,41,879120,702191,187396,270407,96822,268136,167852,57591,Tag0,unknown
1610200476546,51,1791,3.935302734375E-4,0,0,41,879120,702191,187396,270407,96822,268136,167852,57591,Tag0,unknown
1610200476609,51,-2048,-4.5E-4,0,0,41,879120,702191,187396,270407,96822,268136,167852,57591,Tag0,unknown
1610200476634,51,-1970,-4.32861328125E-4,0,0,41,879120,702191,187396,270407,96822,268136,167852,57591,Tag0,unknown
1610200476644,51,-2048,-4.5E-4,0,0,41,879120,702191,187396,270407,96822,268136,167852,57591,Tag0,unknown
1610200476654,51,-1593,-3.500244140625E-4,0,0,41,879120,702191,187396,270407,96822,268136,167852,57591,Tag0,unknown
1610200476664,51,-423,-9.29443359375E-5,0,0,41,879120,702191,187396,270407,96822,268136,167852,57591,Tag0,unknown
1610200476679,51,1791,3.935302734375E-4,0,0,41,879120,702191,187396,270407,96822,268136,167852,57591,Tag0,unknown
1610200476695,51,1791,3.935302734375E-4,0,0,41,879120,702191,187396,270407,96822,268136,167852,57591,Tag0,unknown
1610200476732,51,1261,2.770751953125E-4,0,0,41,879120,702191,187396,270407,96822,268136,167852,57591,Tag0,unknown
1610200476746,51,1208,2.654296875E-4,0,0,41,879120,702191,187396,270407,96822,268136,167852,57591,Tag0,unknown
1610200476756,51,474,1.0415039062500001E-4,0,0,41,879120,702191,187396,270407,96822,268136,167852,57591,Tag0,unknown
1610200476766,51,561,1.232666015625E-4,0,0,41,2361221,440789,535955,120112,410594,349368,135821,173398,Tag0,unknown
1610200476783,51,138,3.0322265625E-5,0,0,41,2361221,440789,535955,120112,410594,349368,135821,173398,Tag0,unknown
1610200476802,51,339,7.448730468750001E-5,0,0,41,2361221,440789,535955,120112,410594,349368,135821,173398,Tag0,unknown
1610200476812,51,301,6.613769531250001E-5,0,0,41,2361221,440789,535955,120112,410594,349368,135821,173398,Tag0,unknown
1610200476830,51,-32,-7.03125E-6,0,0,41,2361221,440789,535955,120112,410594,349368,135821,173398,Tag0,unknown
1610200476846,51,-515,-1.131591796875E-4,0,0,41,2361221,440789,535955,120112,410594,349368,135821,173398,Tag0,unknown
1610200476864,51,-2048,-4.5E-4,0,0,41,2361221,440789,535955,120112,410594,349368,135821,173398,Tag0,unknown
1610200476881,51,-2048,-4.5E-4,0,0,41,2361221,440789,535955,120112,410594,349368,135821,173398,Tag0,unknown
1610200476891,51,-935,-2.054443359375E-4,0,0,41,2361221,440789,535955,120112,410594,349368,135821,173398,Tag0,unknown
1610200476931,51,-665,-1.461181640625E-4,0,0,41,2361221,440789,535955,120112,410594,349368,135821,173398,Tag0,unknown
1610200476946,51,-855,-1.878662109375E-4,0,0,41,2361221,440789,535955,120112,410594,349368,135821,173398,Tag0,unknown
1610200476982,51,1791,3.935302734375E-4,0,0,41,2361221,440789,535955,120112,410594,349368,135821,173398,Tag0,unknown
1610200476995,51,1791,3.935302734375E-4,0,0,41,2361221,440789,535955,120112,410594,349368,135821,173398,Tag0,unknown
1610200477005,51,763,1.6765136718750002E-4,0,0,41,2361221,440789,535955,120112,410594,349368,135821,173398,Tag0,unknown
1610200477021,51,729,1.601806640625E-4,0,0,41,2361221,440789,535955,120112,410594,349368,135821,173398,Tag0,unknown
1610200477032,51,-1537,-3.377197265625E-4,0,0,41,2361221,440789,535955,120112,410594,349368,135821,173398,Tag0,unknown
1610200477042,51,-2048,-4.5E-4,0,0,41,2361221,440789,535955,120112,410594,349368,135821,173398,Tag0,unknown
1610200477066,51,-1690,-3.71337890625E-4,0,0,41,2361221,440789,535955,120112,410594,349368,135821,173398,Tag0,unknown
1610200477080,51,-1509,-3.315673828125E-4,0,0,41,2361221,440789,535955,120112,410594,349368,135821,173398,Tag0,unknown
1610200477110,51,-883,-1.9401855468750002E-4,0,0,41,2361221,440789,535955,120112,410594,349368,135821,173398,Tag0,unknown
1610200477131,51,-833,-1.830322265625E-4,0,0,41,2361221,440789,535955,120112,410594,349368,135821,173398,Tag0,unknown
1610200477147,51,-553,-1.215087890625E-4,0,0,41,2361221,440789,535955,120112,410594,349368,135821,173398,Tag0,unknown
1610200477164,51,-202,-4.4384765625000004E-5,0,0,41,2361221,440789,535955,120112,410594,349368,135821,173398,Tag0,unknown
1610200477179,51,-185,-4.06494140625E-5,0,0,41,2361221,440789,535955,120112,410594,349368,135821,173398,Tag0,unknown
1610200477209,51,957,2.1027832031250002E-4,0,0,41,2361221,440789,535955,120112,410594,349368,135821,173398,Tag0,unknown
1610200477220,51,1791,3.935302734375E-4,0,0,41,2361221,440789,535955,120112,410594,349368,135821,173398,Tag0,unknown
1610200477230,51,1791,3.935302734375E-4,0,0,41,2361221,440789,535955,120112,410594,349368,135821,173398,Tag0,unknown
1610200477270,51,1791,3.935302734375E-4,0,0,41,2361221,440789,535955,120112,410594,349368,135821,173398,Tag0,unknown
1610200477280,51,1707,3.750732421875E-4,0,0,41,2361221,440789,535955,120112,410594,349368,135821,173398,Tag0,unknown
1610200477308,51,873,1.9182128906250002E-4,0,0,41,2361221,440789,535955,120112,410594,349368,135821,173398,Tag0,unknown
1610200477318,51,409,8.986816406250001E-5,0,0,41,2361221,440789,535955,120112,410594,349368,135821,173398,Tag0,unknown
1610200477329,51,582,1.27880859375E-4,0,0,41,2361221,440789,535955,120112,410594,349368,135821,173398,Tag0,unknown
1610200477349,51,132,2.900390625E-5,0,0,41,2361221,440789,535955,120112,410594,349368,135821,173398,Tag0,unknown
1610200477383,51,-22,-4.833984375E-6,0,0,41,2361221,440789,535955,120112,410594,349368,135821,173398,Tag0,unknown
1610200477397,51,-15,-3.2958984375E-6,0,0,41,2361221,440789,535955,120112,410594,349368,135821,173398,Tag0,unknown
1610200477407,51,-78,-1.7138671875E-5,0,0,41,2361221,440789,535955,120112,410594,349368,135821,173398,Tag0,unknown
1610200477430,51,-96,-2.109375E-5,0,0,41,2361221,440789,535955,120112,410594,349368,135821,173398,Tag0,unknown
1610200477445,51,-101,-2.2192382812500002E-5,0,0,41,2361221,440789,535955,120112,410594,349368,135821,173398,Tag0,unknown
1610200477464,51,122,2.6806640625E-5,0,0,41,2361221,440789,535955,120112,410594,349368,135821,173398,Tag0,unknown
1610200477479,51,121,2.6586914062500003E-5,0,0,41,2361221,440789,535955,120112,410594,349368,135821,173398,Tag0,unknown
1610200477503,51,86,1.8896484375000003E-5,0,0,41,2361221,440789,535955,120112,410594,349368,135821,173398,Tag0,unknown
1610200477513,51,88,1.93359375E-5,0,0,41,2361221,440789,535955,120112,410594,349368,135821,173398,Tag0,unknown
1610200477530,51,-134,-2.9443359375000003E-5,0,0,41,2361221,440789,535955,120112,410594,349368,135821,173398,Tag0,unknown
1610200477546,51,-603,-1.3249511718750002E-4,0,0,41,2361221,440789,535955,120112,410594,349368,135821,173398,Tag0,unknown
1610200477563,51,-731,-1.6062011718749998E-4,0,0,41,2361221,440789,535955,120112,410594,349368,135821,173398,Tag0,unknown
1610200477584,51,-1301,-2.858642578125E-4,0,0,41,2361221,440789,535955,120112,410594,349368,135821,173398,Tag0,unknown
1610200477596,51,101,2.2192382812500002E-5,0,0,41,2361221,440789,535955,120112,410594,349368,135821,173398,Tag0,unknown
1610200477621,51,-162,-3.5595703125E-5,0,0,41,2361221,440789,535955,120112,410594,349368,135821,173398,Tag0,unknown
1610200477631,51,-568,-1.248046875E-4,0,0,41,2361221,440789,535955,120112,410594,349368,135821,173398,Tag0,unknown
1610200477654,51,-633,-1.3908691406250002E-4,0,0,41,2361221,440789,535955,120112,410594,349368,135821,173398,Tag0,unknown
1610200477664,51,-795,-1.746826171875E-4,0,0,41,2361221,440789,535955,120112,410594,349368,135821,173398,Tag0,unknown
1610200477674,51,-456,-1.0019531250000001E-4,0,0,41,2361221,440789,535955,120112,410594,349368,135821,173398,Tag0,unknown
1610200477692,51,-449,-9.86572265625E-5,0,0,41,2361221,440789,535955,120112,410594,349368,135821,173398,Tag0,unknown
1610200477703,51,-1149,-2.5246582031250006E-4,0,0,41,2361221,440789,535955,120112,410594,349368,135821,173398,Tag0,unknown
1610200477728,51,-1348,-2.9619140625E-4,0,0,41,2361221,440789,535955,120112,410594,349368,135821,173398,Tag0,unknown
1610200477746,51,-1013,-2.2258300781250002E-4,0,0,41,2361221,440789,535955,120112,410594,349368,135821,173398,Tag0,unknown
1610200477768,51,1291,2.8366699218750004E-4,0,0,41,2005676,1593863,805801,212727,904703,1209762,370862,53262,Tag0,unknown
1610200477784,51,1217,2.674072265625E-4,0,0,41,2005676,1593863,805801,212727,904703,1209762,370862,53262,Tag0,unknown
1610200477808,51,834,1.83251953125E-4,0,0,41,2005676,1593863,805801,212727,904703,1209762,370862,53262,Tag0,unknown
1610200477818,51,613,1.3469238281250002E-4,0,0,41,2005676,1593863,805801,212727,904703,1209762,370862,53262,Tag0,unknown
1610200477844,51,555,1.219482421875E-4,0,0,41,2005676,1593863,805801,212727,904703,1209762,370862,53262,Tag0,unknown
1610200477863,51,521,1.1447753906250001E-4,0,0,41,2005676,1593863,805801,212727,904703,1209762,370862,53262,Tag0,unknown
1610200477873,51,282,6.1962890625E-5,0,0,41,2005676,1593863,805801,212727,904703,1209762,370862,53262,Tag0,unknown
1610200477891,51,259,5.69091796875E-5,0,0,41,2005676,1593863,805801,212727,904703,1209762,370862,53262,Tag0,unknown
1610200477901,51,-42,-9.228515625000002E-6,0,0,41,2005676,1593863,805801,212727,904703,1209762,370862,53262,Tag0,unknown
1610200477913,51,-128,-2.8125E-5,0,0,41,2005676,1593863,805801,212727,904703,1209762,370862,53262,Tag0,unknown
1610200477931,51,-2048,-4.5E-4,0,0,41,2005676,1593863,805801,212727,904703,1209762,370862,53262,Tag0,unknown
1610200477947,51,-2048,-4.5E-4,0,0,41,2005676,1593863,805801,212727,904703,1209762,370862,53262,Tag0,unknown
1610200477970,51,-1703,-3.741943359375E-4,0,0,41,2005676,1593863,805801,212727,904703,1209762,370862,53262,Tag0,unknown
1610200477980,51,-1459,-3.2058105468750004E-4,0,0,41,2005676,1593863,805801,212727,904703,1209762,370862,53262,Tag0,unknown
1610200477990,51,-907,-1.992919921875E-4,0,0,41,2005676,1593863,805801,212727,904703,1209762,370862,53262,Tag0,unknown
1610200478007,51,-1129,-2.480712890625E-4,0,0,41,2005676,1593863,805801,212727,904703,1209762,370862,53262,Tag0,unknown
1610200478017,51,-826,-1.81494140625E-4,0,0,41,2005676,1593863,805801,212727,904703,1209762,370862,53262,Tag0,unknown
1610200478029,51,-501,-1.100830078125E-4,0,0,41,2005676,1593863,805801,212727,904703,1209762,370862,53262,Tag0,unknown
1610200478046,51,-522,-1.14697265625E-4,0,0,41,2005676,1593863,805801,212727,904703,1209762,370862,53262,Tag0,unknown
1610200478063,51,275,6.04248046875E-5,0,0,41,2005676,1593863,805801,212727,904703,1209762,370862,53262,Tag0,unknown
1610200478080,51,874,1.9204101562500002E-4,0,0,41,2005676,1593863,805801,212727,904703,1209762,370862,53262,Tag0,unknown
1610200478105,51,1188,2.6103515625000004E-4,0,0,41,2005676,1593863,805801,212727,904703,1209762,370862,53262,Tag0,unknown
1610200478115,51,1395,3.065185546875E-4,0,0,41,2005676,1593863,805801,212727,904703,1209762,370862,53262,Tag0,unknown
1610200478129,51,1143,2.511474609375E-4,0,0,41,2005676,1593863,805801,212727,904703,1209762,370862,53262,Tag0,unknown
1610200478147,51,593,1.3029785156250002E-4,0,0,41,2005676,1593863,805801,212727,904703,1209762,370862,53262,Tag0,unknown
1610200478179,51,-317,-6.96533203125E-5,0,0,41,2005676,1593863,805801,212727,904703,1209762,370862,53262,Tag0,unknown
1610200478196,51,-523,-1.149169921875E-4,0,0,41,2005676,1593863,805801,212727,904703,1209762,370862,53262,Tag0,unknown
1610200478206,51,-611,-1.3425292968749999E-4,0,0,41,2005676,1593863,805801,212727,904703,1209762,370862,53262,Tag0,unknown
1610200478218,51,361,7.93212890625E-5,0,0,41,2005676,1593863,805801,212727,904703,1209762,370862,53262,Tag0,unknown
1610200478230,51,337,7.40478515625E-5,0,0,41,2005676,1593863,805801,212727,904703,1209762,370862,53262,Tag0,unknown
1610200478247,51,189,4.15283203125E-5,0,0,41,2005676,1593863,805801,212727,904703,1209762,370862,53262,Tag0,unknown
1610200478263,51,839,1.843505859375E-4,0,0,41,2005676,1593863,805801,212727,904703,1209762,370862,53262,Tag0,unknown
1610200478291,51,1791,3.935302734375E-4,0,0,41,2005676,1593863,805801,212727,904703,1209762,370862,53262,Tag0,unknown
1610200478301,51,1483,3.258544921875E-4,0,0,41,2005676,1593863,805801,212727,904703,1209762,370862,53262,Tag0,unknown
1610200478330,51,1413,3.104736328125E-4,0,0,41,2005676,1593863,805801,212727,904703,1209762,370862,53262,Tag0,unknown
1610200478347,51,1607,3.531005859375E-4,0,0,41,2005676,1593863,805801,212727,904703,1209762,370862,53262,Tag0,unknown
1610200478357,51,-8,-1.7578125E-6,0,0,41,2005676,1593863,805801,212727,904703,1209762,370862,53262,Tag0,unknown
1610200478381,51,-833,-1.830322265625E-4,0,0,41,2005676,1593863,805801,212727,904703,1209762,370862,53262,Tag0,unknown
1610200478396,51,626,1.37548828125E-4,0,0,41,2005676,1593863,805801,212727,904703,1209762,370862,53262,Tag0,unknown
1610200478413,51,823,1.808349609375E-4,0,0,41,2005676,1593863,805801,212727,904703,1209762,370862,53262,Tag0,unknown
1610200478437,51,571,1.254638671875E-4,0,0,41,2005676,1593863,805801,212727,904703,1209762,370862,53262,Tag0,unknown
1610200478447,51,564,1.2392578125E-4,0,0,41,2005676,1593863,805801,212727,904703,1209762,370862,53262,Tag0,unknown
1610200478481,51,381,8.371582031250001E-5,0,0,41,2005676,1593863,805801,212727,904703,1209762,370862,53262,Tag0,unknown
1610200478497,51,128,2.8125E-5,0,0,41,2005676,1593863,805801,212727,904703,1209762,370862,53262,Tag0,unknown
1610200478514,51,-23,-5.0537109375E-6,0,0,41,2005676,1593863,805801,212727,904703,1209762,370862,53262,Tag0,unknown
1610200478539,51,-104,-2.28515625E-5,0,0,41,2005676,1593863,805801,212727,904703,1209762,370862,53262,Tag0,unknown
1610200478549,51,-112,-2.4609375E-5,0,0,41,2005676,1593863,805801,212727,904703,1209762,370862,53262,Tag0,unknown
1610200478564,51,28,6.15234375E-6,0,0,41,2005676,1593863,805801,212727,904703,1209762,370862,53262,Tag0,unknown
1610200478580,51,-88,-1.93359375E-5,0,0,41,2005676,1593863,805801,212727,904703,1209762,370862,53262,Tag0,unknown
1610200478607,51,87,1.91162109375E-5,0,0,41,2005676,1593863,805801,212727,904703,1209762,370862,53262,Tag0,unknown
1610200478617,51,-1203,-2.643310546875E-4,0,0,41,2005676,1593863,805801,212727,904703,1209762,370862,53262,Tag0,unknown
1610200478641,51,-2048,-4.5E-4,0,0,41,2005676,1593863,805801,212727,904703,1209762,370862,53262,Tag0,unknown
1610200478651,51,-2048,-4.5E-4,0,0,41,2005676,1593863,805801,212727,904703,1209762,370862,53262,Tag0,unknown
1610200478664,51,-1899,-4.172607421875E-4,0,0,41,2005676,1593863,805801,212727,904703,1209762,370862,53262,Tag0,unknown
1610200478688,51,-1464,-3.216796875E-4,0,0,41,2005676,1593863,805801,212727,904703,1209762,370862,53262,Tag0,unknown
1610200478698,51,-1884,-4.1396484375000005E-4,0,0,41,2005676,1593863,805801,212727,904703,1209762,370862,53262,Tag0,unknown
1610200478716,51,-2152,-4.7285156249999996E-4,0,0,41,2005676,1593863,805801,212727,904703,1209762,370862,53262,Tag0,unknown
1610200478738,51,-1028,-2.2587890625E-4,0,0,41,2005676,1593863,805801,212727,904703,1209762,370862,53262,Tag0,unknown
1610200478748,51,-1315,-2.889404296875E-4,0,0,41,2005676,1593863,805801,212727,904703,1209762,370862,53262,Tag0,unknown
1610200478778,51,-459,-1.008544921875E-4,0,0,41,16744760,21267,6937,4853,7716,2609,1266,1170,Tag0,unknown
1610200478797,51,-833,-1.830322265625E-4,0,0,41,16744760,21267,6937,4853,7716,2609,1266,1170,Tag0,unknown
1610200478823,51,1224,2.6894531250000003E-4,0,0,41,16744760,21267,6937,4853,7716,2609,1266,1170,Tag0,unknown
1610200478833,51,1145,2.515869140625E-4,0,0,41,16744760,21267,6937,4853,7716,2609,1266,1170,Tag0,unknown
1610200478847,51,1593,3.500244140625E-4,0,0,41,16744760,21267,6937,4853,7716,2609,1266,1170,Tag0,unknown
1610200478866,51,1057,2.322509765625E-4,0,0,41,16744760,21267,6937,4853,7716,2609,1266,1170,Tag0,unknown
1610200478882,51,1791,3.935302734375E-4,0,0,41,16744760,21267,6937,4853,7716,2609,1266,1170,Tag0,unknown
1610200478897,51,1791,3.935302734375E-4,0,0,41,16744760,21267,6937,4853,7716,2609,1266,1170,Tag0,unknown
1610200478929,51,1626,3.57275390625E-4,0,0,41,16744760,21267,6937,4853,7716,2609,1266,1170,Tag0,unknown
1610200478947,51,1553,3.412353515625E-4,0,0,41,16744760,21267,6937,4853,7716,2609,1266,1170,Tag0,unknown
1610200478957,51,827,1.8171386718750002E-4,0,0,41,16744760,21267,6937,4853,7716,2609,1266,1170,Tag0,unknown
1610200479003,51,775,1.702880859375E-4,0,0,41,16744760,21267,6937,4853,7716,2609,1266,1170,Tag0,unknown
1610200479019,51,496,1.08984375E-4,0,0,41,16744760,21267,6937,4853,7716,2609,1266,1170,Tag0,unknown
1610200479029,51,571,1.254638671875E-4,0,0,41,16744760,21267,6937,4853,7716,2609,1266,1170,Tag0,unknown
1610200479039,51,156,3.427734375E-5,0,0,41,16744760,21267,6937,4853,7716,2609,1266,1170,Tag0,unknown
1610200479049,51,-13,-2.8564453125E-6,0,0,41,16744760,21267,6937,4853,7716,2609,1266,1170,Tag0,unknown
1610200479078,51,-2048,-4.5E-4,0,0,41,16744760,21267,6937,4853,7716,2609,1266,1170,Tag0,unknown
1610200479097,51,-2048,-4.5E-4,0,0,41,16744760,21267,6937,4853,7716,2609,1266,1170,Tag0,unknown
1610200479107,51,-1957,-4.3000488281249997E-4,0,0,41,16744760,21267,6937,4853,7716,2609,1266,1170,Tag0,unknown
1610200479126,51,1791,3.935302734375E-4,0,0,41,16744760,21267,6937,4853,7716,2609,1266,1170,Tag0,unknown
1610200479148,51,1791,3.935302734375E-4,0,0,41,16744760,21267,6937,4853,7716,2609,1266,1170,Tag0,unknown
1610200479158,51,-2027,-4.453857421875E-4,0,0,41,16744760,21267,6937,4853,7716,2609,1266,1170,Tag0,unknown
1610200479180,51,1791,3.935302734375E-4,0,0,41,16744760,21267,6937,4853,7716,2609,1266,1170,Tag0,unknown
1610200479190,51,1707,3.750732421875E-4,0,0,41,16744760,21267,6937,4853,7716,2609,1266,1170,Tag0,unknown
1610200479205,51,1895,4.163818359375E-4,0,0,41,16744760,21267,6937,4853,7716,2609,1266,1170,Tag0,unknown
1610200479215,51,1831,4.0231933593750003E-4,0,0,41,16744760,21267,6937,4853,7716,2609,1266,1170,Tag0,unknown
1610200479239,51,939,2.0632324218750002E-4,0,0,41,16744760,21267,6937,4853,7716,2609,1266,1170,Tag0,unknown
1610200479249,51,1041,2.287353515625E-4,0,0,41,16744760,21267,6937,4853,7716,2609,1266,1170,Tag0,unknown
1610200479264,51,389,8.54736328125E-5,0,0,41,16744760,21267,6937,4853,7716,2609,1266,1170,Tag0,unknown
1610200479281,51,512,1.125E-4,0,0,41,16744760,21267,6937,4853,7716,2609,1266,1170,Tag0,unknown
1610200479297,51,166,3.6474609375E-5,0,0,41,16744760,21267,6937,4853,7716,2609,1266,1170,Tag0,unknown
1610200479314,51,349,7.668457031250001E-5,0,0,41,16744760,21267,6937,4853,7716,2609,1266,1170,Tag0,unknown
1610200479330,51,284,6.240234375E-5,0,0,41,16744760,21267,6937,4853,7716,2609,1266,1170,Tag0,unknown
1610200479352,51,-78,-1.7138671875E-5,0,0,41,16744760,21267,6937,4853,7716,2609,1266,1170,Tag0,unknown
1610200479364,51,-83,-1.82373046875E-5,0,0,41,16744760,21267,6937,4853,7716,2609,1266,1170,Tag0,unknown
1610200479386,51,-121,-2.6586914062500003E-5,0,0,41,16744760,21267,6937,4853,7716,2609,1266,1170,Tag0,unknown
1610200479397,51,-123,-2.70263671875E-5,0,0,41,16744760,21267,6937,4853,7716,2609,1266,1170,Tag0,unknown
1610200479407,51,93,2.04345703125E-5,0,0,41,16744760,21267,6937,4853,7716,2609,1266,1170,Tag0,unknown
1610200479425,51,91,1.99951171875E-5,0,0,41,16744760,21267,6937,4853,7716,2609,1266,1170,Tag0,unknown
1610200479435,51,87,1.91162109375E-5,0,0,41,16744760,21267,6937,4853,7716,2609,1266,1170,Tag0,unknown
1610200479460,51,83,1.82373046875E-5,0,0,41,16744760,21267,6937,4853,7716,2609,1266,1170,Tag0,unknown
1610200479480,51,75,1.64794921875E-5,0,0,41,16744760,21267,6937,4853,7716,2609,1266,1170,Tag0,unknown
1610200479498,51,73,1.6040039062500002E-5,0,0,41,16744760,21267,6937,4853,7716,2609,1266,1170,Tag0,unknown
1610200479513,51,73,1.6040039062500002E-5,0,0,41,16744760,21267,6937,4853,7716,2609,1266,1170,Tag0,unknown
1610200479533,51,70,1.5380859375E-5,0,0,41,16744760,21267,6937,4853,7716,2609,1266,1170,Tag0,unknown
1610200479547,51,71,1.56005859375E-5,0,0,41,16744760,21267,6937,4853,7716,2609,1266,1170,Tag0,unknown
1610200479572,51,7,1.5380859375E-6,0,0,41,16744760,21267,6937,4853,7716,2609,1266,1170,Tag0,unknown
1610200479582,51,-1449,-3.183837890625E-4,0,0,41,16744760,21267,6937,4853,7716,2609,1266,1170,Tag0,unknown
1610200479605,51,-831,-1.825927734375E-4,0,0,41,16744760,21267,6937,4853,7716,2609,1266,1170,Tag0,unknown
1610200479616,51,-887,-1.9489746093750003E-4,0,0,41,16744760,21267,6937,4853,7716,2609,1266,1170,Tag0,unknown
1610200479626,51,-369,-8.10791015625E-5,0,0,41,16744760,21267,6937,4853,7716,2609,1266,1170,Tag0,unknown
1610200479645,51,-804,-1.7666015625E-4,0,0,41,16744760,21267,6937,4853,7716,2609,1266,1170,Tag0,unknown
1610200479664,51,-826,-1.81494140625E-4,0,0,41,16744760,21267,6937,4853,7716,2609,1266,1170,Tag0,unknown
1610200479684,51,-127,-2.79052734375E-5,0,0,41,16744760,21267,6937,4853,7716,2609,1266,1170,Tag0,unknown
1610200479699,51,51,1.1206054687499999E-5,0,0,41,16744760,21267,6937,4853,7716,2609,1266,1170,Tag0,unknown
1610200479709,51,1085,2.384033203125E-4,0,0,41,16744760,21267,6937,4853,7716,2609,1266,1170,Tag0,unknown
1610200479725,51,873,1.9182128906250002E-4,0,0,41,16744760,21267,6937,4853,7716,2609,1266,1170,Tag0,unknown
1610200479735,51,505,1.109619140625E-4,0,0,41,16744760,21267,6937,4853,7716,2609,1266,1170,Tag0,unknown
1610200479748,51,581,1.276611328125E-4,0,0,41,16744760,21267,6937,4853,7716,2609,1266,1170,Tag0,unknown
1610200479767,51,129,2.8344726562500002E-5,0,0,41,2270902,1626144,1080659,156227,238227,185122,85783,16753316,Tag0,unknown
1610200479780,51,301,6.613769531250001E-5,0,0,41,2270902,1626144,1080659,156227,238227,185122,85783,16753316,Tag0,unknown
1610200479796,51,293,6.43798828125E-5,0,0,41,2270902,1626144,1080659,156227,238227,185122,85783,16753316,Tag0,unknown
1610200479818,51,-39,-8.5693359375E-6,0,0,41,2270902,1626144,1080659,156227,238227,185122,85783,16753316,Tag0,unknown
1610200479830,51,-45,-9.8876953125E-6,0,0,41,2270902,1626144,1080659,156227,238227,185122,85783,16753316,Tag0,unknown
1610200479840,51,-125,-2.74658203125E-5,0,0,41,2270902,1626144,1080659,156227,238227,185122,85783,16753316,Tag0,unknown
1610200479857,51,125,2.74658203125E-5,0,0,41,2270902,1626144,1080659,156227,238227,185122,85783,16753316,Tag0,unknown
1610200479867,51,113,2.48291015625E-5,0,0,41,2270902,1626144,1080659,156227,238227,185122,85783,16753316,Tag0,unknown
1610200479906,51,103,2.26318359375E-5,0,0,41,2270902,1626144,1080659,156227,238227,185122,85783,16753316,Tag0,unknown
1610200479916,51,96,2.109375E-5,0,0,41,2270902,1626144,1080659,156227,238227,185122,85783,16753316,Tag0,unknown
1610200479933,51,-2048,-4.5E-4,0,0,41,2270902,1626144,1080659,156227,238227,185122,85783,16753316,Tag0,unknown
1610200479947,51,-2048,-4.5E-4,0,0,41,2270902,1626144,1080659,156227,238227,185122,85783,16753316,Tag0,unknown
1610200479963,51,-2048,-4.5E-4,0,0,41,2270902,1626144,1080659,156227,238227,185122,85783,16753316,Tag0,unknown
1610200479987,51,-1956,-4.2978515625000005E-4,0,0,41,2270902,1626144,1080659,156227,238227,185122,85783,16753316,Tag0,unknown
1610200479997,51,-2138,-4.6977539062500003E-4,0,0,41,2270902,1626144,1080659,156227,238227,185122,85783,16753316,Tag0,unknown
1610200480023,51,-544,-1.1953125000000001E-4,0,0,41,2270902,1626144,1080659,156227,238227,185122,85783,16753316,Tag0,unknown
1610200480033,51,-46,-1.0107421875E-5,0,0,41,2270902,1626144,1080659,156227,238227,185122,85783,16753316,Tag0,unknown
1610200480058,51,1013,2.2258300781250002E-4,0,0,41,2270902,1626144,1080659,156227,238227,185122,85783,16753316,Tag0,unknown
1610200480068,51,1791,3.935302734375E-4,0,0,41,2270902,1626144,1080659,156227,238227,185122,85783,16753316,Tag0,unknown
1610200480080,51,1791,3.935302734375E-4,0,0,41,2270902,1626144,1080659,156227,238227,185122,85783,16753316,Tag0,unknown
1610200480098,51,1441,3.1662597656250004E-4,0,0,41,2270902,1626144,1080659,156227,238227,185122,85783,16753316,Tag0,unknown
1610200480115,51,1218,2.67626953125E-4,0,0,41,2270902,1626144,1080659,156227,238227,185122,85783,16753316,Tag0,unknown
1610200480137,51,1074,2.35986328125E-4,0,0,41,2270902,1626144,1080659,156227,238227,185122,85783,16753316,Tag0,unknown
1610200480147,51,1035,2.274169921875E-4,0,0,41,2270902,1626144,1080659,156227,238227,185122,85783,16753316,Tag0,unknown
1610200480163,51,577,1.2678222656250002E-4,0,0,41,2270902,1626144,1080659,156227,238227,185122,85783,16753316,Tag0,unknown
1610200480180,51,289,6.35009765625E-5,0,0,41,2270902,1626144,1080659,156227,238227,185122,85783,16753316,Tag0,unknown
1610200480197,51,256,5.625E-5,0,0,41,2270902,1626144,1080659,156227,238227,185122,85783,16753316,Tag0,unknown
1610200480238,51,-39,-8.5693359375E-6,0,0,41,2270902,1626144,1080659,156227,238227,185122,85783,16753316,Tag0,unknown
1610200480248,51,-95,-2.08740234375E-5,0,0,41,2270902,1626144,1080659,156227,238227,185122,85783,16753316,Tag0,unknown
1610200480258,51,-243,-5.33935546875E-5,0,0,41,2270902,1626144,1080659,156227,238227,185122,85783,16753316,Tag0,unknown
1610200480268,51,-1214,-2.6674804687500006E-4,0,0,41,2270902,1626144,1080659,156227,238227,185122,85783,16753316,Tag0,unknown
1610200480286,51,-1255,-2.757568359375E-4,0,0,41,2270902,1626144,1080659,156227,238227,185122,85783,16753316,Tag0,unknown
1610200480298,51,-1381,-3.0344238281250003E-4,0,0,41,2270902,1626144,1080659,156227,238227,185122,85783,16753316,Tag0,unknown
1610200480321,51,-1700,-3.7353515625E-4,0,0,41,2270902,1626144,1080659,156227,238227,185122,85783,16753316,Tag0,unknown
1610200480331,51,-1810,-3.97705078125E-4,0,0,41,2270902,1626144,1080659,156227,238227,185122,85783,16753316,Tag0,unknown
1610200480348,51,-1699,-3.7331542968750003E-4,0,0,41,2270902,1626144,1080659,156227,238227,185122,85783,16753316,Tag0,unknown
1610200480364,51,-1697,-3.7287597656249997E-4,0,0,41,2270902,1626144,1080659,156227,238227,185122,85783,16753316,Tag0,unknown
1610200480405,51,-1461,-3.2102050781250004E-4,0,0,41,2270902,1626144,1080659,156227,238227,185122,85783,16753316,Tag0,unknown
1610200480415,51,-1265,-2.779541015625E-4,0,0,41,2270902,1626144,1080659,156227,238227,185122,85783,16753316,Tag0,unknown
1610200480431,51,-468,-1.0283203124999999E-4,0,0,41,2270902,1626144,1080659,156227,238227,185122,85783,16753316,Tag0,unknown
1610200480447,51,-427,-9.382324218750001E-5,0,0,41,2270902,1626144,1080659,156227,238227,185122,85783,16753316,Tag0,unknown
1610200480464,51,-577,-1.2678222656250002E-4,0,0,41,2270902,1626144,1080659,156227,238227,185122,85783,16753316,Tag0,unknown
1610200480489,51,-343,-7.53662109375E-5,0,0,41,2270902,1626144,1080659,156227,238227,185122,85783,16753316,Tag0,unknown
1610200480499,51,-345,-7.58056640625E-5,0,0,41,2270902,1626144,1080659,156227,238227,185122,85783,16753316,Tag0,unknown
1610200480531,51,453,9.95361328125E-5,0,0,41,2270902,1626144,1080659,156227,238227,185122,85783,16753316,Tag0,unknown
1610200480546,51,425,9.33837890625E-5,0,0,41,2270902,1626144,1080659,156227,238227,185122,85783,16753316,Tag0,unknown
1610200480556,51,1791,3.935302734375E-4,0,0,41,2270902,1626144,1080659,156227,238227,185122,85783,16753316,Tag0,unknown
1610200480580,51,1791,3.935302734375E-4,0,0,41,2270902,1626144,1080659,156227,238227,185122,85783,16753316,Tag0,unknown
1610200480596,51,1791,3.935302734375E-4,0,0,41,2270902,1626144,1080659,156227,238227,185122,85783,16753316,Tag0,unknown
1610200480622,51,1489,3.271728515625E-4,0,0,41,2270902,1626144,1080659,156227,238227,185122,85783,16753316,Tag0,unknown
1610200480632,51,1258,2.76416015625E-4,0,0,41,2270902,1626144,1080659,156227,238227,185122,85783,16753316,Tag0,unknown
1610200480658,51,-2048,-4.5E-4,0,0,41,2270902,1626144,1080659,156227,238227,185122,85783,16753316,Tag0,unknown
1610200480668,51,-2048,-4.5E-4,0,0,41,2270902,1626144,1080659,156227,238227,185122,85783,16753316,Tag0,unknown
1610200480679,51,-2048,-4.5E-4,0,0,41,2270902,1626144,1080659,156227,238227,185122,85783,16753316,Tag0,unknown
1610200480696,51,-2048,-4.5E-4,0,0,41,2270902,1626144,1080659,156227,238227,185122,85783,16753316,Tag0,unknown
1610200480732,51,-1561,-3.429931640625E-4,0,0,41,2270902,1626144,1080659,156227,238227,185122,85783,16753316,Tag0,unknown
1610200480747,51,-1254,-2.75537109375E-4,0,0,41,2270902,1626144,1080659,156227,238227,185122,85783,16753316,Tag0,unknown
1610200480757,51,1445,3.175048828125E-4,0,0,41,740356,13174,12583,12926,15652,20366,12315,4980,Tag0,unknown
1610200480776,51,1791,3.935302734375E-4,0,0,41,740356,13174,12583,12926,15652,20366,12315,4980,Tag0,unknown
1610200480786,51,1791,3.935302734375E-4,0,0,41,740356,13174,12583,12926,15652,20366,12315,4980,Tag0,unknown
1610200480796,51,1791,3.935302734375E-4,0,0,41,740356,13174,12583,12926,15652,20366,12315,4980,Tag0,unknown
1610200480817,51,1329,2.9201660156250004E-4,0,0,41,740356,13174,12583,12926,15652,20366,12315,4980,Tag0,unknown
1610200480852,51,765,1.680908203125E-4,0,0,41,740356,13174,12583,12926,15652,20366,12315,4980,Tag0,unknown
1610200480865,51,756,1.6611328125E-4,0,0,41,740356,13174,12583,12926,15652,20366,12315,4980,Tag0,unknown
1610200480882,51,185,4.06494140625E-5,0,0,41,740356,13174,12583,12926,15652,20366,12315,4980,Tag0,unknown
1610200480898,51,376,8.261718750000001E-5,0,0,41,740356,13174,12583,12926,15652,20366,12315,4980,Tag0,unknown
1610200480917,51,294,6.4599609375E-5,0,0,41,740356,13174,12583,12926,15652,20366,12315,4980,Tag0,unknown
1610200480931,51,299,6.56982421875E-5,0,0,41,740356,13174,12583,12926,15652,20366,12315,4980,Tag0,unknown
1610200480955,51,-60,-1.318359375E-5,0,0,41,740356,13174,12583,12926,15652,20366,12315,4980,Tag0,unknown
1610200480965,51,-56,-1.23046875E-5,0,0,41,740356,13174,12583,12926,15652,20366,12315,4980,Tag0,unknown
1610200480975,51,112,2.4609375E-5,0,0,41,740356,13174,12583,12926,15652,20366,12315,4980,Tag0,unknown
1610200480985,51,-121,-2.6586914062500003E-5,0,0,41,740356,13174,12583,12926,15652,20366,12315,4980,Tag0,unknown
1610200481003,51,113,2.48291015625E-5,0,0,41,740356,13174,12583,12926,15652,20366,12315,4980,Tag0,unknown
1610200481016,51,113,2.48291015625E-5,0,0,41,740356,13174,12583,12926,15652,20366,12315,4980,Tag0,unknown
1610200481033,51,-109,-2.39501953125E-5,0,0,41,740356,13174,12583,12926,15652,20366,12315,4980,Tag0,unknown
1610200481048,51,114,2.5048828125000003E-5,0,0,41,740356,13174,12583,12926,15652,20366,12315,4980,Tag0,unknown
1610200481064,51,-306,-6.723632812500001E-5,0,0,41,740356,13174,12583,12926,15652,20366,12315,4980,Tag0,unknown
1610200481126,51,-1872,-4.1132812499999996E-4,0,0,41,740356,13174,12583,12926,15652,20366,12315,4980,Tag0,unknown
1610200481136,51,-2048,-4.5E-4,0,0,41,740356,13174,12583,12926,15652,20366,12315,4980,Tag0,unknown
1610200481147,51,-2048,-4.5E-4,0,0,41,740356,13174,12583,12926,15652,20366,12315,4980,Tag0,unknown
1610200481166,51,-374,-8.2177734375E-5,0,0,41,740356,13174,12583,12926,15652,20366,12315,4980,Tag0,unknown
1610200481182,51,86,1.8896484375000003E-5,0,0,41,740356,13174,12583,12926,15652,20366,12315,4980,Tag0,unknown
1610200481207,51,-929,-2.0412597656250002E-4,0,0,41,740356,13174,12583,12926,15652,20366,12315,4980,Tag0,unknown
1610200481217,51,-2048,-4.5E-4,0,0,41,740356,13174,12583,12926,15652,20366,12315,4980,Tag0,unknown
1610200481245,51,-2153,-4.730712890625E-4,0,0,41,740356,13174,12583,12926,15652,20366,12315,4980,Tag0,unknown
1610200481263,51,-2081,-4.572509765625E-4,0,0,41,740356,13174,12583,12926,15652,20366,12315,4980,Tag0,unknown
1610200481288,51,-707,-1.5534667968750002E-4,0,0,41,740356,13174,12583,12926,15652,20366,12315,4980,Tag0,unknown
1610200481299,51,-677,-1.4875488281250002E-4,0,0,41,740356,13174,12583,12926,15652,20366,12315,4980,Tag0,unknown
1610200481314,51,1915,4.207763671875E-4,0,0,41,740356,13174,12583,12926,15652,20366,12315,4980,Tag0,unknown
1610200481332,51,1791,3.935302734375E-4,0,0,41,740356,13174,12583,12926,15652,20366,12315,4980,Tag0,unknown
1610200481347,51,1791,3.935302734375E-4,0,0,41,740356,13174,12583,12926,15652,20366,12315,4980,Tag0,unknown
1610200481367,51,1791,3.935302734375E-4,0,0,41,740356,13174,12583,12926,15652,20366,12315,4980,Tag0,unknown
1610200481381,51,1791,3.935302734375E-4,0,0,41,740356,13174,12583,12926,15652,20366,12315,4980,Tag0,unknown
1610200481405,51,597,1.3117675781250003E-4,0,0,41,740356,13174,12583,12926,15652,20366,12315,4980,Tag0,unknown
1610200481415,51,65,1.42822265625E-5,0,0,41,740356,13174,12583,12926,15652,20366,12315,4980,Tag0,unknown
1610200481430,51,-711,-1.562255859375E-4,0,0,41,740356,13174,12583,12926,15652,20366,12315,4980,Tag0,unknown
1610200481453,51,35,7.6904296875E-6,0,0,41,740356,13174,12583,12926,15652,20366,12315,4980,Tag0,unknown
1610200481463,51,-119,-2.6147460937500004E-5,0,0,41,740356,13174,12583,12926,15652,20366,12315,4980,Tag0,unknown
1610200481484,51,710,1.56005859375E-4,0,0,41,740356,13174,12583,12926,15652,20366,12315,4980,Tag0,unknown
1610200481497,51,885,1.944580078125E-4,0,0,41,740356,13174,12583,12926,15652,20366,12315,4980,Tag0,unknown
1610200481513,51,826,1.81494140625E-4,0,0,41,740356,13174,12583,12926,15652,20366,12315,4980,Tag0,unknown
1610200481530,51,199,4.3725585937499995E-5,0,0,41,740356,13174,12583,12926,15652,20366,12315,4980,Tag0,unknown
1610200481558,51,354,7.778320312500001E-5,0,0,41,740356,13174,12583,12926,15652,20366,12315,4980,Tag0,unknown
1610200481568,51,325,7.14111328125E-5,0,0,41,740356,13174,12583,12926,15652,20366,12315,4980,Tag0,unknown
1610200481580,51,-279,-6.13037109375E-5,0,0,41,740356,13174,12583,12926,15652,20366,12315,4980,Tag0,unknown
1610200481598,51,-213,-4.68017578125E-5,0,0,41,740356,13174,12583,12926,15652,20366,12315,4980,Tag0,unknown
1610200481614,51,-186,-4.0869140625E-5,0,0,41,740356,13174,12583,12926,15652,20366,12315,4980,Tag0,unknown
1610200481631,51,-931,-2.045654296875E-4,0,0,41,740356,13174,12583,12926,15652,20366,12315,4980,Tag0,unknown
1610200481649,51,-698,-1.5336914062500002E-4,0,0,41,740356,13174,12583,12926,15652,20366,12315,4980,Tag0,unknown
1610200481684,51,-1559,-3.4255371093750006E-4,0,0,41,740356,13174,12583,12926,15652,20366,12315,4980,Tag0,unknown
1610200481698,51,-1501,-3.298095703125E-4,0,0,41,740356,13174,12583,12926,15652,20366,12315,4980,Tag0,unknown
1610200481716,51,-1223,-2.687255859375E-4,0,0,41,740356,13174,12583,12926,15652,20366,12315,4980,Tag0,unknown
1610200481766,51,-1129,-2.480712890625E-4,0,0,41,421434,10724,2899,3739,5553,7684,1147,537,Tag0,unknown
1610200481788,51,-666,-1.4633789062499998E-4,0,0,41,421434,10724,2899,3739,5553,7684,1147,537,Tag0,unknown
1610200481821,51,-685,-1.505126953125E-4,0,0,41,421434,10724,2899,3739,5553,7684,1147,537,Tag0,unknown
1610200481831,51,-919,-2.0192871093750001E-4,0,0,41,421434,10724,2899,3739,5553,7684,1147,537,Tag0,unknown
1610200481868,51,-1061,-2.331298828125E-4,0,0,41,421434,10724,2899,3739,5553,7684,1147,537,Tag0,unknown
1610200481880,51,-735,-1.614990234375E-4,0,0,41,421434,10724,2899,3739,5553,7684,1147,537,Tag0,unknown
1610200481890,51,-866,-1.90283203125E-4,0,0,41,421434,10724,2899,3739,5553,7684,1147,537,Tag0,unknown
1610200481904,51,-813,-1.786376953125E-4,0,0,41,421434,10724,2899,3739,5553,7684,1147,537,Tag0,unknown
1610200481914,51,-790,-1.73583984375E-4,0,0,41,421434,10724,2899,3739,5553,7684,1147,537,Tag0,unknown
1610200481938,51,793,1.742431640625E-4,0,0,41,421434,10724,2899,3739,5553,7684,1147,537,Tag0,unknown
1610200481949,51,1091,2.397216796875E-4,0,0,41,421434,10724,2899,3739,5553,7684,1147,537,Tag0,unknown
1610200481959,51,1791,3.935302734375E-4,0,0,41,421434,10724,2899,3739,5553,7684,1147,537,Tag0,unknown
1610200481984,51,1773,3.8957519531250003E-4,0,0,41,421434,10724,2899,3739,5553,7684,1147,537,Tag0,unknown
1610200481998,51,1274,2.79931640625E-4,0,0,41,421434,10724,2899,3739,5553,7684,1147,537,Tag0,unknown
1610200482027,51,-194,-4.2626953125E-5,0,0,41,421434,10724,2899,3739,5553,7684,1147,537,Tag0,unknown
1610200482037,51,-150,-3.2958984375E-5,0,0,41,421434,10724,2899,3739,5553,7684,1147,537,Tag0,unknown
1610200482047,51,-553,-1.215087890625E-4,0,0,41,421434,10724,2899,3739,5553,7684,1147,537,Tag0,unknown
1610200482082,51,-537,-1.179931640625E-4,0,0,41,421434,10724,2899,3739,5553,7684,1147,537,Tag0,unknown
1610200482098,51,-379,-8.32763671875E-5,0,0,41,421434,10724,2899,3739,5553,7684,1147,537,Tag0,unknown
1610200482108,51,1034,2.27197265625E-4,0,0,41,421434,10724,2899,3739,5553,7684,1147,537,Tag0,unknown
1610200482127,51,404,8.876953125000001E-5,0,0,41,421434,10724,2899,3739,5553,7684,1147,537,Tag0,unknown
1610200482147,51,386,8.481445312500001E-5,0,0,41,421434,10724,2899,3739,5553,7684,1147,537,Tag0,unknown
1610200482165,51,177,3.8891601562500006E-5,0,0,41,421434,10724,2899,3739,5553,7684,1147,537,Tag0,unknown
1610200482175,51,282,6.1962890625E-5,0,0,41,421434,10724,2899,3739,5553,7684,1147,537,Tag0,unknown
1610200482185,51,-34,-7.4707031250000005E-6,0,0,41,421434,10724,2899,3739,5553,7684,1147,537,Tag0,unknown
1610200482198,51,-42,-9.228515625000002E-6,0,0,41,421434,10724,2899,3739,5553,7684,1147,537,Tag0,unknown
1610200482214,51,-45,-9.8876953125E-6,0,0,41,421434,10724,2899,3739,5553,7684,1147,537,Tag0,unknown
1610200482231,51,5,1.0986328125E-6,0,0,41,421434,10724,2899,3739,5553,7684,1147,537,Tag0,unknown
1610200482248,51,-309,-6.78955078125E-5,0,0,41,421434,10724,2899,3739,5553,7684,1147,537,Tag0,unknown
1610200482258,51,-284,-6.240234375E-5,0,0,41,421434,10724,2899,3739,5553,7684,1147,537,Tag0,unknown
1610200482270,51,-94,-2.0654296875000002E-5,0,0,41,421434,10724,2899,3739,5553,7684,1147,537,Tag0,unknown
1610200482282,51,-110,-2.4169921875E-5,0,0,41,421434,10724,2899,3739,5553,7684,1147,537,Tag0,unknown
1610200482298,51,-106,-2.3291015625000003E-5,0,0,41,421434,10724,2899,3739,5553,7684,1147,537,Tag0,unknown
1610200482315,51,123,2.70263671875E-5,0,0,41,421434,10724,2899,3739,5553,7684,1147,537,Tag0,unknown
1610200482345,51,-285,-6.26220703125E-5,0,0,41,421434,10724,2899,3739,5553,7684,1147,537,Tag0,unknown
1610200482365,51,-323,-7.09716796875E-5,0,0,41,421434,10724,2899,3739,5553,7684,1147,537,Tag0,unknown
1610200482386,51,-515,-1.131591796875E-4,0,0,41,421434,10724,2899,3739,5553,7684,1147,537,Tag0,unknown
1610200482400,51,3,6.591796875E-7,0,0,41,421434,10724,2899,3739,5553,7684,1147,537,Tag0,unknown
1610200482420,51,-2048,-4.5E-4,0,0,41,421434,10724,2899,3739,5553,7684,1147,537,Tag0,unknown
1610200482437,51,-2048,-4.5E-4,0,0,41,421434,10724,2899,3739,5553,7684,1147,537,Tag0,unknown
1610200482447,51,-2086,-4.5834960937500004E-4,0,0,41,421434,10724,2899,3739,5553,7684,1147,537,Tag0,unknown
1610200482457,51,-1547,-3.3991699218749997E-4,0,0,41,421434,10724,2899,3739,5553,7684,1147,537,Tag0,unknown
1610200482467,51,-1403,-3.0827636718750004E-4,0,0,41,421434,10724,2899,3739,5553,7684,1147,537,Tag0,unknown
1610200482496,51,-736,-1.6171875E-4,0,0,41,421434,10724,2899,3739,5553,7684,1147,537,Tag0,unknown
1610200482514,51,-709,-1.557861328125E-4,0,0,41,421434,10724,2899,3739,5553,7684,1147,537,Tag0,unknown
1610200482536,51,353,7.75634765625E-5,0,0,41,421434,10724,2899,3739,5553,7684,1147,537,Tag0,unknown
1610200482548,51,211,4.63623046875E-5,0,0,41,421434,10724,2899,3739,5553,7684,1147,537,Tag0,unknown
1610200482571,51,1791,3.935302734375E-4,0,0,41,421434,10724,2899,3739,5553,7684,1147,537,Tag0,unknown
1610200482581,51,1791,3.935302734375E-4,0,0,41,421434,10724,2899,3739,5553,7684,1147,537,Tag0,unknown
1610200482591,51,1449,3.183837890625E-4,0,0,41,421434,10724,2899,3739,5553,7684,1147,537,Tag0,unknown
1610200482608,51,1219,2.6784667968750005E-4,0,0,41,421434,10724,2899,3739,5553,7684,1147,537,Tag0,unknown
1610200482618,51,1574,3.45849609375E-4,0,0,41,421434,10724,2899,3739,5553,7684,1147,537,Tag0,unknown
1610200482631,51,1533,3.3684082031250004E-4,0,0,41,421434,10724,2899,3739,5553,7684,1147,537,Tag0,unknown
1610200482647,51,1413,3.104736328125E-4,0,0,41,421434,10724,2899,3739,5553,7684,1147,537,Tag0,unknown
1610200482665,51,234,5.1416015624999996E-5,0,0,41,421434,10724,2899,3739,5553,7684,1147,537,Tag0,unknown
1610200482683,51,1094,2.40380859375E-4,0,0,41,421434,10724,2899,3739,5553,7684,1147,537,Tag0,unknown
1610200482697,51,1053,2.3137207031250002E-4,0,0,41,421434,10724,2899,3739,5553,7684,1147,537,Tag0,unknown
1610200482717,51,-341,-7.492675781250002E-5,0,0,41,421434,10724,2899,3739,5553,7684,1147,537,Tag0,unknown
1610200482730,51,-513,-1.127197265625E-4,0,0,41,421434,10724,2899,3739,5553,7684,1147,537,Tag0,unknown
1610200482756,51,-1459,-3.2058105468750004E-4,0,0,41,720427,21954,29653,16118,16748875,17170,4339,6787,Tag0,unknown
1610200482766,51,-1185,-2.603759765625E-4,0,0,41,720427,21954,29653,16118,16748875,17170,4339,6787,Tag0,unknown
1610200482781,51,-467,-1.026123046875E-4,0,0,41,720427,21954,29653,16118,16748875,17170,4339,6787,Tag0,unknown
1610200482798,51,1566,3.44091796875E-4,0,0,41,720427,21954,29653,16118,16748875,17170,4339,6787,Tag0,unknown
1610200482814,51,115,2.52685546875E-5,0,0,41,720427,21954,29653,16118,16748875,17170,4339,6787,Tag0,unknown
1610200482834,51,183,4.02099609375E-5,0,0,41,720427,21954,29653,16118,16748875,17170,4339,6787,Tag0,unknown
1610200482847,51,-15,-3.2958984375E-6,0,0,41,720427,21954,29653,16118,16748875,17170,4339,6787,Tag0,unknown
1610200482871,51,-249,-5.47119140625E-5,0,0,41,720427,21954,29653,16118,16748875,17170,4339,6787,Tag0,unknown
1610200482881,51,-145,-3.18603515625E-5,0,0,41,720427,21954,29653,16118,16748875,17170,4339,6787,Tag0,unknown
1610200482906,51,-555,-1.219482421875E-4,0,0,41,720427,21954,29653,16118,16748875,17170,4339,6787,Tag0,unknown
1610200482917,51,-428,-9.404296875E-5,0,0,41,720427,21954,29653,16118,16748875,17170,4339,6787,Tag0,unknown
1610200482982,51,-1241,-2.726806640625E-4,0,0,41,720427,21954,29653,16118,16748875,17170,4339,6787,Tag0,unknown
1610200482999,51,-1574,-3.45849609375E-4,0,0,41,720427,21954,29653,16118,16748875,17170,4339,6787,Tag0,unknown
1610200483009,51,-93,-2.04345703125E-5,0,0,41,720427,21954,29653,16118,16748875,17170,4339,6787,Tag0,unknown
1610200483019,51,-1398,-3.07177734375E-4,0,0,41,720427,21954,29653,16118,16748875,17170,4339,6787,Tag0,unknown
1610200483031,51,-449,-9.86572265625E-5,0,0,41,720427,21954,29653,16118,16748875,17170,4339,6787,Tag0,unknown
1610200483048,51,-315,-6.92138671875E-5,0,0,41,720427,21954,29653,16118,16748875,17170,4339,6787,Tag0,unknown
1610200483079,51,361,7.93212890625E-5,0,0,41,720427,21954,29653,16118,16748875,17170,4339,6787,Tag0,unknown
1610200483097,51,324,7.119140625E-5,0,0,41,720427,21954,29653,16118,16748875,17170,4339,6787,Tag0,unknown
1610200483107,51,1791,3.935302734375E-4,0,0,41,720427,21954,29653,16118,16748875,17170,4339,6787,Tag0,unknown
1610200483130,51,1271,2.7927246093750003E-4,0,0,41,720427,21954,29653,16118,16748875,17170,4339,6787,Tag0,unknown
1610200483148,51,1222,2.6850585937499997E-4,0,0,41,720427,21954,29653,16118,16748875,17170,4339,6787,Tag0,unknown
1610200483158,51,-307,-6.74560546875E-5,0,0,41,720427,21954,29653,16118,16748875,17170,4339,6787,Tag0,unknown
1610200483173,51,-10,-2.197265625E-6,0,0,41,720427,21954,29653,16118,16748875,17170,4339,6787,Tag0,unknown
1610200483183,51,323,7.09716796875E-5,0,0,41,720427,21954,29653,16118,16748875,17170,4339,6787,Tag0,unknown
1610200483197,51,1791,3.935302734375E-4,0,0,41,720427,21954,29653,16118,16748875,17170,4339,6787,Tag0,unknown
1610200483215,51,1745,3.834228515625E-4,0,0,41,720427,21954,29653,16118,16748875,17170,4339,6787,Tag0,unknown
1610200483242,51,1011,2.2214355468749998E-4,0,0,41,720427,21954,29653,16118,16748875,17170,4339,6787,Tag0,unknown
1610200483252,51,1064,2.337890625E-4,0,0,41,720427,21954,29653,16118,16748875,17170,4339,6787,Tag0,unknown
1610200483264,51,470,1.03271484375E-4,0,0,41,720427,21954,29653,16118,16748875,17170,4339,6787,Tag0,unknown
1610200483281,51,538,1.1821289062499999E-4,0,0,41,720427,21954,29653,16118,16748875,17170,4339,6787,Tag0,unknown
1610200483299,51,521,1.1447753906250001E-4,0,0,41,720427,21954,29653,16118,16748875,17170,4339,6787,Tag0,unknown
1610200483320,51,368,8.0859375E-5,0,0,41,720427,21954,29653,16118,16748875,17170,4339,6787,Tag0,unknown
1610200483331,51,355,7.80029296875E-5,0,0,41,720427,21954,29653,16118,16748875,17170,4339,6787,Tag0,unknown
1610200483341,51,-225,-4.94384765625E-5,0,0,41,720427,21954,29653,16118,16748875,17170,4339,6787,Tag0,unknown
1610200483356,51,-249,-5.47119140625E-5,0,0,41,720427,21954,29653,16118,16748875,17170,4339,6787,Tag0,unknown
1610200483366,51,-233,-5.1196289062500006E-5,0,0,41,720427,21954,29653,16118,16748875,17170,4339,6787,Tag0,unknown
1610200483389,51,37,8.1298828125E-6,0,0,41,720427,21954,29653,16118,16748875,17170,4339,6787,Tag0,unknown
1610200483399,51,105,2.30712890625E-5,0,0,41,720427,21954,29653,16118,16748875,17170,4339,6787,Tag0,unknown
1610200483415,51,301,6.613769531250001E-5,0,0,41,720427,21954,29653,16118,16748875,17170,4339,6787,Tag0,unknown
1610200483431,51,289,6.35009765625E-5,0,0,41,720427,21954,29653,16118,16748875,17170,4339,6787,Tag0,unknown
1610200483448,51,-15,-3.2958984375E-6,0,0,41,720427,21954,29653,16118,16748875,17170,4339,6787,Tag0,unknown
1610200483468,51,-614,-1.34912109375E-4,0,0,41,720427,21954,29653,16118,16748875,17170,4339,6787,Tag0,unknown
1610200483481,51,-485,-1.065673828125E-4,0,0,41,720427,21954,29653,16118,16748875,17170,4339,6787,Tag0,unknown
1610200483504,51,-1849,-4.0627441406250003E-4,0,0,41,720427,21954,29653,16118,16748875,17170,4339,6787,Tag0,unknown
1610200483515,51,-1869,-4.1066894531250004E-4,0,0,41,720427,21954,29653,16118,16748875,17170,4339,6787,Tag0,unknown
1610200483538,51,-882,-1.9379882812500001E-4,0,0,41,720427,21954,29653,16118,16748875,17170,4339,6787,Tag0,unknown
1610200483548,51,-145,-3.18603515625E-5,0,0,41,720427,21954,29653,16118,16748875,17170,4339,6787,Tag0,unknown
1610200483578,51,1288,2.830078125E-4,0,0,41,720427,21954,29653,16118,16748875,17170,4339,6787,Tag0,unknown
1610200483597,51,427,9.382324218750001E-5,0,0,41,720427,21954,29653,16118,16748875,17170,4339,6787,Tag0,unknown
1610200483624,51,-594,-1.3051757812500002E-4,0,0,41,720427,21954,29653,16118,16748875,17170,4339,6787,Tag0,unknown
1610200483634,51,-103,-2.26318359375E-5,0,0,41,720427,21954,29653,16118,16748875,17170,4339,6787,Tag0,unknown
1610200483648,51,796,1.7490234374999998E-4,0,0,41,720427,21954,29653,16118,16748875,17170,4339,6787,Tag0,unknown
1610200483663,51,1021,2.2434082031249999E-4,0,0,41,720427,21954,29653,16118,16748875,17170,4339,6787,Tag0,unknown
1610200483680,51,923,2.028076171875E-4,0,0,41,720427,21954,29653,16118,16748875,17170,4339,6787,Tag0,unknown
1610200483698,51,1065,2.340087890625E-4,0,0,41,720427,21954,29653,16118,16748875,17170,4339,6787,Tag0,unknown
1610200483729,51,390,8.5693359375E-5,0,0,41,720427,21954,29653,16118,16748875,17170,4339,6787,Tag0,unknown
1610200483747,51,610,1.34033203125E-4,0,0,41,720427,21954,29653,16118,16748875,17170,4339,6787,Tag0,unknown
1610200483770,26,-281,-6.17431640625E-5,0,0,41,852799,16752963,8671,10708,24042,28797,5702,8792,Tag0,unknown
1610200483781,26,-265,-5.82275390625E-5,0,0,41,852799,16752963,8671,10708,24042,28797,5702,8792,Tag0,unknown
1610200483791,26,-121,-2.6586914062500003E-5,0,0,41,852799,16752963,8671,10708,24042,28797,5702,8792,Tag0,unknown
1610200483806,26,-46,-1.0107421875E-5,0,0,41,852799,16752963,8671,10708,24042,28797,5702,8792,Tag0,unknown
1610200483816,26,-59,-1.29638671875E-5,0,0,41,852799,16752963,8671,10708,24042,28797,5702,8792,Tag0,unknown
1610200483839,26,-127,-2.79052734375E-5,0,0,41,852799,16752963,8671,10708,24042,28797,5702,8792,Tag0,unknown
1610200483850,26,85,1.86767578125E-5,0,0,41,852799,16752963,8671,10708,24042,28797,5702,8792,Tag0,unknown
1610200483864,26,291,6.39404296875E-5,0,0,41,852799,16752963,8671,10708,24042,28797,5702,8792,Tag0,unknown
1610200483882,26,-877,-1.9270019531250003E-4,0,0,41,852799,16752963,8671,10708,24042,28797,5702,8792,Tag0,unknown
1610200483898,26,-1001,-2.1994628906249998E-4,0,0,41,852799,16752963,8671,10708,24042,28797,5702,8792,Tag0,unknown
1610200483915,26,-1477,-3.245361328125E-4,0,0,41,852799,16752963,8671,10708,24042,28797,5702,8792,Tag0,unknown
1610200483932,26,-759,-1.667724609375E-4,0,0,41,852799,16752963,8671,10708,24042,28797,5702,8792,Tag0,unknown
1610200483953,26,-126,-2.7685546875E-5,0,0,41,852799,16752963,8671,10708,24042,28797,5702,8792,Tag0,unknown
1610200483966,26,91,1.99951171875E-5,0,0,41,852799,16752963,8671,10708,24042,28797,5702,8792,Tag0,unknown
1610200483986,26,309,6.78955078125E-5,0,0,41,852799,16752963,8671,10708,24042,28797,5702,8792,Tag0,unknown
1610200483998,26,-84,-1.8457031250000004E-5,0,0,41,852799,16752963,8671,10708,24042,28797,5702,8792,Tag0,unknown
1610200484008,26,-15,-3.2958984375E-6,0,0,41,852799,16752963,8671,10708,24042,28797,5702,8792,Tag0,unknown
1610200484029,26,-29,-6.3720703125E-6,0,0,41,852799,16752963,8671,10708,24042,28797,5702,8792,Tag0,unknown
1610200484048,26,-76,-1.669921875E-5,0,0,41,852799,16752963,8671,10708,24042,28797,5702,8792,Tag0,unknown
1610200484066,26,57,1.2524414062500001E-5,0,0,41,852799,16752963,8671,10708,24042,28797,5702,8792,Tag0,unknown
1610200484081,26,-233,-5.1196289062500006E-5,0,0,41,852799,16752963,8671,10708,24042,28797,5702,8792,Tag0,unknown
1610200484104,26,69,1.51611328125E-5,0,0,41,852799,16752963,8671,10708,24042,28797,5702,8792,Tag0,unknown
1610200484117,26,-89,-1.95556640625E-5,0,0,41,852799,16752963,8671,10708,24042,28797,5702,8792,Tag0,unknown
1610200484132,26,-1012,-2.2236328125E-4,0,0,41,852799,16752963,8671,10708,24042,28797,5702,8792,Tag0,unknown
1610200484147,26,-1186,-2.6059570312500003E-4,0,0,41,852799,16752963,8671,10708,24042,28797,5702,8792,Tag0,unknown
1610200484180,26,-467,-1.026123046875E-4,0,0,41,852799,16752963,8671,10708,24042,28797,5702,8792,Tag0,unknown
1610200484198,26,-795,-1.746826171875E-4,0,0,41,852799,16752963,8671,10708,24042,28797,5702,8792,Tag0,unknown
1610200484260,26,-340,-7.470703125E-5,0,0,41,852799,16752963,8671,10708,24042,28797,5702,8792,Tag0,unknown
1610200484281,26,65,1.42822265625E-5,0,0,41,852799,16752963,8671,10708,24042,28797,5702,8792,Tag0,unknown
1610200484291,26,-529,-1.162353515625E-4,0,0,41,852799,16752963,8671,10708,24042,28797,5702,8792,Tag0,unknown
1610200484301,26,-388,-8.525390625E-5,0,0,41,852799,16752963,8671,10708,24042,28797,5702,8792,Tag0,unknown
1610200484315,26,-203,-4.460449218750001E-5,0,0,41,852799,16752963,8671,10708,24042,28797,5702,8792,Tag0,unknown
1610200484332,26,310,6.8115234375E-5,0,0,41,852799,16752963,8671,10708,24042,28797,5702,8792,Tag0,unknown
1610200484347,26,345,7.58056640625E-5,0,0,41,852799,16752963,8671,10708,24042,28797,5702,8792,Tag0,unknown
1610200484366,26,1059,2.3269042968750001E-4,0,0,41,852799,16752963,8671,10708,24042,28797,5702,8792,Tag0,unknown
1610200484381,26,1502,3.30029296875E-4,0,0,41,852799,16752963,8671,10708,24042,28797,5702,8792,Tag0,unknown
1610200484404,26,-341,-7.492675781250002E-5,0,0,41,852799,16752963,8671,10708,24042,28797,5702,8792,Tag0,unknown
1610200484415,26,282,6.1962890625E-5,0,0,41,852799,16752963,8671,10708,24042,28797,5702,8792,Tag0,unknown
1610200484431,26,-119,-2.6147460937500004E-5,0,0,41,852799,16752963,8671,10708,24042,28797,5702,8792,Tag0,unknown
1610200484447,26,-195,-4.28466796875E-5,0,0,41,852799,16752963,8671,10708,24042,28797,5702,8792,Tag0,unknown
1610200484465,26,-845,-1.856689453125E-4,0,0,41,852799,16752963,8671,10708,24042,28797,5702,8792,Tag0,unknown
1610200484481,26,-452,-9.931640625E-5,0,0,41,852799,16752963,8671,10708,24042,28797,5702,8792,Tag0,unknown
1610200484498,26,402,8.8330078125E-5,0,0,41,852799,16752963,8671,10708,24042,28797,5702,8792,Tag0,unknown
1610200484524,26,-1543,-3.390380859375E-4,0,0,41,852799,16752963,8671,10708,24042,28797,5702,8792,Tag0,unknown
1610200484535,26,-1190,-2.61474609375E-4,0,0,41,852799,16752963,8671,10708,24042,28797,5702,8792,Tag0,unknown
1610200484545,26,-885,-1.944580078125E-4,0,0,41,852799,16752963,8671,10708,24042,28797,5702,8792,Tag0,unknown
1610200484565,26,-458,-1.00634765625E-4,0,0,41,852799,16752963,8671,10708,24042,28797,5702,8792,Tag0,unknown
1610200484581,26,-378,-8.3056640625E-5,0,0,41,852799,16752963,8671,10708,24042,28797,5702,8792,Tag0,unknown
1610200484599,26,-478,-1.0502929687499999E-4,0,0,41,852799,16752963,8671,10708,24042,28797,5702,8792,Tag0,unknown
1610200484615,26,-1003,-2.2038574218750001E-4,0,0,41,852799,16752963,8671,10708,24042,28797,5702,8792,Tag0,unknown
1610200484625,26,-1097,-2.4104003906250002E-4,0,0,41,852799,16752963,8671,10708,24042,28797,5702,8792,Tag0,unknown
1610200484635,26,-695,-1.527099609375E-4,0,0,41,852799,16752963,8671,10708,24042,28797,5702,8792,Tag0,unknown
1610200484650,26,-641,-1.408447265625E-4,0,0,41,852799,16752963,8671,10708,24042,28797,5702,8792,Tag0,unknown
1610200484668,26,-43,-9.448242187500001E-6,0,0,41,852799,16752963,8671,10708,24042,28797,5702,8792,Tag0,unknown
1610200484681,26,600,1.318359375E-4,0,0,41,852799,16752963,8671,10708,24042,28797,5702,8792,Tag0,unknown
1610200484691,26,720,1.58203125E-4,0,0,41,852799,16752963,8671,10708,24042,28797,5702,8792,Tag0,unknown
1610200484705,26,-689,-1.513916015625E-4,0,0,41,852799,16752963,8671,10708,24042,28797,5702,8792,Tag0,unknown
1610200484715,26,1129,2.480712890625E-4,0,0,41,852799,16752963,8671,10708,24042,28797,5702,8792,Tag0,unknown
1610200484733,26,-727,-1.5974121093750003E-4,0,0,41,16762699,42675,25555,15246,16744539,16762121,13573,9979,Tag0,unknown
1610200484752,26,-2048,-4.5E-4,0,0,41,16762699,42675,25555,15246,16744539,16762121,13573,9979,Tag0,unknown
1610200484764,26,-2048,-4.5E-4,0,0,41,16762699,42675,25555,15246,16744539,16762121,13573,9979,Tag0,unknown
1610200484786,26,-1483,-3.258544921875E-4,0,0,41,16762699,42675,25555,15246,16744539,16762121,13573,9979,Tag0,unknown
1610200484797,26,-1441,-3.1662597656250004E-4,0,0,41,16762699,42675,25555,15246,16744539,16762121,13573,9979,Tag0,unknown
1610200484822,26,1791,3.935302734375E-4,0,0,41,16762699,42675,25555,15246,16744539,16762121,13573,9979,Tag0,unknown
1610200484832,26,1791,3.935302734375E-4,0,0,41,16762699,42675,25555,15246,16744539,16762121,13573,9979,Tag0,unknown
1610200484856,26,1791,3.935302734375E-4,0,0,41,16762699,42675,25555,15246,16744539,16762121,13573,9979,Tag0,unknown
1610200484866,26,1791,3.935302734375E-4,0,0,41,16762699,42675,25555,15246,16744539,16762121,13573,9979,Tag0,unknown
1610200484897,26,-2013,-4.423095703125E-4,0,0,41,16762699,42675,25555,15246,16744539,16762121,13573,9979,Tag0,unknown
1610200484916,26,-2048,-4.5E-4,0,0,41,16762699,42675,25555,15246,16744539,16762121,13573,9979,Tag0,unknown
1610200484937,26,-2048,-4.5E-4,0,0,41,16762699,42675,25555,15246,16744539,16762121,13573,9979,Tag0,unknown
1610200484949,26,-1487,-3.267333984375E-4,0,0,41,16762699,42675,25555,15246,16744539,16762121,13573,9979,Tag0,unknown
1610200484967,26,-1076,-2.3642578124999998E-4,0,0,41,16762699,42675,25555,15246,16744539,16762121,13573,9979,Tag0,unknown
1610200484982,26,-1046,-2.29833984375E-4,0,0,41,16762699,42675,25555,15246,16744539,16762121,13573,9979,Tag0,unknown
1610200485006,26,-499,-1.096435546875E-4,0,0,41,16762699,42675,25555,15246,16744539,16762121,13573,9979,Tag0,unknown
1610200485017,26,-481,-1.056884765625E-4,0,0,41,16762699,42675,25555,15246,16744539,16762121,13573,9979,Tag0,unknown
1610200485031,26,-201,-4.41650390625E-5,0,0,41,16762699,42675,25555,15246,16744539,16762121,13573,9979,Tag0,unknown
1610200485048,26,-153,-3.3618164062500004E-5,0,0,41,16762699,42675,25555,15246,16744539,16762121,13573,9979,Tag0,unknown
1610200485065,26,-139,-3.0541992187500004E-5,0,0,41,16762699,42675,25555,15246,16744539,16762121,13573,9979,Tag0,unknown
1610200485086,26,-275,-6.04248046875E-5,0,0,41,16762699,42675,25555,15246,16744539,16762121,13573,9979,Tag0,unknown
1610200485098,26,-270,-5.9326171875E-5,0,0,41,16762699,42675,25555,15246,16744539,16762121,13573,9979,Tag0,unknown
1610200485115,26,13,2.8564453125E-6,0,0,41,16762699,42675,25555,15246,16744539,16762121,13573,9979,Tag0,unknown
1610200485144,26,36,7.91015625E-6,0,0,41,16762699,42675,25555,15246,16744539,16762121,13573,9979,Tag0,unknown
1610200485165,26,41,9.008789062499999E-6,0,0,41,16762699,42675,25555,15246,16744539,16762121,13573,9979,Tag0,unknown
1610200485190,26,53,1.1645507812500002E-5,0,0,41,16762699,42675,25555,15246,16744539,16762121,13573,9979,Tag0,unknown
1610200485200,26,56,1.23046875E-5,0,0,41,16762699,42675,25555,15246,16744539,16762121,13573,9979,Tag0,unknown
1610200485227,26,1791,3.935302734375E-4,0,0,41,16762699,42675,25555,15246,16744539,16762121,13573,9979,Tag0,unknown
1610200485237,26,1791,3.935302734375E-4,0,0,41,16762699,42675,25555,15246,16744539,16762121,13573,9979,Tag0,unknown
1610200485253,26,1791,3.935302734375E-4,0,0,41,16762699,42675,25555,15246,16744539,16762121,13573,9979,Tag0,unknown
1610200485266,26,1505,3.306884765625E-4,0,0,41,16762699,42675,25555,15246,16744539,16762121,13573,9979,Tag0,unknown
1610200485282,26,1169,2.568603515625E-4,0,0,41,16762699,42675,25555,15246,16744539,16762121,13573,9979,Tag0,unknown
1610200485309,26,480,1.0546875E-4,0,0,41,16762699,42675,25555,15246,16744539,16762121,13573,9979,Tag0,unknown
1610200485319,26,252,5.537109375E-5,0,0,41,16762699,42675,25555,15246,16744539,16762121,13573,9979,Tag0,unknown
1610200485331,26,-609,-1.338134765625E-4,0,0,41,16762699,42675,25555,15246,16744539,16762121,13573,9979,Tag0,unknown
1610200485349,26,555,1.219482421875E-4,0,0,41,16762699,42675,25555,15246,16744539,16762121,13573,9979,Tag0,unknown
1610200485364,26,518,1.13818359375E-4,0,0,41,16762699,42675,25555,15246,16744539,16762121,13573,9979,Tag0,unknown
1610200485383,26,377,8.28369140625E-5,0,0,41,16762699,42675,25555,15246,16744539,16762121,13573,9979,Tag0,unknown
1610200485398,26,364,7.998046875E-5,0,0,41,16762699,42675,25555,15246,16744539,16762121,13573,9979,Tag0,unknown
1610200485418,26,257,5.64697265625E-5,0,0,41,16762699,42675,25555,15246,16744539,16762121,13573,9979,Tag0,unknown
1610200485431,26,-4,-8.7890625E-7,0,0,41,16762699,42675,25555,15246,16744539,16762121,13573,9979,Tag0,unknown
1610200485441,26,-103,-2.26318359375E-5,0,0,41,16762699,42675,25555,15246,16744539,16762121,13573,9979,Tag0,unknown
1610200485457,26,-112,-2.4609375E-5,0,0,41,16762699,42675,25555,15246,16744539,16762121,13573,9979,Tag0,unknown
1610200485467,26,-121,-2.6586914062500003E-5,0,0,41,16762699,42675,25555,15246,16744539,16762121,13573,9979,Tag0,unknown
1610200485482,26,115,2.52685546875E-5,0,0,41,16762699,42675,25555,15246,16744539,16762121,13573,9979,Tag0,unknown
1610200485545,26,98,2.1533203125E-5,0,0,41,16762699,42675,25555,15246,16744539,16762121,13573,9979,Tag0,unknown
1610200485566,26,94,2.0654296875000002E-5,0,0,41,16762699,42675,25555,15246,16744539,16762121,13573,9979,Tag0,unknown
1610200485576,26,80,1.7578125E-5,0,0,41,16762699,42675,25555,15246,16744539,16762121,13573,9979,Tag0,unknown
1610200485588,26,75,1.64794921875E-5,0,0,41,16762699,42675,25555,15246,16744539,16762121,13573,9979,Tag0,unknown
1610200485598,26,71,1.56005859375E-5,0,0,41,16762699,42675,25555,15246,16744539,16762121,13573,9979,Tag0,unknown
1610200485615,26,70,1.5380859375E-5,0,0,41,16762699,42675,25555,15246,16744539,16762121,13573,9979,Tag0,unknown
1610200485632,26,70,1.5380859375E-5,0,0,41,16762699,42675,25555,15246,16744539,16762121,13573,9979,Tag0,unknown
1610200485647,26,67,1.4721679687500002E-5,0,0,41,16762699,42675,25555,15246,16744539,16762121,13573,9979,Tag0,unknown
1610200485664,26,67,1.4721679687500002E-5,0,0,41,16762699,42675,25555,15246,16744539,16762121,13573,9979,Tag0,unknown
1610200485683,26,71,1.56005859375E-5,0,0,41,16762699,42675,25555,15246,16744539,16762121,13573,9979,Tag0,unknown
1610200485699,26,-1621,-3.561767578125E-4,0,0,41,16762699,42675,25555,15246,16744539,16762121,13573,9979,Tag0,unknown
1610200485720,26,1791,3.935302734375E-4,0,0,41,16762699,42675,25555,15246,16744539,16762121,13573,9979,Tag0,unknown
1610200485731,51,1791,3.935302734375E-4,0,0,41,2436099,311045,6587,13329,16772299,159523,76524,20418,Tag0,unknown
1610200485750,51,1717,3.772705078125E-4,0,0,41,2436099,311045,6587,13329,16772299,159523,76524,20418,Tag0,unknown
1610200485763,51,-2048,-4.5E-4,0,0,41,2436099,311045,6587,13329,16772299,159523,76524,20418,Tag0,unknown
1610200485789,51,-2048,-4.5E-4,0,0,41,2436099,311045,6587,13329,16772299,159523,76524,20418,Tag0,unknown
1610200485799,51,-2048,-4.5E-4,0,0,41,2436099,311045,6587,13329,16772299,159523,76524,20418,Tag0,unknown
1610200485815,51,-1433,-3.148681640625E-4,0,0,41,2436099,311045,6587,13329,16772299,159523,76524,20418,Tag0,unknown
1610200485831,51,-966,-2.12255859375E-4,0,0,41,2436099,311045,6587,13329,16772299,159523,76524,20418,Tag0,unknown
1610200485848,51,-929,-2.0412597656250002E-4,0,0,41,2436099,311045,6587,13329,16772299,159523,76524,20418,Tag0,unknown
1610200485866,51,-824,-1.810546875E-4,0,0,41,2436099,311045,6587,13329,16772299,159523,76524,20418,Tag0,unknown
1610200485882,51,-798,-1.7534179687500001E-4,0,0,41,2436099,311045,6587,13329,16772299,159523,76524,20418,Tag0,unknown
1610200485908,51,-183,-4.02099609375E-5,0,0,41,2436099,311045,6587,13329,16772299,159523,76524,20418,Tag0,unknown
1610200485918,51,-132,-2.900390625E-5,0,0,41,2436099,311045,6587,13329,16772299,159523,76524,20418,Tag0,unknown
1610200485942,51,-347,-7.62451171875E-5,0,0,41,2436099,311045,6587,13329,16772299,159523,76524,20418,Tag0,unknown
1610200485952,51,-326,-7.163085937500001E-5,0,0,41,2436099,311045,6587,13329,16772299,159523,76524,20418,Tag0,unknown
1610200485965,51,-263,-5.7788085937500005E-5,0,0,41,2436099,311045,6587,13329,16772299,159523,76524,20418,Tag0,unknown
1610200485989,51,5,1.0986328125E-6,0,0,41,2436099,311045,6587,13329,16772299,159523,76524,20418,Tag0,unknown
1610200486014,51,27,5.9326171875000005E-6,0,0,41,2436099,311045,6587,13329,16772299,159523,76524,20418,Tag0,unknown
1610200486031,51,29,6.3720703125E-6,0,0,41,2436099,311045,6587,13329,16772299,159523,76524,20418,Tag0,unknown
1610200486055,51,52,1.142578125E-5,0,0,41,2436099,311045,6587,13329,16772299,159523,76524,20418,Tag0,unknown
1610200486065,51,54,1.1865234375000001E-5,0,0,41,2436099,311045,6587,13329,16772299,159523,76524,20418,Tag0,unknown
1610200486093,51,56,1.23046875E-5,0,0,41,2436099,311045,6587,13329,16772299,159523,76524,20418,Tag0,unknown
1610200486103,51,1791,3.935302734375E-4,0,0,41,2436099,311045,6587,13329,16772299,159523,76524,20418,Tag0,unknown
1610200486115,51,1791,3.935302734375E-4,0,0,41,2436099,311045,6587,13329,16772299,159523,76524,20418,Tag0,unknown
1610200486137,51,1791,3.935302734375E-4,0,0,41,2436099,311045,6587,13329,16772299,159523,76524,20418,Tag0,unknown
1610200486147,51,1791,3.935302734375E-4,0,0,41,2436099,311045,6587,13329,16772299,159523,76524,20418,Tag0,unknown
1610200486167,51,1411,3.100341796875E-4,0,0,41,2436099,311045,6587,13329,16772299,159523,76524,20418,Tag0,unknown
1610200486182,51,761,1.672119140625E-4,0,0,41,2436099,311045,6587,13329,16772299,159523,76524,20418,Tag0,unknown
1610200486203,51,440,9.66796875E-5,0,0,41,2436099,311045,6587,13329,16772299,159523,76524,20418,Tag0,unknown
1610200486216,51,418,9.1845703125E-5,0,0,41,2436099,311045,6587,13329,16772299,159523,76524,20418,Tag0,unknown
1610200486245,51,314,6.8994140625E-5,0,0,41,2436099,311045,6587,13329,16772299,159523,76524,20418,Tag0,unknown
1610200486264,51,305,6.70166015625E-5,0,0,41,2436099,311045,6587,13329,16772299,159523,76524,20418,Tag0,unknown
1610200486283,51,-31,-6.8115234375E-6,0,0,41,2436099,311045,6587,13329,16772299,159523,76524,20418,Tag0,unknown
1610200486298,51,-43,-9.448242187500001E-6,0,0,41,2436099,311045,6587,13329,16772299,159523,76524,20418,Tag0,unknown
1610200486321,51,-125,-2.74658203125E-5,0,0,41,2436099,311045,6587,13329,16772299,159523,76524,20418,Tag0,unknown
1610200486332,51,-127,-2.79052734375E-5,0,0,41,2436099,311045,6587,13329,16772299,159523,76524,20418,Tag0,unknown
1610200486348,51,-1243,-2.731201171875E-4,0,0,41,2436099,311045,6587,13329,16772299,159523,76524,20418,Tag0,unknown
1610200486365,51,-2048,-4.5E-4,0,0,41,2436099,311045,6587,13329,16772299,159523,76524,20418,Tag0,unknown
1610200486381,51,-2048,-4.5E-4,0,0,41,2436099,311045,6587,13329,16772299,159523,76524,20418,Tag0,unknown
1610200486399,51,-2010,-4.41650390625E-4,0,0,41,2436099,311045,6587,13329,16772299,159523,76524,20418,Tag0,unknown
1610200486416,51,-2053,-4.5109863281250003E-4,0,0,41,2436099,311045,6587,13329,16772299,159523,76524,20418,Tag0,unknown
1610200486432,51,-755,-1.658935546875E-4,0,0,41,2436099,311045,6587,13329,16772299,159523,76524,20418,Tag0,unknown
1610200486448,51,-695,-1.527099609375E-4,0,0,41,2436099,311045,6587,13329,16772299,159523,76524,20418,Tag0,unknown
1610200486465,51,-458,-1.00634765625E-4,0,0,41,2436099,311045,6587,13329,16772299,159523,76524,20418,Tag0,unknown
1610200486505,51,-254,-5.5810546875E-5,0,0,41,2436099,311045,6587,13329,16772299,159523,76524,20418,Tag0,unknown
1610200486515,51,-242,-5.3173828125000005E-5,0,0,41,2436099,311045,6587,13329,16772299,159523,76524,20418,Tag0,unknown
1610200486525,51,-354,-7.778320312500001E-5,0,0,41,2436099,311045,6587,13329,16772299,159523,76524,20418,Tag0,unknown
1610200486542,51,-314,-6.8994140625E-5,0,0,41,2436099,311045,6587,13329,16772299,159523,76524,20418,Tag0,unknown
1610200486552,51,-283,-6.218261718750001E-5,0,0,41,2436099,311045,6587,13329,16772299,159523,76524,20418,Tag0,unknown
1610200486579,51,-267,-5.86669921875E-5,0,0,41,2436099,311045,6587,13329,16772299,159523,76524,20418,Tag0,unknown
