timestampMs,poorSignal,eegRawValue,eegRawValueVolts,attention,meditation,blinkStrength,delta,theta,alphaLow,alphaHigh,betaLow,betaHigh,gammaLow,gammaMid,tagEvent,location
1610201651870,51,-449,-9.86572265625E-5,56,56,40,997309,164380,1602,158000,132746,93953,57619,16772734,Tag0,unknown
1610201651882,51,-391,-8.591308593750001E-5,56,56,40,997309,164380,1602,158000,132746,93953,57619,16772734,Tag0,unknown
1610201652019,51,-561,-1.232666015625E-4,56,56,40,997309,164380,1602,158000,132746,93953,57619,16772734,Tag0,unknown
1610201652034,51,-530,-1.16455078125E-4,56,56,40,997309,164380,1602,158000,132746,93953,57619,16772734,Tag0,unknown
1610201652050,51,1791,3.935302734375E-4,56,56,40,997309,164380,1602,158000,132746,93953,57619,16772734,Tag0,unknown
1610201652099,51,1791,3.935302734375E-4,56,56,40,997309,164380,1602,158000,132746,93953,57619,16772734,Tag0,unknown
1610201652115,51,1791,3.935302734375E-4,56,56,40,997309,164380,1602,158000,132746,93953,57619,16772734,Tag0,unknown
1610201652133,51,-639,-1.4040527343750001E-4,56,56,40,997309,164380,1602,158000,132746,93953,57619,16772734,Tag0,unknown
1610201652150,51,-2048,-4.5E-4,56,56,40,997309,164380,1602,158000,132746,93953,57619,16772734,Tag0,unknown
1610201652160,51,-2048,-4.5E-4,56,56,40,997309,164380,1602,158000,132746,93953,57619,16772734,Tag0,unknown
1610201652179,51,-993,-2.181884765625E-4,56,56,40,997309,164380,1602,158000,132746,93953,57619,16772734,Tag0,unknown
1610201652199,51,-793,-1.742431640625E-4,56,56,40,997309,164380,1602,158000,132746,93953,57619,16772734,Tag0,unknown
1610201652216,51,-604,-1.3271484375E-4,56,56,40,997309,164380,1602,158000,132746,93953,57619,16772734,Tag0,unknown
1610201652233,51,-589,-1.294189453125E-4,56,56,40,997309,164380,1602,158000,132746,93953,57619,16772734,Tag0,unknown
1610201652250,51,-198,-4.3505859375000006E-5,56,56,40,997309,164380,1602,158000,132746,93953,57619,16772734,Tag0,unknown
1610201652265,51,-187,-4.10888671875E-5,56,56,40,997309,164380,1602,158000,132746,93953,57619,16772734,Tag0,unknown
1610201652288,51,-283,-6.218261718750001E-5,56,56,40,997309,164380,1602,158000,132746,93953,57619,16772734,Tag0,unknown
1610201652299,51,-283,-6.218261718750001E-5,56,56,40,997309,164380,1602,158000,132746,93953,57619,16772734,Tag0,unknown
1610201652326,51,10,2.197265625E-6,56,56,40,997309,164380,1602,158000,132746,93953,57619,16772734,Tag0,unknown
1610201652336,51,99,2.1752929687500003E-5,56,56,40,997309,164380,1602,158000,132746,93953,57619,16772734,Tag0,unknown
1610201652365,51,-126,-2.7685546875E-5,56,56,40,997309,164380,1602,158000,132746,93953,57619,16772734,Tag0,unknown
1610201652383,51,112,2.4609375E-5,56,56,40,997309,164380,1602,158000,132746,93953,57619,16772734,Tag0,unknown
1610201652399,51,71,1.56005859375E-5,56,56,40,997309,164380,1602,158000,132746,93953,57619,16772734,Tag0,unknown
1610201652419,51,40,8.7890625E-6,56,56,40,997309,164380,1602,158000,132746,93953,57619,16772734,Tag0,unknown
1610201652436,51,-64,-1.40625E-5,56,56,40,997309,164380,1602,158000,132746,93953,57619,16772734,Tag0,unknown
1610201652450,51,-22,-4.833984375E-6,56,56,40,997309,164380,1602,158000,132746,93953,57619,16772734,Tag0,unknown
1610201652474,51,157,3.44970703125E-5,56,56,40,997309,164380,1602,158000,132746,93953,57619,16772734,Tag0,unknown
1610201652484,51,625,1.373291015625E-4,56,56,40,997309,164380,1602,158000,132746,93953,57619,16772734,Tag0,unknown
1610201652500,51,885,1.944580078125E-4,56,56,40,997309,164380,1602,158000,132746,93953,57619,16772734,Tag0,unknown
1610201652516,51,851,1.869873046875E-4,56,56,40,997309,164380,1602,158000,132746,93953,57619,16772734,Tag0,unknown
1610201652535,51,218,4.7900390625E-5,56,56,40,997309,164380,1602,158000,132746,93953,57619,16772734,Tag0,unknown
1610201652550,51,197,4.32861328125E-5,56,56,40,997309,164380,1602,158000,132746,93953,57619,16772734,Tag0,unknown
1610201652568,51,-54,-1.1865234375000001E-5,56,56,40,997309,164380,1602,158000,132746,93953,57619,16772734,Tag0,unknown
1610201652584,51,-90,-1.9775390625E-5,56,56,40,997309,164380,1602,158000,132746,93953,57619,16772734,Tag0,unknown
1610201652606,51,-2048,-4.5E-4,56,56,40,997309,164380,1602,158000,132746,93953,57619,16772734,Tag0,unknown
1610201652617,51,-2048,-4.5E-4,56,56,40,997309,164380,1602,158000,132746,93953,57619,16772734,Tag0,unknown
1610201652645,51,-1783,-3.917724609375E-4,56,56,40,997309,164380,1602,158000,132746,93953,57619,16772734,Tag0,unknown
1610201652655,51,-1529,-3.359619140625E-4,56,56,40,997309,164380,1602,158000,132746,93953,57619,16772734,Tag0,unknown
1610201652668,51,1791,3.935302734375E-4,56,56,40,997309,164380,1602,158000,132746,93953,57619,16772734,Tag0,unknown
1610201652700,51,-1837,-4.036376953125E-4,56,56,40,997309,164380,1602,158000,132746,93953,57619,16772734,Tag0,unknown
1610201652718,51,-1523,-3.346435546875E-4,56,56,40,997309,164380,1602,158000,132746,93953,57619,16772734,Tag0,unknown
1610201652735,51,-837,-1.8391113281250002E-4,56,56,40,997309,164380,1602,158000,132746,93953,57619,16772734,Tag0,unknown
1610201652751,51,-813,-1.786376953125E-4,56,56,40,997309,164380,1602,158000,132746,93953,57619,16772734,Tag0,unknown
1610201652777,51,-229,-5.03173828125E-5,56,56,40,634328,203032,73009,24290,34340,80644,16772800,16747122,Tag0,unknown
1610201652787,51,-187,-4.10888671875E-5,56,56,40,634328,203032,73009,24290,34340,80644,16772800,16747122,Tag0,unknown
1610201652801,51,-377,-8.28369140625E-5,56,56,40,634328,203032,73009,24290,34340,80644,16772800,16747122,Tag0,unknown
1610201652823,51,-305,-6.70166015625E-5,56,56,40,634328,203032,73009,24290,34340,80644,16772800,16747122,Tag0,unknown
1610201652835,51,-293,-6.43798828125E-5,56,56,40,634328,203032,73009,24290,34340,80644,16772800,16747122,Tag0,unknown
1610201652852,51,-277,-6.0864257812500005E-5,56,56,40,634328,203032,73009,24290,34340,80644,16772800,16747122,Tag0,unknown
1610201652868,51,-258,-5.6689453125000004E-5,56,56,40,634328,203032,73009,24290,34340,80644,16772800,16747122,Tag0,unknown
1610201652890,51,35,7.6904296875E-6,56,56,40,634328,203032,73009,24290,34340,80644,16772800,16747122,Tag0,unknown
1610201652901,51,37,8.1298828125E-6,56,56,40,634328,203032,73009,24290,34340,80644,16772800,16747122,Tag0,unknown
1610201652927,51,-332,-7.294921875E-5,56,56,40,634328,203032,73009,24290,34340,80644,16772800,16747122,Tag0,unknown
1610201652938,51,-307,-6.74560546875E-5,56,56,40,634328,203032,73009,24290,34340,80644,16772800,16747122,Tag0,unknown
1610201652952,51,6,1.318359375E-6,56,56,40,634328,203032,73009,24290,34340,80644,16772800,16747122,Tag0,unknown
1610201652968,51,20,4.39453125E-6,56,56,40,634328,203032,73009,24290,34340,80644,16772800,16747122,Tag0,unknown
1610201652984,51,27,5.9326171875000005E-6,56,56,40,634328,203032,73009,24290,34340,80644,16772800,16747122,Tag0,unknown
1610201653003,51,36,7.91015625E-6,56,56,40,634328,203032,73009,24290,34340,80644,16772800,16747122,Tag0,unknown
1610201653018,51,43,9.448242187500001E-6,56,56,40,634328,203032,73009,24290,34340,80644,16772800,16747122,Tag0,unknown
1610201653036,51,56,1.23046875E-5,56,56,40,634328,203032,73009,24290,34340,80644,16772800,16747122,Tag0,unknown
1610201653051,51,55,1.20849609375E-5,56,56,40,634328,203032,73009,24290,34340,80644,16772800,16747122,Tag0,unknown
1610201653075,51,59,1.29638671875E-5,56,56,40,634328,203032,73009,24290,34340,80644,16772800,16747122,Tag0,unknown
1610201653085,51,59,1.29638671875E-5,56,56,40,634328,203032,73009,24290,34340,80644,16772800,16747122,Tag0,unknown
1610201653101,51,64,1.40625E-5,56,56,40,634328,203032,73009,24290,34340,80644,16772800,16747122,Tag0,unknown
1610201653118,51,65,1.42822265625E-5,56,56,40,634328,203032,73009,24290,34340,80644,16772800,16747122,Tag0,unknown
1610201653148,51,65,1.42822265625E-5,56,56,40,634328,203032,73009,24290,34340,80644,16772800,16747122,Tag0,unknown
1610201653167,51,65,1.42822265625E-5,56,56,40,634328,203032,73009,24290,34340,80644,16772800,16747122,Tag0,unknown
1610201653177,51,66,1.4501953125E-5,56,56,40,634328,203032,73009,24290,34340,80644,16772800,16747122,Tag0,unknown
1610201653188,51,67,1.4721679687500002E-5,56,56,40,634328,203032,73009,24290,34340,80644,16772800,16747122,Tag0,unknown
1610201653202,51,66,1.4501953125E-5,56,56,40,634328,203032,73009,24290,34340,80644,16772800,16747122,Tag0,unknown
1610201653217,51,66,1.4501953125E-5,56,56,40,634328,203032,73009,24290,34340,80644,16772800,16747122,Tag0,unknown
1610201653235,51,67,1.4721679687500002E-5,56,56,40,634328,203032,73009,24290,34340,80644,16772800,16747122,Tag0,unknown
1610201653251,51,69,1.51611328125E-5,56,56,40,634328,203032,73009,24290,34340,80644,16772800,16747122,Tag0,unknown
1610201653268,51,68,1.4941406250000001E-5,56,56,40,634328,203032,73009,24290,34340,80644,16772800,16747122,Tag0,unknown
1610201653285,51,67,1.4721679687500002E-5,56,56,40,634328,203032,73009,24290,34340,80644,16772800,16747122,Tag0,unknown
1610201653304,51,68,1.4941406250000001E-5,56,56,40,634328,203032,73009,24290,34340,80644,16772800,16747122,Tag0,unknown
1610201653319,51,68,1.4941406250000001E-5,56,56,40,634328,203032,73009,24290,34340,80644,16772800,16747122,Tag0,unknown
1610201653337,51,67,1.4721679687500002E-5,56,56,40,634328,203032,73009,24290,34340,80644,16772800,16747122,Tag0,unknown
1610201653353,51,67,1.4721679687500002E-5,56,56,40,634328,203032,73009,24290,34340,80644,16772800,16747122,Tag0,unknown
1610201653363,51,-566,-1.2436523437500002E-4,56,56,40,634328,203032,73009,24290,34340,80644,16772800,16747122,Tag0,unknown
1610201653377,51,-539,-1.1843261718750001E-4,56,56,40,634328,203032,73009,24290,34340,80644,16772800,16747122,Tag0,unknown
1610201653387,51,-234,-5.1416015624999996E-5,56,56,40,634328,203032,73009,24290,34340,80644,16772800,16747122,Tag0,unknown
1610201653410,51,1791,3.935302734375E-4,56,56,40,634328,203032,73009,24290,34340,80644,16772800,16747122,Tag0,unknown
1610201653420,51,-755,-1.658935546875E-4,56,56,40,634328,203032,73009,24290,34340,80644,16772800,16747122,Tag0,unknown
1610201653435,51,-394,-8.6572265625E-5,56,56,40,634328,203032,73009,24290,34340,80644,16772800,16747122,Tag0,unknown
1610201653452,51,-530,-1.16455078125E-4,56,56,40,634328,203032,73009,24290,34340,80644,16772800,16747122,Tag0,unknown
1610201653467,51,-216,-4.7460937500000004E-5,56,56,40,634328,203032,73009,24290,34340,80644,16772800,16747122,Tag0,unknown
1610201653487,51,-151,-3.31787109375E-5,56,56,40,634328,203032,73009,24290,34340,80644,16772800,16747122,Tag0,unknown
1610201653501,51,-375,-8.23974609375E-5,56,56,40,634328,203032,73009,24290,34340,80644,16772800,16747122,Tag0,unknown
1610201653528,51,-275,-6.04248046875E-5,56,56,40,634328,203032,73009,24290,34340,80644,16772800,16747122,Tag0,unknown
1610201653538,51,-259,-5.69091796875E-5,56,56,40,634328,203032,73009,24290,34340,80644,16772800,16747122,Tag0,unknown
1610201653551,51,17,3.7353515625000003E-6,56,56,40,634328,203032,73009,24290,34340,80644,16772800,16747122,Tag0,unknown
1610201653568,51,33,7.2509765625E-6,56,56,40,634328,203032,73009,24290,34340,80644,16772800,16747122,Tag0,unknown
1610201653598,51,48,1.0546875E-5,56,56,40,634328,203032,73009,24290,34340,80644,16772800,16747122,Tag0,unknown
1610201653618,51,44,9.66796875E-6,56,56,40,634328,203032,73009,24290,34340,80644,16772800,16747122,Tag0,unknown
1610201653637,51,53,1.1645507812500002E-5,56,56,40,634328,203032,73009,24290,34340,80644,16772800,16747122,Tag0,unknown
1610201653651,51,55,1.20849609375E-5,56,56,40,634328,203032,73009,24290,34340,80644,16772800,16747122,Tag0,unknown
1610201653673,51,60,1.318359375E-5,56,56,40,634328,203032,73009,24290,34340,80644,16772800,16747122,Tag0,unknown
1610201653684,51,66,1.4501953125E-5,56,56,40,634328,203032,73009,24290,34340,80644,16772800,16747122,Tag0,unknown
1610201653707,51,65,1.42822265625E-5,56,56,40,634328,203032,73009,24290,34340,80644,16772800,16747122,Tag0,unknown
1610201653718,51,65,1.42822265625E-5,56,56,40,634328,203032,73009,24290,34340,80644,16772800,16747122,Tag0,unknown
1610201653749,51,66,1.4501953125E-5,56,56,40,634328,203032,73009,24290,34340,80644,16772800,16747122,Tag0,unknown
1610201653767,51,66,1.4501953125E-5,56,56,40,634328,203032,73009,24290,34340,80644,16772800,16747122,Tag0,unknown
1610201653777,25,66,1.4501953125E-5,56,56,40,1275166,798918,98478,141627,142486,146510,207320,45195,Tag0,unknown
1610201653792,25,66,1.4501953125E-5,56,56,40,1275166,798918,98478,141627,142486,146510,207320,45195,Tag0,unknown
1610201653805,25,67,1.4721679687500002E-5,56,56,40,1275166,798918,98478,141627,142486,146510,207320,45195,Tag0,unknown
1610201653818,25,68,1.4941406250000001E-5,56,56,40,1275166,798918,98478,141627,142486,146510,207320,45195,Tag0,unknown
1610201653836,25,66,1.4501953125E-5,56,56,40,1275166,798918,98478,141627,142486,146510,207320,45195,Tag0,unknown
1610201653846,25,67,1.4721679687500002E-5,56,56,40,1275166,798918,98478,141627,142486,146510,207320,45195,Tag0,unknown
1610201653901,25,67,1.4721679687500002E-5,56,56,40,1275166,798918,98478,141627,142486,146510,207320,45195,Tag0,unknown
1610201653919,25,67,1.4721679687500002E-5,56,56,40,1275166,798918,98478,141627,142486,146510,207320,45195,Tag0,unknown
1610201653929,25,-568,-1.248046875E-4,56,56,40,1275166,798918,98478,141627,142486,146510,207320,45195,Tag0,unknown
1610201653940,25,-216,-4.7460937500000004E-5,56,56,40,1275166,798918,98478,141627,142486,146510,207320,45195,Tag0,unknown
1610201653952,25,-204,-4.4824218749999996E-5,56,56,40,1275166,798918,98478,141627,142486,146510,207320,45195,Tag0,unknown
1610201653968,25,-185,-4.06494140625E-5,56,56,40,1275166,798918,98478,141627,142486,146510,207320,45195,Tag0,unknown
1610201653984,25,-356,-7.822265625E-5,56,56,40,1275166,798918,98478,141627,142486,146510,207320,45195,Tag0,unknown
1610201654007,25,-341,-7.492675781250002E-5,56,56,40,1275166,798918,98478,141627,142486,146510,207320,45195,Tag0,unknown
1610201654019,25,-326,-7.163085937500001E-5,56,56,40,1275166,798918,98478,141627,142486,146510,207320,45195,Tag0,unknown
1610201654029,25,2,4.39453125E-7,56,56,40,1275166,798918,98478,141627,142486,146510,207320,45195,Tag0,unknown
1610201654049,25,17,3.7353515625000003E-6,56,56,40,1275166,798918,98478,141627,142486,146510,207320,45195,Tag0,unknown
1610201654068,25,22,4.833984375E-6,56,56,40,1275166,798918,98478,141627,142486,146510,207320,45195,Tag0,unknown
1610201654087,25,35,7.6904296875E-6,56,56,40,1275166,798918,98478,141627,142486,146510,207320,45195,Tag0,unknown
1610201654101,25,37,8.1298828125E-6,56,56,40,1275166,798918,98478,141627,142486,146510,207320,45195,Tag0,unknown
1610201654111,25,52,1.142578125E-5,56,56,40,1275166,798918,98478,141627,142486,146510,207320,45195,Tag0,unknown
1610201654125,25,54,1.1865234375000001E-5,56,56,40,1275166,798918,98478,141627,142486,146510,207320,45195,Tag0,unknown
1610201654135,25,56,1.23046875E-5,56,56,40,1275166,798918,98478,141627,142486,146510,207320,45195,Tag0,unknown
1610201654160,25,59,1.29638671875E-5,56,56,40,1275166,798918,98478,141627,142486,146510,207320,45195,Tag0,unknown
1610201654170,25,59,1.29638671875E-5,56,56,40,1275166,798918,98478,141627,142486,146510,207320,45195,Tag0,unknown
1610201654185,25,66,1.4501953125E-5,56,56,40,1275166,798918,98478,141627,142486,146510,207320,45195,Tag0,unknown
1610201654202,25,65,1.42822265625E-5,56,56,40,1275166,798918,98478,141627,142486,146510,207320,45195,Tag0,unknown
1610201654219,25,65,1.42822265625E-5,56,56,40,1275166,798918,98478,141627,142486,146510,207320,45195,Tag0,unknown
1610201654244,25,67,1.4721679687500002E-5,56,56,40,1275166,798918,98478,141627,142486,146510,207320,45195,Tag0,unknown
1610201654254,25,66,1.4501953125E-5,56,56,40,1275166,798918,98478,141627,142486,146510,207320,45195,Tag0,unknown
1610201654277,25,68,1.4941406250000001E-5,56,56,40,1275166,798918,98478,141627,142486,146510,207320,45195,Tag0,unknown
1610201654287,25,67,1.4721679687500002E-5,56,56,40,1275166,798918,98478,141627,142486,146510,207320,45195,Tag0,unknown
1610201654315,25,68,1.4941406250000001E-5,56,56,40,1275166,798918,98478,141627,142486,146510,207320,45195,Tag0,unknown
1610201654325,25,68,1.4941406250000001E-5,56,56,40,1275166,798918,98478,141627,142486,146510,207320,45195,Tag0,unknown
1610201654351,25,66,1.4501953125E-5,56,56,40,1275166,798918,98478,141627,142486,146510,207320,45195,Tag0,unknown
1610201654368,25,66,1.4501953125E-5,56,56,40,1275166,798918,98478,141627,142486,146510,207320,45195,Tag0,unknown
1610201654389,25,67,1.4721679687500002E-5,56,56,40,1275166,798918,98478,141627,142486,146510,207320,45195,Tag0,unknown
1610201654402,25,66,1.4501953125E-5,56,56,40,1275166,798918,98478,141627,142486,146510,207320,45195,Tag0,unknown
1610201654423,25,67,1.4721679687500002E-5,56,56,40,1275166,798918,98478,141627,142486,146510,207320,45195,Tag0,unknown
1610201654435,25,67,1.4721679687500002E-5,56,56,40,1275166,798918,98478,141627,142486,146510,207320,45195,Tag0,unknown
1610201654445,25,67,1.4721679687500002E-5,56,56,40,1275166,798918,98478,141627,142486,146510,207320,45195,Tag0,unknown
1610201654461,25,67,1.4721679687500002E-5,56,56,40,1275166,798918,98478,141627,142486,146510,207320,45195,Tag0,unknown
1610201654471,25,67,1.4721679687500002E-5,56,56,40,1275166,798918,98478,141627,142486,146510,207320,45195,Tag0,unknown
1610201654500,25,68,1.4941406250000001E-5,56,56,40,1275166,798918,98478,141627,142486,146510,207320,45195,Tag0,unknown
1610201654518,25,67,1.4721679687500002E-5,56,56,40,1275166,798918,98478,141627,142486,146510,207320,45195,Tag0,unknown
1610201654538,25,67,1.4721679687500002E-5,56,56,40,1275166,798918,98478,141627,142486,146510,207320,45195,Tag0,unknown
1610201654551,25,67,1.4721679687500002E-5,56,56,40,1275166,798918,98478,141627,142486,146510,207320,45195,Tag0,unknown
1610201654573,25,67,1.4721679687500002E-5,56,56,40,1275166,798918,98478,141627,142486,146510,207320,45195,Tag0,unknown
1610201654585,25,67,1.4721679687500002E-5,56,56,40,1275166,798918,98478,141627,142486,146510,207320,45195,Tag0,unknown
1610201654595,25,67,1.4721679687500002E-5,56,56,40,1275166,798918,98478,141627,142486,146510,207320,45195,Tag0,unknown
1610201654610,25,67,1.4721679687500002E-5,56,56,40,1275166,798918,98478,141627,142486,146510,207320,45195,Tag0,unknown
1610201654620,25,67,1.4721679687500002E-5,56,56,40,1275166,798918,98478,141627,142486,146510,207320,45195,Tag0,unknown
1610201654651,25,68,1.4941406250000001E-5,56,56,40,1275166,798918,98478,141627,142486,146510,207320,45195,Tag0,unknown
1610201654668,25,68,1.4941406250000001E-5,56,56,40,1275166,798918,98478,141627,142486,146510,207320,45195,Tag0,unknown
1610201654678,25,68,1.4941406250000001E-5,56,56,40,1275166,798918,98478,141627,142486,146510,207320,45195,Tag0,unknown
1610201654688,25,68,1.4941406250000001E-5,56,56,40,1275166,798918,98478,141627,142486,146510,207320,45195,Tag0,unknown
1610201654703,25,68,1.4941406250000001E-5,56,56,40,1275166,798918,98478,141627,142486,146510,207320,45195,Tag0,unknown
1610201654728,25,67,1.4721679687500002E-5,56,56,40,1275166,798918,98478,141627,142486,146510,207320,45195,Tag0,unknown
1610201654738,25,67,1.4721679687500002E-5,56,56,40,1275166,798918,98478,141627,142486,146510,207320,45195,Tag0,unknown
1610201654770,51,69,1.51611328125E-5,56,56,40,1002148,415672,16751819,16761463,16762414,16756740,11692,6453,Tag0,unknown
1610201654786,51,67,1.4721679687500002E-5,56,56,40,1002148,415672,16751819,16761463,16762414,16756740,11692,6453,Tag0,unknown
1610201654807,51,68,1.4941406250000001E-5,56,56,40,1002148,415672,16751819,16761463,16762414,16756740,11692,6453,Tag0,unknown
1610201654818,51,83,1.82373046875E-5,56,56,40,1002148,415672,16751819,16761463,16762414,16756740,11692,6453,Tag0,unknown
1610201654828,51,-377,-8.28369140625E-5,56,56,40,1002148,415672,16751819,16761463,16762414,16756740,11692,6453,Tag0,unknown
1610201654843,51,-363,-7.97607421875E-5,56,56,40,1002148,415672,16751819,16761463,16762414,16756740,11692,6453,Tag0,unknown
1610201654853,51,-354,-7.778320312500001E-5,56,56,40,1002148,415672,16751819,16761463,16762414,16756740,11692,6453,Tag0,unknown
1610201654876,51,-307,-6.74560546875E-5,56,56,40,1002148,415672,16751819,16761463,16762414,16756740,11692,6453,Tag0,unknown
1610201654886,51,-298,-6.5478515625E-5,56,56,40,1002148,415672,16751819,16761463,16762414,16756740,11692,6453,Tag0,unknown
1610201654915,51,73,1.6040039062500002E-5,56,56,40,1002148,415672,16751819,16761463,16762414,16756740,11692,6453,Tag0,unknown
1610201654934,51,28,6.15234375E-6,56,56,40,1002148,415672,16751819,16761463,16762414,16756740,11692,6453,Tag0,unknown
1610201654955,51,37,8.1298828125E-6,56,56,40,1002148,415672,16751819,16761463,16762414,16756740,11692,6453,Tag0,unknown
1610201654968,51,38,8.349609375E-6,56,56,40,1002148,415672,16751819,16761463,16762414,16756740,11692,6453,Tag0,unknown
1610201654979,51,51,1.1206054687499999E-5,56,56,40,1002148,415672,16751819,16761463,16762414,16756740,11692,6453,Tag0,unknown
1610201654990,51,55,1.20849609375E-5,56,56,40,1002148,415672,16751819,16761463,16762414,16756740,11692,6453,Tag0,unknown
1610201655002,51,55,1.20849609375E-5,56,56,40,1002148,415672,16751819,16761463,16762414,16756740,11692,6453,Tag0,unknown
1610201655024,51,59,1.29638671875E-5,56,56,40,1002148,415672,16751819,16761463,16762414,16756740,11692,6453,Tag0,unknown
1610201655035,51,59,1.29638671875E-5,56,56,40,1002148,415672,16751819,16761463,16762414,16756740,11692,6453,Tag0,unknown
1610201655045,51,61,1.34033203125E-5,56,56,40,1002148,415672,16751819,16761463,16762414,16756740,11692,6453,Tag0,unknown
1610201655061,51,68,1.4941406250000001E-5,56,56,40,1002148,415672,16751819,16761463,16762414,16756740,11692,6453,Tag0,unknown
1610201655071,51,68,1.4941406250000001E-5,56,56,40,1002148,415672,16751819,16761463,16762414,16756740,11692,6453,Tag0,unknown
1610201655084,51,66,1.4501953125E-5,56,56,40,1002148,415672,16751819,16761463,16762414,16756740,11692,6453,Tag0,unknown
1610201655101,51,66,1.4501953125E-5,56,56,40,1002148,415672,16751819,16761463,16762414,16756740,11692,6453,Tag0,unknown
1610201655118,51,67,1.4721679687500002E-5,56,56,40,1002148,415672,16751819,16761463,16762414,16756740,11692,6453,Tag0,unknown
1610201655135,51,-20,-4.39453125E-6,56,56,40,1002148,415672,16751819,16761463,16762414,16756740,11692,6453,Tag0,unknown
1610201655151,51,59,1.29638671875E-5,56,56,40,1002148,415672,16751819,16761463,16762414,16756740,11692,6453,Tag0,unknown
1610201655183,51,61,1.34033203125E-5,56,56,40,1002148,415672,16751819,16761463,16762414,16756740,11692,6453,Tag0,unknown
1610201655202,51,61,1.34033203125E-5,56,56,40,1002148,415672,16751819,16761463,16762414,16756740,11692,6453,Tag0,unknown
1610201655212,51,66,1.4501953125E-5,56,56,40,1002148,415672,16751819,16761463,16762414,16756740,11692,6453,Tag0,unknown
1610201655223,51,68,1.4941406250000001E-5,56,56,40,1002148,415672,16751819,16761463,16762414,16756740,11692,6453,Tag0,unknown
1610201655236,51,65,1.42822265625E-5,56,56,40,1002148,415672,16751819,16761463,16762414,16756740,11692,6453,Tag0,unknown
1610201655253,51,68,1.4941406250000001E-5,56,56,40,1002148,415672,16751819,16761463,16762414,16756740,11692,6453,Tag0,unknown
1610201655268,51,67,1.4721679687500002E-5,56,56,40,1002148,415672,16751819,16761463,16762414,16756740,11692,6453,Tag0,unknown
1610201655285,51,67,1.4721679687500002E-5,56,56,40,1002148,415672,16751819,16761463,16762414,16756740,11692,6453,Tag0,unknown
1610201655305,51,68,1.4941406250000001E-5,56,56,40,1002148,415672,16751819,16761463,16762414,16756740,11692,6453,Tag0,unknown
1610201655325,51,68,1.4941406250000001E-5,56,56,40,1002148,415672,16751819,16761463,16762414,16756740,11692,6453,Tag0,unknown
1610201655335,51,67,1.4721679687500002E-5,56,56,40,1002148,415672,16751819,16761463,16762414,16756740,11692,6453,Tag0,unknown
1610201655345,51,74,1.6259765625E-5,56,56,40,1002148,415672,16751819,16761463,16762414,16756740,11692,6453,Tag0,unknown
1610201655360,51,66,1.4501953125E-5,56,56,40,1002148,415672,16751819,16761463,16762414,16756740,11692,6453,Tag0,unknown
1610201655370,51,69,1.51611328125E-5,56,56,40,1002148,415672,16751819,16761463,16762414,16756740,11692,6453,Tag0,unknown
1610201655385,51,67,1.4721679687500002E-5,56,56,40,1002148,415672,16751819,16761463,16762414,16756740,11692,6453,Tag0,unknown
1610201655402,51,68,1.4941406250000001E-5,56,56,40,1002148,415672,16751819,16761463,16762414,16756740,11692,6453,Tag0,unknown
1610201655418,51,69,1.51611328125E-5,56,56,40,1002148,415672,16751819,16761463,16762414,16756740,11692,6453,Tag0,unknown
1610201655441,51,48,1.0546875E-5,56,56,40,1002148,415672,16751819,16761463,16762414,16756740,11692,6453,Tag0,unknown
1610201655452,51,-59,-1.29638671875E-5,56,56,40,1002148,415672,16751819,16761463,16762414,16756740,11692,6453,Tag0,unknown
1610201655474,51,54,1.1865234375000001E-5,56,56,40,1002148,415672,16751819,16761463,16762414,16756740,11692,6453,Tag0,unknown
1610201655485,51,55,1.20849609375E-5,56,56,40,1002148,415672,16751819,16761463,16762414,16756740,11692,6453,Tag0,unknown
1610201655514,51,64,1.40625E-5,56,56,40,1002148,415672,16751819,16761463,16762414,16756740,11692,6453,Tag0,unknown
1610201655535,51,66,1.4501953125E-5,56,56,40,1002148,415672,16751819,16761463,16762414,16756740,11692,6453,Tag0,unknown
1610201655556,51,715,1.571044921875E-4,56,56,40,1002148,415672,16751819,16761463,16762414,16756740,11692,6453,Tag0,unknown
1610201655569,51,1791,3.935302734375E-4,56,56,40,1002148,415672,16751819,16761463,16762414,16756740,11692,6453,Tag0,unknown
1610201655579,51,-308,-6.767578125E-5,56,56,40,1002148,415672,16751819,16761463,16762414,16756740,11692,6453,Tag0,unknown
1610201655597,51,-293,-6.43798828125E-5,56,56,40,1002148,415672,16751819,16761463,16762414,16756740,11692,6453,Tag0,unknown
1610201655607,51,0,0.0,56,56,40,1002148,415672,16751819,16761463,16762414,16756740,11692,6453,Tag0,unknown
1610201655631,51,3,6.591796875E-7,56,56,40,1002148,415672,16751819,16761463,16762414,16756740,11692,6453,Tag0,unknown
1610201655641,51,20,4.39453125E-6,56,56,40,1002148,415672,16751819,16761463,16762414,16756740,11692,6453,Tag0,unknown
1610201655651,51,21,4.614257812500001E-6,56,56,40,1002148,415672,16751819,16761463,16762414,16756740,11692,6453,Tag0,unknown
1610201655675,51,41,9.008789062499999E-6,56,56,40,1002148,415672,16751819,16761463,16762414,16756740,11692,6453,Tag0,unknown
1610201655685,51,44,9.66796875E-6,56,56,40,1002148,415672,16751819,16761463,16762414,16756740,11692,6453,Tag0,unknown
1610201655702,51,51,1.1206054687499999E-5,56,56,40,1002148,415672,16751819,16761463,16762414,16756740,11692,6453,Tag0,unknown
1610201655719,51,53,1.1645507812500002E-5,56,56,40,1002148,415672,16751819,16761463,16762414,16756740,11692,6453,Tag0,unknown
1610201655729,51,61,1.34033203125E-5,56,56,40,1002148,415672,16751819,16761463,16762414,16756740,11692,6453,Tag0,unknown
1610201655746,51,60,1.318359375E-5,56,56,40,1002148,415672,16751819,16761463,16762414,16756740,11692,6453,Tag0,unknown
1610201655756,25,62,1.3623046875E-5,56,56,40,1272376,676823,472346,320981,164047,150217,99871,16772014,Tag0,unknown
1610201655779,25,66,1.4501953125E-5,56,56,40,1272376,676823,472346,320981,164047,150217,99871,16772014,Tag0,unknown
1610201655789,25,65,1.42822265625E-5,56,56,40,1272376,676823,472346,320981,164047,150217,99871,16772014,Tag0,unknown
1610201655805,25,67,1.4721679687500002E-5,56,56,40,1272376,676823,472346,320981,164047,150217,99871,16772014,Tag0,unknown
1610201655818,25,67,1.4721679687500002E-5,56,56,40,1272376,676823,472346,320981,164047,150217,99871,16772014,Tag0,unknown
1610201655834,25,73,1.6040039062500002E-5,56,56,40,1272376,676823,472346,320981,164047,150217,99871,16772014,Tag0,unknown
1610201655857,25,67,1.4721679687500002E-5,56,56,40,1272376,676823,472346,320981,164047,150217,99871,16772014,Tag0,unknown
1610201655868,25,65,1.42822265625E-5,56,56,40,1272376,676823,472346,320981,164047,150217,99871,16772014,Tag0,unknown
1610201655889,25,64,1.40625E-5,56,56,40,1272376,676823,472346,320981,164047,150217,99871,16772014,Tag0,unknown
1610201655902,25,61,1.34033203125E-5,56,56,40,1272376,676823,472346,320981,164047,150217,99871,16772014,Tag0,unknown
1610201655927,25,71,1.56005859375E-5,56,56,40,1272376,676823,472346,320981,164047,150217,99871,16772014,Tag0,unknown
1610201655937,25,67,1.4721679687500002E-5,56,56,40,1272376,676823,472346,320981,164047,150217,99871,16772014,Tag0,unknown
1610201655969,25,69,1.51611328125E-5,56,56,40,1272376,676823,472346,320981,164047,150217,99871,16772014,Tag0,unknown
1610201655984,25,71,1.56005859375E-5,56,56,40,1272376,676823,472346,320981,164047,150217,99871,16772014,Tag0,unknown
1610201655994,25,72,1.58203125E-5,56,56,40,1272376,676823,472346,320981,164047,150217,99871,16772014,Tag0,unknown
1610201656009,25,77,1.69189453125E-5,56,56,40,1272376,676823,472346,320981,164047,150217,99871,16772014,Tag0,unknown
1610201656019,25,73,1.6040039062500002E-5,56,56,40,1272376,676823,472346,320981,164047,150217,99871,16772014,Tag0,unknown
1610201656034,25,73,1.6040039062500002E-5,56,56,40,1272376,676823,472346,320981,164047,150217,99871,16772014,Tag0,unknown
1610201656053,25,69,1.51611328125E-5,56,56,40,1272376,676823,472346,320981,164047,150217,99871,16772014,Tag0,unknown
1610201656068,25,75,1.64794921875E-5,56,56,40,1272376,676823,472346,320981,164047,150217,99871,16772014,Tag0,unknown
1610201656085,25,69,1.51611328125E-5,56,56,40,1272376,676823,472346,320981,164047,150217,99871,16772014,Tag0,unknown
1610201656112,25,75,1.64794921875E-5,56,56,40,1272376,676823,472346,320981,164047,150217,99871,16772014,Tag0,unknown
1610201656122,25,67,1.4721679687500002E-5,56,56,40,1272376,676823,472346,320981,164047,150217,99871,16772014,Tag0,unknown
1610201656132,25,75,1.64794921875E-5,56,56,40,1272376,676823,472346,320981,164047,150217,99871,16772014,Tag0,unknown
1610201656153,25,74,1.6259765625E-5,56,56,40,1272376,676823,472346,320981,164047,150217,99871,16772014,Tag0,unknown
1610201656168,25,88,1.93359375E-5,56,56,40,1272376,676823,472346,320981,164047,150217,99871,16772014,Tag0,unknown
1610201656188,25,83,1.82373046875E-5,56,56,40,1272376,676823,472346,320981,164047,150217,99871,16772014,Tag0,unknown
1610201656203,25,67,1.4721679687500002E-5,56,56,40,1272376,676823,472346,320981,164047,150217,99871,16772014,Tag0,unknown
1610201656224,25,87,1.91162109375E-5,56,56,40,1272376,676823,472346,320981,164047,150217,99871,16772014,Tag0,unknown
1610201656236,25,86,1.8896484375000003E-5,56,56,40,1272376,676823,472346,320981,164047,150217,99871,16772014,Tag0,unknown
1610201656252,25,87,1.91162109375E-5,56,56,40,1272376,676823,472346,320981,164047,150217,99871,16772014,Tag0,unknown
1610201656278,25,109,2.39501953125E-5,56,56,40,1272376,676823,472346,320981,164047,150217,99871,16772014,Tag0,unknown
1610201656288,25,105,2.30712890625E-5,56,56,40,1272376,676823,472346,320981,164047,150217,99871,16772014,Tag0,unknown
1610201656303,25,101,2.2192382812500002E-5,56,56,40,1272376,676823,472346,320981,164047,150217,99871,16772014,Tag0,unknown
1610201656318,25,85,1.86767578125E-5,56,56,40,1272376,676823,472346,320981,164047,150217,99871,16772014,Tag0,unknown
1610201656335,25,-120,-2.63671875E-5,56,56,40,1272376,676823,472346,320981,164047,150217,99871,16772014,Tag0,unknown
1610201656351,25,-123,-2.70263671875E-5,56,56,40,1272376,676823,472346,320981,164047,150217,99871,16772014,Tag0,unknown
1610201656374,25,-125,-2.74658203125E-5,56,56,40,1272376,676823,472346,320981,164047,150217,99871,16772014,Tag0,unknown
1610201656385,25,65,1.42822265625E-5,56,56,40,1272376,676823,472346,320981,164047,150217,99871,16772014,Tag0,unknown
1610201656402,25,102,2.2412109374999998E-5,56,56,40,1272376,676823,472346,320981,164047,150217,99871,16772014,Tag0,unknown
1610201656419,25,75,1.64794921875E-5,56,56,40,1272376,676823,472346,320981,164047,150217,99871,16772014,Tag0,unknown
1610201656435,25,61,1.34033203125E-5,56,56,40,1272376,676823,472346,320981,164047,150217,99871,16772014,Tag0,unknown
1610201656460,25,2,4.39453125E-7,56,56,40,1272376,676823,472346,320981,164047,150217,99871,16772014,Tag0,unknown
1610201656470,25,57,1.2524414062500001E-5,56,56,40,1272376,676823,472346,320981,164047,150217,99871,16772014,Tag0,unknown
1610201656497,25,-277,-6.0864257812500005E-5,56,56,40,1272376,676823,472346,320981,164047,150217,99871,16772014,Tag0,unknown
1610201656518,25,11,2.4169921875E-6,56,56,40,1272376,676823,472346,320981,164047,150217,99871,16772014,Tag0,unknown
1610201656536,25,102,2.2412109374999998E-5,56,56,40,1272376,676823,472346,320981,164047,150217,99871,16772014,Tag0,unknown
1610201656562,25,55,1.20849609375E-5,56,56,40,1272376,676823,472346,320981,164047,150217,99871,16772014,Tag0,unknown
1610201656572,25,-11,-2.4169921875E-6,56,56,40,1272376,676823,472346,320981,164047,150217,99871,16772014,Tag0,unknown
1610201656610,25,-121,-2.6586914062500003E-5,56,56,40,1272376,676823,472346,320981,164047,150217,99871,16772014,Tag0,unknown
1610201656620,25,-48,-1.0546875E-5,56,56,40,1272376,676823,472346,320981,164047,150217,99871,16772014,Tag0,unknown
1610201656646,25,64,1.40625E-5,56,56,40,1272376,676823,472346,320981,164047,150217,99871,16772014,Tag0,unknown
1610201656656,25,87,1.91162109375E-5,56,56,40,1272376,676823,472346,320981,164047,150217,99871,16772014,Tag0,unknown
1610201656670,25,83,1.82373046875E-5,56,56,40,1272376,676823,472346,320981,164047,150217,99871,16772014,Tag0,unknown
1610201656685,25,89,1.95556640625E-5,56,56,40,1272376,676823,472346,320981,164047,150217,99871,16772014,Tag0,unknown
1610201656711,25,81,1.77978515625E-5,56,56,40,1272376,676823,472346,320981,164047,150217,99871,16772014,Tag0,unknown
1610201656721,25,48,1.0546875E-5,56,56,40,1272376,676823,472346,320981,164047,150217,99871,16772014,Tag0,unknown
1610201656740,0,-259,-5.69091796875E-5,53,60,40,278704,416447,141317,81881,16755355,66699,24323,19413,Tag0,unknown
1610201656756,0,-297,-6.525878906250001E-5,53,60,40,278704,416447,141317,81881,16755355,66699,24323,19413,Tag0,unknown
1610201656769,0,4,8.7890625E-7,53,60,40,278704,416447,141317,81881,16755355,66699,24323,19413,Tag0,unknown
1610201656779,0,-267,-5.86669921875E-5,53,60,40,278704,416447,141317,81881,16755355,66699,24323,19413,Tag0,unknown
1610201656794,0,-61,-1.34033203125E-5,53,60,40,278704,416447,141317,81881,16755355,66699,24323,19413,Tag0,unknown
1610201656804,0,-105,-2.30712890625E-5,53,60,40,278704,416447,141317,81881,16755355,66699,24323,19413,Tag0,unknown
1610201656824,0,-347,-7.62451171875E-5,53,60,40,278704,416447,141317,81881,16755355,66699,24323,19413,Tag0,unknown
1610201656837,0,-299,-6.56982421875E-5,53,60,40,278704,416447,141317,81881,16755355,66699,24323,19413,Tag0,unknown
1610201656853,0,36,7.91015625E-6,53,60,40,278704,416447,141317,81881,16755355,66699,24323,19413,Tag0,unknown
1610201656869,0,-264,-5.80078125E-5,53,60,40,278704,416447,141317,81881,16755355,66699,24323,19413,Tag0,unknown
1610201656905,0,55,1.20849609375E-5,53,60,40,278704,416447,141317,81881,16755355,66699,24323,19413,Tag0,unknown
1610201656919,0,69,1.51611328125E-5,53,60,40,278704,416447,141317,81881,16755355,66699,24323,19413,Tag0,unknown
1610201656939,0,61,1.34033203125E-5,53,60,40,278704,416447,141317,81881,16755355,66699,24323,19413,Tag0,unknown
1610201656956,0,85,1.86767578125E-5,53,60,40,278704,416447,141317,81881,16755355,66699,24323,19413,Tag0,unknown
1610201656973,0,-125,-2.74658203125E-5,53,60,40,278704,416447,141317,81881,16755355,66699,24323,19413,Tag0,unknown
1610201656985,0,1323,2.906982421875E-4,53,60,40,278704,416447,141317,81881,16755355,66699,24323,19413,Tag0,unknown
1610201657005,0,-888,-1.951171875E-4,53,60,40,278704,416447,141317,81881,16755355,66699,24323,19413,Tag0,unknown
1610201657018,0,-499,-1.096435546875E-4,53,60,40,278704,416447,141317,81881,16755355,66699,24323,19413,Tag0,unknown
1610201657034,0,-15,-3.2958984375E-6,53,60,40,278704,416447,141317,81881,16755355,66699,24323,19413,Tag0,unknown
1610201657051,0,-155,-3.40576171875E-5,53,60,40,278704,416447,141317,81881,16755355,66699,24323,19413,Tag0,unknown
1610201657068,0,-211,-4.63623046875E-5,53,60,40,278704,416447,141317,81881,16755355,66699,24323,19413,Tag0,unknown
1610201657088,0,-75,-1.64794921875E-5,53,60,40,278704,416447,141317,81881,16755355,66699,24323,19413,Tag0,unknown
1610201657100,0,54,1.1865234375000001E-5,53,60,40,278704,416447,141317,81881,16755355,66699,24323,19413,Tag0,unknown
1610201657119,0,51,1.1206054687499999E-5,53,60,40,278704,416447,141317,81881,16755355,66699,24323,19413,Tag0,unknown
1610201657134,0,369,8.10791015625E-5,53,60,40,278704,416447,141317,81881,16755355,66699,24323,19413,Tag0,unknown
1610201657167,0,262,5.7568359375E-5,53,60,40,278704,416447,141317,81881,16755355,66699,24323,19413,Tag0,unknown
1610201657186,0,-210,-4.6142578125E-5,53,60,40,278704,416447,141317,81881,16755355,66699,24323,19413,Tag0,unknown
1610201657202,0,-182,-3.9990234375E-5,53,60,40,278704,416447,141317,81881,16755355,66699,24323,19413,Tag0,unknown
1610201657219,0,-346,-7.6025390625E-5,53,60,40,278704,416447,141317,81881,16755355,66699,24323,19413,Tag0,unknown
1610201657235,0,79,1.7358398437500003E-5,53,60,40,278704,416447,141317,81881,16755355,66699,24323,19413,Tag0,unknown
1610201657274,0,-328,-7.207031249999999E-5,53,60,40,278704,416447,141317,81881,16755355,66699,24323,19413,Tag0,unknown
1610201657286,0,466,1.0239257812500001E-4,53,60,40,278704,416447,141317,81881,16755355,66699,24323,19413,Tag0,unknown
1610201657312,0,75,1.64794921875E-5,53,60,40,278704,416447,141317,81881,16755355,66699,24323,19413,Tag0,unknown
1610201657322,0,-538,-1.1821289062499999E-4,53,60,40,278704,416447,141317,81881,16755355,66699,24323,19413,Tag0,unknown
1610201657336,0,-221,-4.85595703125E-5,53,60,40,278704,416447,141317,81881,16755355,66699,24323,19413,Tag0,unknown
1610201657354,0,-23,-5.0537109375E-6,53,60,40,278704,416447,141317,81881,16755355,66699,24323,19413,Tag0,unknown
1610201657368,0,330,7.2509765625E-5,53,60,40,278704,416447,141317,81881,16755355,66699,24323,19413,Tag0,unknown
1610201657390,0,-529,-1.162353515625E-4,53,60,40,278704,416447,141317,81881,16755355,66699,24323,19413,Tag0,unknown
1610201657403,0,-165,-3.62548828125E-5,53,60,40,278704,416447,141317,81881,16755355,66699,24323,19413,Tag0,unknown
1610201657429,0,-312,-6.85546875E-5,53,60,40,278704,416447,141317,81881,16755355,66699,24323,19413,Tag0,unknown
1610201657439,0,-77,-1.69189453125E-5,53,60,40,278704,416447,141317,81881,16755355,66699,24323,19413,Tag0,unknown
1610201657466,0,-92,-2.021484375E-5,53,60,40,278704,416447,141317,81881,16755355,66699,24323,19413,Tag0,unknown
1610201657486,0,-115,-2.52685546875E-5,53,60,40,278704,416447,141317,81881,16755355,66699,24323,19413,Tag0,unknown
1610201657496,0,-125,-2.74658203125E-5,53,60,40,278704,416447,141317,81881,16755355,66699,24323,19413,Tag0,unknown
1610201657506,0,-27,-5.9326171875000005E-6,53,60,40,278704,416447,141317,81881,16755355,66699,24323,19413,Tag0,unknown
1610201657518,0,-95,-2.08740234375E-5,53,60,40,278704,416447,141317,81881,16755355,66699,24323,19413,Tag0,unknown
1610201657537,0,1301,2.858642578125E-4,53,60,40,278704,416447,141317,81881,16755355,66699,24323,19413,Tag0,unknown
1610201657552,0,1787,3.926513671875E-4,53,60,40,278704,416447,141317,81881,16755355,66699,24323,19413,Tag0,unknown
1610201657578,0,1791,3.935302734375E-4,53,60,40,278704,416447,141317,81881,16755355,66699,24323,19413,Tag0,unknown
1610201657588,0,980,2.1533203125E-4,53,60,40,278704,416447,141317,81881,16755355,66699,24323,19413,Tag0,unknown
1610201657617,0,461,1.0129394531250001E-4,53,60,40,278704,416447,141317,81881,16755355,66699,24323,19413,Tag0,unknown
1610201657635,0,-125,-2.74658203125E-5,53,60,40,278704,416447,141317,81881,16755355,66699,24323,19413,Tag0,unknown
1610201657645,0,-1594,-3.50244140625E-4,53,60,40,278704,416447,141317,81881,16755355,66699,24323,19413,Tag0,unknown
1610201657656,0,-380,-8.349609375E-5,53,60,40,278704,416447,141317,81881,16755355,66699,24323,19413,Tag0,unknown
1610201657669,0,765,1.680908203125E-4,53,60,40,278704,416447,141317,81881,16755355,66699,24323,19413,Tag0,unknown
1610201657698,0,-277,-6.0864257812500005E-5,53,60,40,278704,416447,141317,81881,16755355,66699,24323,19413,Tag0,unknown
1610201657719,0,139,3.0541992187500004E-5,53,60,40,278704,416447,141317,81881,16755355,66699,24323,19413,Tag0,unknown
1610201657756,0,989,2.173095703125E-4,53,60,40,278704,416447,141317,81881,16755355,66699,24323,19413,Tag0,unknown
1610201657770,0,835,1.834716796875E-4,53,60,40,278704,416447,141317,81881,16755355,66699,24323,19413,Tag0,unknown
1610201657782,26,534,1.17333984375E-4,53,60,40,389823,240516,136547,16776680,64871,113199,79581,212295,Tag0,unknown
1610201657795,26,-1126,-2.47412109375E-4,53,60,40,389823,240516,136547,16776680,64871,113199,79581,212295,Tag0,unknown
1610201657810,26,-1075,-2.362060546875E-4,53,60,40,389823,240516,136547,16776680,64871,113199,79581,212295,Tag0,unknown
1610201657820,26,-711,-1.562255859375E-4,53,60,40,389823,240516,136547,16776680,64871,113199,79581,212295,Tag0,unknown
1610201657846,26,-173,-3.80126953125E-5,53,60,40,389823,240516,136547,16776680,64871,113199,79581,212295,Tag0,unknown
1610201657856,26,-235,-5.16357421875E-5,53,60,40,389823,240516,136547,16776680,64871,113199,79581,212295,Tag0,unknown
1610201657869,26,-261,-5.73486328125E-5,53,60,40,389823,240516,136547,16776680,64871,113199,79581,212295,Tag0,unknown
1610201657887,26,-53,-1.1645507812500002E-5,53,60,40,389823,240516,136547,16776680,64871,113199,79581,212295,Tag0,unknown
1610201657903,26,1799,3.9528808593750005E-4,53,60,40,389823,240516,136547,16776680,64871,113199,79581,212295,Tag0,unknown
1610201657919,26,930,2.04345703125E-4,53,60,40,389823,240516,136547,16776680,64871,113199,79581,212295,Tag0,unknown
1610201657935,26,1736,3.814453125E-4,53,60,40,389823,240516,136547,16776680,64871,113199,79581,212295,Tag0,unknown
1610201657957,26,-1497,-3.289306640625E-4,53,60,40,389823,240516,136547,16776680,64871,113199,79581,212295,Tag0,unknown
1610201657970,26,-1223,-2.687255859375E-4,53,60,40,389823,240516,136547,16776680,64871,113199,79581,212295,Tag0,unknown
1610201657985,26,-115,-2.52685546875E-5,53,60,40,389823,240516,136547,16776680,64871,113199,79581,212295,Tag0,unknown
1610201658003,26,1108,2.4345703125000002E-4,53,60,40,389823,240516,136547,16776680,64871,113199,79581,212295,Tag0,unknown
1610201658019,26,474,1.0415039062500001E-4,53,60,40,389823,240516,136547,16776680,64871,113199,79581,212295,Tag0,unknown
1610201658035,26,56,1.23046875E-5,53,60,40,389823,240516,136547,16776680,64871,113199,79581,212295,Tag0,unknown
1610201658058,26,11,2.4169921875E-6,53,60,40,389823,240516,136547,16776680,64871,113199,79581,212295,Tag0,unknown
1610201658069,26,-22,-4.833984375E-6,53,60,40,389823,240516,136547,16776680,64871,113199,79581,212295,Tag0,unknown
1610201658086,26,1320,2.900390625E-4,53,60,40,389823,240516,136547,16776680,64871,113199,79581,212295,Tag0,unknown
1610201658104,26,1161,2.5510253906250004E-4,53,60,40,389823,240516,136547,16776680,64871,113199,79581,212295,Tag0,unknown
1610201658119,26,-13,-2.8564453125E-6,53,60,40,389823,240516,136547,16776680,64871,113199,79581,212295,Tag0,unknown
1610201658137,26,-791,-1.738037109375E-4,53,60,40,389823,240516,136547,16776680,64871,113199,79581,212295,Tag0,unknown
1610201658152,26,-1337,-2.937744140625E-4,53,60,40,389823,240516,136547,16776680,64871,113199,79581,212295,Tag0,unknown
1610201658176,26,-1257,-2.761962890625E-4,53,60,40,389823,240516,136547,16776680,64871,113199,79581,212295,Tag0,unknown
1610201658186,26,-1209,-2.656494140625E-4,53,60,40,389823,240516,136547,16776680,64871,113199,79581,212295,Tag0,unknown
1610201658213,26,-1035,-2.274169921875E-4,53,60,40,389823,240516,136547,16776680,64871,113199,79581,212295,Tag0,unknown
1610201658224,26,-651,-1.430419921875E-4,53,60,40,389823,240516,136547,16776680,64871,113199,79581,212295,Tag0,unknown
1610201658236,26,-600,-1.318359375E-4,53,60,40,389823,240516,136547,16776680,64871,113199,79581,212295,Tag0,unknown
1610201658253,26,284,6.240234375E-5,53,60,40,389823,240516,136547,16776680,64871,113199,79581,212295,Tag0,unknown
1610201658269,26,233,5.1196289062500006E-5,53,60,40,389823,240516,136547,16776680,64871,113199,79581,212295,Tag0,unknown
1610201658279,26,-259,-5.69091796875E-5,53,60,40,389823,240516,136547,16776680,64871,113199,79581,212295,Tag0,unknown
1610201658296,26,-187,-4.10888671875E-5,53,60,40,389823,240516,136547,16776680,64871,113199,79581,212295,Tag0,unknown
1610201658306,26,357,7.844238281250001E-5,53,60,40,389823,240516,136547,16776680,64871,113199,79581,212295,Tag0,unknown
1610201658335,26,195,4.28466796875E-5,53,60,40,389823,240516,136547,16776680,64871,113199,79581,212295,Tag0,unknown
1610201658352,26,-583,-1.281005859375E-4,53,60,40,389823,240516,136547,16776680,64871,113199,79581,212295,Tag0,unknown
1610201658362,26,241,5.29541015625E-5,53,60,40,389823,240516,136547,16776680,64871,113199,79581,212295,Tag0,unknown
1610201658373,26,128,2.8125E-5,53,60,40,389823,240516,136547,16776680,64871,113199,79581,212295,Tag0,unknown
1610201658386,26,-52,-1.142578125E-5,53,60,40,389823,240516,136547,16776680,64871,113199,79581,212295,Tag0,unknown
1610201658402,26,-45,-9.8876953125E-6,53,60,40,389823,240516,136547,16776680,64871,113199,79581,212295,Tag0,unknown
1610201658419,26,147,3.22998046875E-5,53,60,40,389823,240516,136547,16776680,64871,113199,79581,212295,Tag0,unknown
1610201658443,26,348,7.646484375E-5,53,60,40,389823,240516,136547,16776680,64871,113199,79581,212295,Tag0,unknown
1610201658453,26,289,6.35009765625E-5,53,60,40,389823,240516,136547,16776680,64871,113199,79581,212295,Tag0,unknown
1610201658480,26,-85,-1.86767578125E-5,53,60,40,389823,240516,136547,16776680,64871,113199,79581,212295,Tag0,unknown
1610201658490,26,338,7.426757812499999E-5,53,60,40,389823,240516,136547,16776680,64871,113199,79581,212295,Tag0,unknown
1610201658502,26,381,8.371582031250001E-5,53,60,40,389823,240516,136547,16776680,64871,113199,79581,212295,Tag0,unknown
1610201658529,26,-11,-2.4169921875E-6,53,60,40,389823,240516,136547,16776680,64871,113199,79581,212295,Tag0,unknown
1610201658539,26,145,3.18603515625E-5,53,60,40,389823,240516,136547,16776680,64871,113199,79581,212295,Tag0,unknown
1610201658551,26,-31,-6.8115234375E-6,53,60,40,389823,240516,136547,16776680,64871,113199,79581,212295,Tag0,unknown
1610201658575,26,-121,-2.6586914062500003E-5,53,60,40,389823,240516,136547,16776680,64871,113199,79581,212295,Tag0,unknown
1610201658586,26,-119,-2.6147460937500004E-5,53,60,40,389823,240516,136547,16776680,64871,113199,79581,212295,Tag0,unknown
1610201658613,26,301,6.613769531250001E-5,53,60,40,389823,240516,136547,16776680,64871,113199,79581,212295,Tag0,unknown
1610201658623,26,-312,-6.85546875E-5,53,60,40,389823,240516,136547,16776680,64871,113199,79581,212295,Tag0,unknown
1610201658648,26,325,7.14111328125E-5,53,60,40,389823,240516,136547,16776680,64871,113199,79581,212295,Tag0,unknown
1610201658658,26,196,4.306640625E-5,53,60,40,389823,240516,136547,16776680,64871,113199,79581,212295,Tag0,unknown
1610201658668,26,11,2.4169921875E-6,53,60,40,389823,240516,136547,16776680,64871,113199,79581,212295,Tag0,unknown
1610201658702,26,1084,2.3818359375E-4,53,60,40,389823,240516,136547,16776680,64871,113199,79581,212295,Tag0,unknown
1610201658719,26,1090,2.39501953125E-4,53,60,40,389823,240516,136547,16776680,64871,113199,79581,212295,Tag0,unknown
1610201658729,26,-2047,-4.497802734375E-4,53,60,40,389823,240516,136547,16776680,64871,113199,79581,212295,Tag0,unknown
1610201658739,26,-2048,-4.5E-4,53,60,40,574180,494558,54432,67057,153022,138948,76842,37863,Tag0,unknown
1610201658753,26,-1395,-3.065185546875E-4,53,60,40,574180,494558,54432,67057,153022,138948,76842,37863,Tag0,unknown
1610201658768,26,-1538,-3.37939453125E-4,53,60,40,574180,494558,54432,67057,153022,138948,76842,37863,Tag0,unknown
1610201658785,26,1791,3.935302734375E-4,53,60,40,574180,494558,54432,67057,153022,138948,76842,37863,Tag0,unknown
1610201658812,26,-1910,-4.19677734375E-4,53,60,40,574180,494558,54432,67057,153022,138948,76842,37863,Tag0,unknown
1610201658825,26,321,7.053222656250001E-5,53,60,40,574180,494558,54432,67057,153022,138948,76842,37863,Tag0,unknown
1610201658835,26,1108,2.4345703125000002E-4,53,60,40,574180,494558,54432,67057,153022,138948,76842,37863,Tag0,unknown
1610201658858,26,1509,3.315673828125E-4,53,60,40,574180,494558,54432,67057,153022,138948,76842,37863,Tag0,unknown
1610201658871,26,1444,3.1728515625E-4,53,60,40,574180,494558,54432,67057,153022,138948,76842,37863,Tag0,unknown
1610201658881,26,732,1.6083984375E-4,53,60,40,574180,494558,54432,67057,153022,138948,76842,37863,Tag0,unknown
1610201658894,26,-2048,-4.5E-4,53,60,40,574180,494558,54432,67057,153022,138948,76842,37863,Tag0,unknown
1610201658904,26,-2048,-4.5E-4,53,60,40,574180,494558,54432,67057,153022,138948,76842,37863,Tag0,unknown
1610201658927,26,-2048,-4.5E-4,53,60,40,574180,494558,54432,67057,153022,138948,76842,37863,Tag0,unknown
1610201658941,26,-1969,-4.3264160156250006E-4,53,60,40,574180,494558,54432,67057,153022,138948,76842,37863,Tag0,unknown
1610201658955,26,-1350,-2.96630859375E-4,53,60,40,574180,494558,54432,67057,153022,138948,76842,37863,Tag0,unknown
1610201658971,26,-923,-2.028076171875E-4,53,60,40,574180,494558,54432,67057,153022,138948,76842,37863,Tag0,unknown
1610201658986,26,-653,-1.434814453125E-4,53,60,40,574180,494558,54432,67057,153022,138948,76842,37863,Tag0,unknown
1610201659002,26,64,1.40625E-5,53,60,40,574180,494558,54432,67057,153022,138948,76842,37863,Tag0,unknown
1610201659029,26,577,1.2678222656250002E-4,53,60,40,574180,494558,54432,67057,153022,138948,76842,37863,Tag0,unknown
1610201659039,26,1463,3.214599609375E-4,53,60,40,574180,494558,54432,67057,153022,138948,76842,37863,Tag0,unknown
1610201659057,26,1791,3.935302734375E-4,53,60,40,574180,494558,54432,67057,153022,138948,76842,37863,Tag0,unknown
1610201659070,26,649,1.4260253906250002E-4,53,60,40,574180,494558,54432,67057,153022,138948,76842,37863,Tag0,unknown
1610201659085,26,1393,3.060791015625E-4,53,60,40,574180,494558,54432,67057,153022,138948,76842,37863,Tag0,unknown
1610201659102,26,-910,-1.99951171875E-4,53,60,40,574180,494558,54432,67057,153022,138948,76842,37863,Tag0,unknown
1610201659121,26,1791,3.935302734375E-4,53,60,40,574180,494558,54432,67057,153022,138948,76842,37863,Tag0,unknown
1610201659135,26,1791,3.935302734375E-4,53,60,40,574180,494558,54432,67057,153022,138948,76842,37863,Tag0,unknown
1610201659153,26,1431,3.144287109375E-4,53,60,40,574180,494558,54432,67057,153022,138948,76842,37863,Tag0,unknown
1610201659169,26,1297,2.849853515625E-4,53,60,40,574180,494558,54432,67057,153022,138948,76842,37863,Tag0,unknown
1610201659190,26,295,6.48193359375E-5,53,60,40,574180,494558,54432,67057,153022,138948,76842,37863,Tag0,unknown
1610201659205,26,-193,-4.2407226562500005E-5,53,60,40,574180,494558,54432,67057,153022,138948,76842,37863,Tag0,unknown
1610201659224,26,-2056,-4.517578125E-4,53,60,40,574180,494558,54432,67057,153022,138948,76842,37863,Tag0,unknown
1610201659235,26,-2097,-4.607666015625E-4,53,60,40,574180,494558,54432,67057,153022,138948,76842,37863,Tag0,unknown
1610201659256,26,5,1.0986328125E-6,53,60,40,574180,494558,54432,67057,153022,138948,76842,37863,Tag0,unknown
1610201659269,26,1791,3.935302734375E-4,53,60,40,574180,494558,54432,67057,153022,138948,76842,37863,Tag0,unknown
1610201659290,26,1791,3.935302734375E-4,53,60,40,574180,494558,54432,67057,153022,138948,76842,37863,Tag0,unknown
1610201659303,26,1791,3.935302734375E-4,53,60,40,574180,494558,54432,67057,153022,138948,76842,37863,Tag0,unknown
1610201659313,26,-2048,-4.5E-4,53,60,40,574180,494558,54432,67057,153022,138948,76842,37863,Tag0,unknown
1610201659333,26,-2048,-4.5E-4,53,60,40,574180,494558,54432,67057,153022,138948,76842,37863,Tag0,unknown
1610201659358,26,-2048,-4.5E-4,53,60,40,574180,494558,54432,67057,153022,138948,76842,37863,Tag0,unknown
1610201659376,26,-2073,-4.5549316406250003E-4,53,60,40,574180,494558,54432,67057,153022,138948,76842,37863,Tag0,unknown
1610201659386,26,1733,3.807861328125E-4,53,60,40,574180,494558,54432,67057,153022,138948,76842,37863,Tag0,unknown
1610201659405,26,1779,3.9089355468750005E-4,53,60,40,574180,494558,54432,67057,153022,138948,76842,37863,Tag0,unknown
1610201659419,26,1791,3.935302734375E-4,53,60,40,574180,494558,54432,67057,153022,138948,76842,37863,Tag0,unknown
1610201659451,26,1791,3.935302734375E-4,53,60,40,574180,494558,54432,67057,153022,138948,76842,37863,Tag0,unknown
1610201659469,26,1791,3.935302734375E-4,53,60,40,574180,494558,54432,67057,153022,138948,76842,37863,Tag0,unknown
1610201659479,26,772,1.6962890625000002E-4,53,60,40,574180,494558,54432,67057,153022,138948,76842,37863,Tag0,unknown
1610201659496,26,358,7.8662109375E-5,53,60,40,574180,494558,54432,67057,153022,138948,76842,37863,Tag0,unknown
1610201659506,26,-663,-1.456787109375E-4,53,60,40,574180,494558,54432,67057,153022,138948,76842,37863,Tag0,unknown
1610201659525,26,-1003,-2.2038574218750001E-4,53,60,40,574180,494558,54432,67057,153022,138948,76842,37863,Tag0,unknown
1610201659535,26,-986,-2.16650390625E-4,53,60,40,574180,494558,54432,67057,153022,138948,76842,37863,Tag0,unknown
1610201659558,26,-709,-1.557861328125E-4,53,60,40,574180,494558,54432,67057,153022,138948,76842,37863,Tag0,unknown
1610201659572,26,-876,-1.9248046875E-4,53,60,40,574180,494558,54432,67057,153022,138948,76842,37863,Tag0,unknown
1610201659582,26,-106,-2.3291015625000003E-5,53,60,40,574180,494558,54432,67057,153022,138948,76842,37863,Tag0,unknown
1610201659602,26,115,2.52685546875E-5,53,60,40,574180,494558,54432,67057,153022,138948,76842,37863,Tag0,unknown
1610201659619,26,-52,-1.142578125E-5,53,60,40,574180,494558,54432,67057,153022,138948,76842,37863,Tag0,unknown
1610201659642,26,-354,-7.778320312500001E-5,53,60,40,574180,494558,54432,67057,153022,138948,76842,37863,Tag0,unknown
1610201659652,26,-780,-1.7138671875E-4,53,60,40,574180,494558,54432,67057,153022,138948,76842,37863,Tag0,unknown
1610201659669,26,-333,-7.316894531249999E-5,53,60,40,574180,494558,54432,67057,153022,138948,76842,37863,Tag0,unknown
1610201659687,26,-421,-9.25048828125E-5,53,60,40,574180,494558,54432,67057,153022,138948,76842,37863,Tag0,unknown
1610201659703,26,-485,-1.065673828125E-4,53,60,40,574180,494558,54432,67057,153022,138948,76842,37863,Tag0,unknown
1610201659729,26,-93,-2.04345703125E-5,53,60,40,574180,494558,54432,67057,153022,138948,76842,37863,Tag0,unknown
1610201659739,51,134,2.9443359375000003E-5,53,60,40,2274554,1492686,179236,190035,255975,181475,175928,102462,Tag0,unknown
1610201659758,51,-305,-6.70166015625E-5,53,60,40,2274554,1492686,179236,190035,255975,181475,175928,102462,Tag0,unknown
1610201659772,51,-1415,-3.109130859375E-4,53,60,40,2274554,1492686,179236,190035,255975,181475,175928,102462,Tag0,unknown
1610201659786,51,-1211,-2.660888671875E-4,53,60,40,2274554,1492686,179236,190035,255975,181475,175928,102462,Tag0,unknown
1610201659803,51,-1163,-2.555419921875E-4,53,60,40,2274554,1492686,179236,190035,255975,181475,175928,102462,Tag0,unknown
1610201659827,51,-747,-1.6413574218750003E-4,53,60,40,2274554,1492686,179236,190035,255975,181475,175928,102462,Tag0,unknown
1610201659837,51,-691,-1.518310546875E-4,53,60,40,2274554,1492686,179236,190035,255975,181475,175928,102462,Tag0,unknown
1610201659867,51,-251,-5.5151367187500004E-5,53,60,40,2274554,1492686,179236,190035,255975,181475,175928,102462,Tag0,unknown
1610201659887,51,-229,-5.03173828125E-5,53,60,40,2274554,1492686,179236,190035,255975,181475,175928,102462,Tag0,unknown
1610201659916,51,-277,-6.0864257812500005E-5,53,60,40,2274554,1492686,179236,190035,255975,181475,175928,102462,Tag0,unknown
1610201659936,51,4,8.7890625E-7,53,60,40,2274554,1492686,179236,190035,255975,181475,175928,102462,Tag0,unknown
1610201659946,51,261,5.73486328125E-5,53,60,40,2274554,1492686,179236,190035,255975,181475,175928,102462,Tag0,unknown
1610201659958,51,261,5.73486328125E-5,53,60,40,2274554,1492686,179236,190035,255975,181475,175928,102462,Tag0,unknown
1610201659969,51,-13,-2.8564453125E-6,53,60,40,2274554,1492686,179236,190035,255975,181475,175928,102462,Tag0,unknown
1610201659994,51,134,2.9443359375000003E-5,53,60,40,2274554,1492686,179236,190035,255975,181475,175928,102462,Tag0,unknown
1610201660004,51,193,4.2407226562500005E-5,53,60,40,2274554,1492686,179236,190035,255975,181475,175928,102462,Tag0,unknown
1610201660018,51,637,1.399658203125E-4,53,60,40,2274554,1492686,179236,190035,255975,181475,175928,102462,Tag0,unknown
1610201660035,51,253,5.55908203125E-5,53,60,40,2274554,1492686,179236,190035,255975,181475,175928,102462,Tag0,unknown
1610201660052,51,453,9.95361328125E-5,53,60,40,2274554,1492686,179236,190035,255975,181475,175928,102462,Tag0,unknown
1610201660069,51,432,9.492187500000001E-5,53,60,40,2274554,1492686,179236,190035,255975,181475,175928,102462,Tag0,unknown
1610201660086,51,631,1.386474609375E-4,53,60,40,2274554,1492686,179236,190035,255975,181475,175928,102462,Tag0,unknown
1610201660102,51,1791,3.935302734375E-4,53,60,40,2274554,1492686,179236,190035,255975,181475,175928,102462,Tag0,unknown
1610201660125,51,-553,-1.215087890625E-4,53,60,40,2274554,1492686,179236,190035,255975,181475,175928,102462,Tag0,unknown
1610201660137,51,1791,3.935302734375E-4,53,60,40,2274554,1492686,179236,190035,255975,181475,175928,102462,Tag0,unknown
1610201660163,51,1791,3.935302734375E-4,53,60,40,2274554,1492686,179236,190035,255975,181475,175928,102462,Tag0,unknown
1610201660191,51,1307,2.871826171875E-4,53,60,40,2274554,1492686,179236,190035,255975,181475,175928,102462,Tag0,unknown
1610201660202,51,-525,-1.153564453125E-4,53,60,40,2274554,1492686,179236,190035,255975,181475,175928,102462,Tag0,unknown
1610201660219,51,-181,-3.9770507812500004E-5,53,60,40,2274554,1492686,179236,190035,255975,181475,175928,102462,Tag0,unknown
1610201660229,51,-2055,-4.515380859375E-4,53,60,40,2274554,1492686,179236,190035,255975,181475,175928,102462,Tag0,unknown
1610201660246,51,-1513,-3.3244628906250003E-4,53,60,40,2274554,1492686,179236,190035,255975,181475,175928,102462,Tag0,unknown
1610201660256,51,-923,-2.028076171875E-4,53,60,40,2274554,1492686,179236,190035,255975,181475,175928,102462,Tag0,unknown
1610201660300,51,-1060,-2.3291015625E-4,53,60,40,2274554,1492686,179236,190035,255975,181475,175928,102462,Tag0,unknown
1610201660319,51,-699,-1.535888671875E-4,53,60,40,2274554,1492686,179236,190035,255975,181475,175928,102462,Tag0,unknown
1610201660329,51,145,3.18603515625E-5,53,60,40,2274554,1492686,179236,190035,255975,181475,175928,102462,Tag0,unknown
1610201660354,51,179,3.93310546875E-5,53,60,40,2274554,1492686,179236,190035,255975,181475,175928,102462,Tag0,unknown
1610201660368,51,337,7.40478515625E-5,53,60,40,2274554,1492686,179236,190035,255975,181475,175928,102462,Tag0,unknown
1610201660395,51,1791,3.935302734375E-4,53,60,40,2274554,1492686,179236,190035,255975,181475,175928,102462,Tag0,unknown
1610201660405,51,1313,2.885009765625E-4,53,60,40,2274554,1492686,179236,190035,255975,181475,175928,102462,Tag0,unknown
1610201660419,51,1189,2.612548828125E-4,53,60,40,2274554,1492686,179236,190035,255975,181475,175928,102462,Tag0,unknown
1610201660437,51,-2048,-4.5E-4,53,60,40,2274554,1492686,179236,190035,255975,181475,175928,102462,Tag0,unknown
1610201660452,51,-1529,-3.359619140625E-4,53,60,40,2274554,1492686,179236,190035,255975,181475,175928,102462,Tag0,unknown
1610201660469,51,-1189,-2.612548828125E-4,53,60,40,2274554,1492686,179236,190035,255975,181475,175928,102462,Tag0,unknown
1610201660498,51,1791,3.935302734375E-4,53,60,40,2274554,1492686,179236,190035,255975,181475,175928,102462,Tag0,unknown
1610201660519,51,1791,3.935302734375E-4,53,60,40,2274554,1492686,179236,190035,255975,181475,175928,102462,Tag0,unknown
1610201660529,51,1791,3.935302734375E-4,53,60,40,2274554,1492686,179236,190035,255975,181475,175928,102462,Tag0,unknown
1610201660555,51,-419,-9.206542968750001E-5,53,60,40,2274554,1492686,179236,190035,255975,181475,175928,102462,Tag0,unknown
1610201660569,51,-1318,-2.8959960937500003E-4,53,60,40,2274554,1492686,179236,190035,255975,181475,175928,102462,Tag0,unknown
1610201660586,51,-233,-5.1196289062500006E-5,53,60,40,2274554,1492686,179236,190035,255975,181475,175928,102462,Tag0,unknown
1610201660603,51,147,3.22998046875E-5,53,60,40,2274554,1492686,179236,190035,255975,181475,175928,102462,Tag0,unknown
1610201660621,51,289,6.35009765625E-5,53,60,40,2274554,1492686,179236,190035,255975,181475,175928,102462,Tag0,unknown
1610201660635,51,-27,-5.9326171875000005E-6,53,60,40,2274554,1492686,179236,190035,255975,181475,175928,102462,Tag0,unknown
1610201660645,51,-1879,-4.128662109375E-4,53,60,40,2274554,1492686,179236,190035,255975,181475,175928,102462,Tag0,unknown
1610201660675,51,-1164,-2.5576171875E-4,53,60,40,2274554,1492686,179236,190035,255975,181475,175928,102462,Tag0,unknown
1610201660686,51,-917,-2.014892578125E-4,53,60,40,2274554,1492686,179236,190035,255975,181475,175928,102462,Tag0,unknown
1610201660724,51,-171,-3.75732421875E-5,53,60,40,2274554,1492686,179236,190035,255975,181475,175928,102462,Tag0,unknown
1610201660736,51,-341,-7.492675781250002E-5,53,60,40,2274554,1492686,179236,190035,255975,181475,175928,102462,Tag0,unknown
1610201660765,51,122,2.6806640625E-5,53,60,40,525769,482532,35270,81064,16763928,16770710,16761371,24256,Tag0,unknown
1610201660777,51,101,2.2192382812500002E-5,53,60,40,525769,482532,35270,81064,16763928,16770710,16761371,24256,Tag0,unknown
1610201660787,51,249,5.47119140625E-5,53,60,40,525769,482532,35270,81064,16763928,16770710,16761371,24256,Tag0,unknown
1610201660811,51,401,8.811035156250001E-5,53,60,40,525769,482532,35270,81064,16763928,16770710,16761371,24256,Tag0,unknown
1610201660821,51,1791,3.935302734375E-4,53,60,40,525769,482532,35270,81064,16763928,16770710,16761371,24256,Tag0,unknown
1610201660836,51,1791,3.935302734375E-4,53,60,40,525769,482532,35270,81064,16763928,16770710,16761371,24256,Tag0,unknown
1610201660854,51,1220,2.6806640625E-4,53,60,40,525769,482532,35270,81064,16763928,16770710,16761371,24256,Tag0,unknown
1610201660870,51,939,2.0632324218750002E-4,53,60,40,525769,482532,35270,81064,16763928,16770710,16761371,24256,Tag0,unknown
1610201660887,51,1031,2.265380859375E-4,53,60,40,525769,482532,35270,81064,16763928,16770710,16761371,24256,Tag0,unknown
1610201660912,51,597,1.3117675781250003E-4,53,60,40,525769,482532,35270,81064,16763928,16770710,16761371,24256,Tag0,unknown
1610201660922,51,339,7.448730468750001E-5,53,60,40,525769,482532,35270,81064,16763928,16770710,16761371,24256,Tag0,unknown
1610201660937,51,-1163,-2.555419921875E-4,53,60,40,525769,482532,35270,81064,16763928,16770710,16761371,24256,Tag0,unknown
1610201660952,51,-763,-1.6765136718750002E-4,53,60,40,525769,482532,35270,81064,16763928,16770710,16761371,24256,Tag0,unknown
1610201660970,51,-2048,-4.5E-4,53,60,40,525769,482532,35270,81064,16763928,16770710,16761371,24256,Tag0,unknown
1610201660990,51,-2048,-4.5E-4,53,60,40,525769,482532,35270,81064,16763928,16770710,16761371,24256,Tag0,unknown
1610201661008,51,-1767,-3.882568359375E-4,53,60,40,525769,482532,35270,81064,16763928,16770710,16761371,24256,Tag0,unknown
1610201661020,51,-1345,-2.955322265625E-4,53,60,40,525769,482532,35270,81064,16763928,16770710,16761371,24256,Tag0,unknown
1610201661041,51,-570,-1.25244140625E-4,53,60,40,525769,482532,35270,81064,16763928,16770710,16761371,24256,Tag0,unknown
1610201661054,51,42,9.228515625000002E-6,53,60,40,525769,482532,35270,81064,16763928,16770710,16761371,24256,Tag0,unknown
1610201661070,51,-108,-2.3730468750000002E-5,53,60,40,525769,482532,35270,81064,16763928,16770710,16761371,24256,Tag0,unknown
1610201661085,51,296,6.50390625E-5,53,60,40,525769,482532,35270,81064,16763928,16770710,16761371,24256,Tag0,unknown
1610201661105,51,363,7.97607421875E-5,53,60,40,525769,482532,35270,81064,16763928,16770710,16761371,24256,Tag0,unknown
1610201661119,51,152,3.33984375E-5,53,60,40,525769,482532,35270,81064,16763928,16770710,16761371,24256,Tag0,unknown
1610201661136,51,563,1.237060546875E-4,53,60,40,525769,482532,35270,81064,16763928,16770710,16761371,24256,Tag0,unknown
1610201661155,51,553,1.215087890625E-4,53,60,40,525769,482532,35270,81064,16763928,16770710,16761371,24256,Tag0,unknown
1610201661169,51,235,5.16357421875E-5,53,60,40,525769,482532,35270,81064,16763928,16770710,16761371,24256,Tag0,unknown
1610201661196,51,596,1.3095703125E-4,53,60,40,525769,482532,35270,81064,16763928,16770710,16761371,24256,Tag0,unknown
1610201661206,51,551,1.210693359375E-4,53,60,40,525769,482532,35270,81064,16763928,16770710,16761371,24256,Tag0,unknown
1610201661219,51,261,5.73486328125E-5,53,60,40,525769,482532,35270,81064,16763928,16770710,16761371,24256,Tag0,unknown
1610201661235,51,161,3.53759765625E-5,53,60,40,525769,482532,35270,81064,16763928,16770710,16761371,24256,Tag0,unknown
1610201661252,51,210,4.6142578125E-5,53,60,40,525769,482532,35270,81064,16763928,16770710,16761371,24256,Tag0,unknown
1610201661270,51,1791,3.935302734375E-4,53,60,40,525769,482532,35270,81064,16763928,16770710,16761371,24256,Tag0,unknown
1610201661285,51,1791,3.935302734375E-4,53,60,40,525769,482532,35270,81064,16763928,16770710,16761371,24256,Tag0,unknown
1610201661328,51,753,1.6545410156250002E-4,53,60,40,525769,482532,35270,81064,16763928,16770710,16761371,24256,Tag0,unknown
1610201661338,51,598,1.31396484375E-4,53,60,40,525769,482532,35270,81064,16763928,16770710,16761371,24256,Tag0,unknown
1610201661352,51,-1364,-2.9970703125000006E-4,53,60,40,525769,482532,35270,81064,16763928,16770710,16761371,24256,Tag0,unknown
1610201661371,51,-1146,-2.51806640625E-4,53,60,40,525769,482532,35270,81064,16763928,16770710,16761371,24256,Tag0,unknown
1610201661387,51,-934,-2.05224609375E-4,53,60,40,525769,482532,35270,81064,16763928,16770710,16761371,24256,Tag0,unknown
1610201661397,51,-614,-1.34912109375E-4,53,60,40,525769,482532,35270,81064,16763928,16770710,16761371,24256,Tag0,unknown
1610201661407,51,6,1.318359375E-6,53,60,40,525769,482532,35270,81064,16763928,16770710,16761371,24256,Tag0,unknown
1610201661419,51,-38,-8.349609375E-6,53,60,40,525769,482532,35270,81064,16763928,16770710,16761371,24256,Tag0,unknown
1610201661441,51,688,1.5117187500000002E-4,53,60,40,525769,482532,35270,81064,16763928,16770710,16761371,24256,Tag0,unknown
1610201661454,51,873,1.9182128906250002E-4,53,60,40,525769,482532,35270,81064,16763928,16770710,16761371,24256,Tag0,unknown
1610201661484,51,1286,2.82568359375E-4,53,60,40,525769,482532,35270,81064,16763928,16770710,16761371,24256,Tag0,unknown
1610201661503,51,967,2.1247558593750002E-4,53,60,40,525769,482532,35270,81064,16763928,16770710,16761371,24256,Tag0,unknown
1610201661522,51,-392,-8.61328125E-5,53,60,40,525769,482532,35270,81064,16763928,16770710,16761371,24256,Tag0,unknown
1610201661537,51,-119,-2.6147460937500004E-5,53,60,40,525769,482532,35270,81064,16763928,16770710,16761371,24256,Tag0,unknown
1610201661573,51,-2048,-4.5E-4,53,60,40,525769,482532,35270,81064,16763928,16770710,16761371,24256,Tag0,unknown
1610201661586,51,-2048,-4.5E-4,53,60,40,525769,482532,35270,81064,16763928,16770710,16761371,24256,Tag0,unknown
1610201661596,51,-1545,-3.394775390625E-4,53,60,40,525769,482532,35270,81064,16763928,16770710,16761371,24256,Tag0,unknown
1610201661624,51,-1247,-2.7399902343749996E-4,53,60,40,525769,482532,35270,81064,16763928,16770710,16761371,24256,Tag0,unknown
1610201661638,51,-1189,-2.612548828125E-4,53,60,40,525769,482532,35270,81064,16763928,16770710,16761371,24256,Tag0,unknown
1610201661648,51,-215,-4.72412109375E-5,53,60,40,525769,482532,35270,81064,16763928,16770710,16761371,24256,Tag0,unknown
1610201661665,51,-169,-3.7133789062499996E-5,53,60,40,525769,482532,35270,81064,16763928,16770710,16761371,24256,Tag0,unknown
1610201661675,51,548,1.2041015624999999E-4,53,60,40,525769,482532,35270,81064,16763928,16770710,16761371,24256,Tag0,unknown
1610201661685,51,-441,-9.689941406250001E-5,53,60,40,525769,482532,35270,81064,16763928,16770710,16761371,24256,Tag0,unknown
1610201661704,51,117,2.5708007812499998E-5,53,60,40,525769,482532,35270,81064,16763928,16770710,16761371,24256,Tag0,unknown
1610201661720,51,-87,-1.91162109375E-5,53,60,40,525769,482532,35270,81064,16763928,16770710,16761371,24256,Tag0,unknown
1610201661745,51,253,5.55908203125E-5,53,60,40,669261,459359,69951,145417,16750368,34845,16770308,75904,Tag0,unknown
1610201661755,51,451,9.909667968750001E-5,53,60,40,669261,459359,69951,145417,16750368,34845,16770308,75904,Tag0,unknown
1610201661776,51,633,1.3908691406250002E-4,53,60,40,669261,459359,69951,145417,16750368,34845,16770308,75904,Tag0,unknown
1610201661787,51,565,1.241455078125E-4,53,60,40,669261,459359,69951,145417,16750368,34845,16770308,75904,Tag0,unknown
1610201661797,51,167,3.6694335937500004E-5,53,60,40,669261,459359,69951,145417,16750368,34845,16770308,75904,Tag0,unknown
1610201661813,51,599,1.316162109375E-4,53,60,40,669261,459359,69951,145417,16750368,34845,16770308,75904,Tag0,unknown
1610201661823,51,193,4.2407226562500005E-5,53,60,40,669261,459359,69951,145417,16750368,34845,16770308,75904,Tag0,unknown
1610201661836,51,535,1.175537109375E-4,53,60,40,669261,459359,69951,145417,16750368,34845,16770308,75904,Tag0,unknown
1610201661856,51,1791,3.935302734375E-4,53,60,40,669261,459359,69951,145417,16750368,34845,16770308,75904,Tag0,unknown
1610201661869,51,1791,3.935302734375E-4,53,60,40,669261,459359,69951,145417,16750368,34845,16770308,75904,Tag0,unknown
1610201661894,51,1421,3.1223144531250004E-4,53,60,40,669261,459359,69951,145417,16750368,34845,16770308,75904,Tag0,unknown
1610201661904,51,1620,3.5595703125E-4,53,60,40,669261,459359,69951,145417,16750368,34845,16770308,75904,Tag0,unknown
1610201661919,51,841,1.847900390625E-4,53,60,40,669261,459359,69951,145417,16750368,34845,16770308,75904,Tag0,unknown
1610201661936,51,617,1.355712890625E-4,53,60,40,669261,459359,69951,145417,16750368,34845,16770308,75904,Tag0,unknown
1610201661962,51,-86,-1.8896484375000003E-5,53,60,40,669261,459359,69951,145417,16750368,34845,16770308,75904,Tag0,unknown
1610201661972,51,-277,-6.0864257812500005E-5,53,60,40,669261,459359,69951,145417,16750368,34845,16770308,75904,Tag0,unknown
1610201661987,51,-853,-1.874267578125E-4,53,60,40,669261,459359,69951,145417,16750368,34845,16770308,75904,Tag0,unknown
1610201662004,51,-1049,-2.304931640625E-4,53,60,40,669261,459359,69951,145417,16750368,34845,16770308,75904,Tag0,unknown
1610201662020,51,-929,-2.0412597656250002E-4,53,60,40,669261,459359,69951,145417,16750368,34845,16770308,75904,Tag0,unknown
1610201662042,51,-648,-1.423828125E-4,53,60,40,669261,459359,69951,145417,16750368,34845,16770308,75904,Tag0,unknown
1610201662054,51,-881,-1.9357910156249998E-4,53,60,40,669261,459359,69951,145417,16750368,34845,16770308,75904,Tag0,unknown
1610201662086,51,-601,-1.3205566406249998E-4,53,60,40,669261,459359,69951,145417,16750368,34845,16770308,75904,Tag0,unknown
1610201662102,51,-103,-2.26318359375E-5,53,60,40,669261,459359,69951,145417,16750368,34845,16770308,75904,Tag0,unknown
1610201662120,51,395,8.67919921875E-5,53,60,40,669261,459359,69951,145417,16750368,34845,16770308,75904,Tag0,unknown
1610201662135,51,-39,-8.5693359375E-6,53,60,40,669261,459359,69951,145417,16750368,34845,16770308,75904,Tag0,unknown
1610201662159,51,-803,-1.764404296875E-4,53,60,40,669261,459359,69951,145417,16750368,34845,16770308,75904,Tag0,unknown
1610201662170,51,-1525,-3.350830078125E-4,53,60,40,669261,459359,69951,145417,16750368,34845,16770308,75904,Tag0,unknown
1610201662201,51,547,1.201904296875E-4,53,60,40,669261,459359,69951,145417,16750368,34845,16770308,75904,Tag0,unknown
1610201662219,51,427,9.382324218750001E-5,53,60,40,669261,459359,69951,145417,16750368,34845,16770308,75904,Tag0,unknown
1610201662236,51,-311,-6.833496093750001E-5,53,60,40,669261,459359,69951,145417,16750368,34845,16770308,75904,Tag0,unknown
1610201662266,51,934,2.05224609375E-4,53,60,40,669261,459359,69951,145417,16750368,34845,16770308,75904,Tag0,unknown
1610201662287,51,1123,2.4675292968750004E-4,53,60,40,669261,459359,69951,145417,16750368,34845,16770308,75904,Tag0,unknown
1610201662297,51,1791,3.935302734375E-4,53,60,40,669261,459359,69951,145417,16750368,34845,16770308,75904,Tag0,unknown
1610201662307,51,1791,3.935302734375E-4,53,60,40,669261,459359,69951,145417,16750368,34845,16770308,75904,Tag0,unknown
1610201662317,51,1761,3.8693847656250005E-4,53,60,40,669261,459359,69951,145417,16750368,34845,16770308,75904,Tag0,unknown
1610201662327,51,1161,2.5510253906250004E-4,53,60,40,669261,459359,69951,145417,16750368,34845,16770308,75904,Tag0,unknown
1610201662353,51,-2048,-4.5E-4,53,60,40,669261,459359,69951,145417,16750368,34845,16770308,75904,Tag0,unknown
1610201662388,51,456,1.0019531250000001E-4,53,60,40,669261,459359,69951,145417,16750368,34845,16770308,75904,Tag0,unknown
1610201662402,51,-779,-1.7116699218750001E-4,53,60,40,669261,459359,69951,145417,16750368,34845,16770308,75904,Tag0,unknown
1610201662423,51,-909,-1.997314453125E-4,53,60,40,669261,459359,69951,145417,16750368,34845,16770308,75904,Tag0,unknown
1610201662436,51,-1601,-3.517822265625E-4,53,60,40,669261,459359,69951,145417,16750368,34845,16770308,75904,Tag0,unknown
1610201662453,51,-1357,-2.981689453125E-4,53,60,40,669261,459359,69951,145417,16750368,34845,16770308,75904,Tag0,unknown
1610201662470,51,1791,3.935302734375E-4,53,60,40,669261,459359,69951,145417,16750368,34845,16770308,75904,Tag0,unknown
1610201662501,51,-2048,-4.5E-4,53,60,40,669261,459359,69951,145417,16750368,34845,16770308,75904,Tag0,unknown
1610201662520,51,-2048,-4.5E-4,53,60,40,669261,459359,69951,145417,16750368,34845,16770308,75904,Tag0,unknown
1610201662537,51,-2008,-4.4121093750000003E-4,53,60,40,669261,459359,69951,145417,16750368,34845,16770308,75904,Tag0,unknown
1610201662553,51,1791,3.935302734375E-4,53,60,40,669261,459359,69951,145417,16750368,34845,16770308,75904,Tag0,unknown
1610201662574,51,-2154,-4.73291015625E-4,53,60,40,669261,459359,69951,145417,16750368,34845,16770308,75904,Tag0,unknown
1610201662587,51,-2072,-4.552734375E-4,53,60,40,669261,459359,69951,145417,16750368,34845,16770308,75904,Tag0,unknown
1610201662597,51,-1078,-2.3686523437500002E-4,53,60,40,669261,459359,69951,145417,16750368,34845,16770308,75904,Tag0,unknown
1610201662620,51,1912,4.2011718749999997E-4,53,60,40,669261,459359,69951,145417,16750368,34845,16770308,75904,Tag0,unknown
1610201662639,51,-995,-2.186279296875E-4,53,60,40,669261,459359,69951,145417,16750368,34845,16770308,75904,Tag0,unknown
1610201662653,51,-808,-1.7753906250000002E-4,53,60,40,669261,459359,69951,145417,16750368,34845,16770308,75904,Tag0,unknown
1610201662674,51,-981,-2.155517578125E-4,53,60,40,669261,459359,69951,145417,16750368,34845,16770308,75904,Tag0,unknown
1610201662687,51,-1281,-2.814697265625E-4,53,60,40,669261,459359,69951,145417,16750368,34845,16770308,75904,Tag0,unknown
1610201662697,51,1794,3.94189453125E-4,53,60,40,669261,459359,69951,145417,16750368,34845,16770308,75904,Tag0,unknown
1610201662749,51,1791,3.935302734375E-4,53,60,40,669261,459359,69951,145417,16750368,34845,16770308,75904,Tag0,unknown
1610201662774,51,1791,3.935302734375E-4,53,60,40,669261,459359,69951,145417,16750368,34845,16770308,75904,Tag0,unknown
1610201662785,51,1791,3.935302734375E-4,53,60,40,714202,50286,37944,178438,226373,16764240,91963,89919,Tag0,unknown
1610201662795,51,-2048,-4.5E-4,53,60,40,714202,50286,37944,178438,226373,16764240,91963,89919,Tag0,unknown
1610201662820,51,-1693,-3.719970703125E-4,53,60,40,714202,50286,37944,178438,226373,16764240,91963,89919,Tag0,unknown
1610201662837,51,-1890,-4.15283203125E-4,53,60,40,714202,50286,37944,178438,226373,16764240,91963,89919,Tag0,unknown
1610201662854,51,-1128,-2.478515625E-4,53,60,40,714202,50286,37944,178438,226373,16764240,91963,89919,Tag0,unknown
1610201662871,51,-509,-1.118408203125E-4,53,60,40,714202,50286,37944,178438,226373,16764240,91963,89919,Tag0,unknown
1610201662881,51,-596,-1.3095703125E-4,53,60,40,714202,50286,37944,178438,226373,16764240,91963,89919,Tag0,unknown
1610201662894,51,817,1.7951660156250002E-4,53,60,40,714202,50286,37944,178438,226373,16764240,91963,89919,Tag0,unknown
1610201662908,51,875,1.922607421875E-4,53,60,40,714202,50286,37944,178438,226373,16764240,91963,89919,Tag0,unknown
1610201662919,51,535,1.175537109375E-4,53,60,40,714202,50286,37944,178438,226373,16764240,91963,89919,Tag0,unknown
1610201662937,51,211,4.63623046875E-5,53,60,40,714202,50286,37944,178438,226373,16764240,91963,89919,Tag0,unknown
1610201662953,51,325,7.14111328125E-5,53,60,40,714202,50286,37944,178438,226373,16764240,91963,89919,Tag0,unknown
1610201662973,51,390,8.5693359375E-5,53,60,40,714202,50286,37944,178438,226373,16764240,91963,89919,Tag0,unknown
1610201662987,51,571,1.254638671875E-4,53,60,40,714202,50286,37944,178438,226373,16764240,91963,89919,Tag0,unknown
1610201663005,51,371,8.151855468750001E-5,53,60,40,714202,50286,37944,178438,226373,16764240,91963,89919,Tag0,unknown
1610201663020,51,211,4.63623046875E-5,53,60,40,714202,50286,37944,178438,226373,16764240,91963,89919,Tag0,unknown
1610201663049,51,208,4.5703125E-5,53,60,40,714202,50286,37944,178438,226373,16764240,91963,89919,Tag0,unknown
1610201663070,51,337,7.40478515625E-5,53,60,40,714202,50286,37944,178438,226373,16764240,91963,89919,Tag0,unknown
1610201663087,51,355,7.80029296875E-5,53,60,40,714202,50286,37944,178438,226373,16764240,91963,89919,Tag0,unknown
1610201663105,51,323,7.09716796875E-5,53,60,40,714202,50286,37944,178438,226373,16764240,91963,89919,Tag0,unknown
1610201663115,51,329,7.229003906250001E-5,53,60,40,714202,50286,37944,178438,226373,16764240,91963,89919,Tag0,unknown
1610201663129,51,331,7.272949218750001E-5,53,60,40,714202,50286,37944,178438,226373,16764240,91963,89919,Tag0,unknown
1610201663139,51,-51,-1.1206054687499999E-5,53,60,40,714202,50286,37944,178438,226373,16764240,91963,89919,Tag0,unknown
1610201663153,51,263,5.7788085937500005E-5,53,60,40,714202,50286,37944,178438,226373,16764240,91963,89919,Tag0,unknown
1610201663204,51,-95,-2.08740234375E-5,53,60,40,714202,50286,37944,178438,226373,16764240,91963,89919,Tag0,unknown
1610201663220,51,-43,-9.448242187500001E-6,53,60,40,714202,50286,37944,178438,226373,16764240,91963,89919,Tag0,unknown
1610201663230,51,-50,-1.0986328125E-5,53,60,40,714202,50286,37944,178438,226373,16764240,91963,89919,Tag0,unknown
1610201663276,51,-21,-4.614257812500001E-6,53,60,40,714202,50286,37944,178438,226373,16764240,91963,89919,Tag0,unknown
1610201663288,51,-62,-1.3623046875E-5,53,60,40,714202,50286,37944,178438,226373,16764240,91963,89919,Tag0,unknown
1610201663299,51,-310,-6.8115234375E-5,53,60,40,714202,50286,37944,178438,226373,16764240,91963,89919,Tag0,unknown
1610201663309,51,-347,-7.62451171875E-5,53,60,40,714202,50286,37944,178438,226373,16764240,91963,89919,Tag0,unknown
1610201663352,51,-126,-2.7685546875E-5,53,60,40,714202,50286,37944,178438,226373,16764240,91963,89919,Tag0,unknown
1610201663370,51,12,2.63671875E-6,53,60,40,714202,50286,37944,178438,226373,16764240,91963,89919,Tag0,unknown
1610201663380,51,-194,-4.2626953125E-5,53,60,40,714202,50286,37944,178438,226373,16764240,91963,89919,Tag0,unknown
1610201663393,51,259,5.69091796875E-5,53,60,40,714202,50286,37944,178438,226373,16764240,91963,89919,Tag0,unknown
1610201663404,51,533,1.171142578125E-4,53,60,40,714202,50286,37944,178438,226373,16764240,91963,89919,Tag0,unknown
1610201663414,51,-75,-1.64794921875E-5,53,60,40,714202,50286,37944,178438,226373,16764240,91963,89919,Tag0,unknown
1610201663436,51,55,1.20849609375E-5,53,60,40,714202,50286,37944,178438,226373,16764240,91963,89919,Tag0,unknown
1610201663458,51,-71,-1.56005859375E-5,53,60,40,714202,50286,37944,178438,226373,16764240,91963,89919,Tag0,unknown
1610201663470,51,-124,-2.724609375E-5,53,60,40,714202,50286,37944,178438,226373,16764240,91963,89919,Tag0,unknown
1610201663498,51,-106,-2.3291015625000003E-5,53,60,40,714202,50286,37944,178438,226373,16764240,91963,89919,Tag0,unknown
1610201663508,51,85,1.86767578125E-5,53,60,40,714202,50286,37944,178438,226373,16764240,91963,89919,Tag0,unknown
1610201663519,51,0,0.0,53,60,40,714202,50286,37944,178438,226373,16764240,91963,89919,Tag0,unknown
1610201663542,51,-109,-2.39501953125E-5,53,60,40,714202,50286,37944,178438,226373,16764240,91963,89919,Tag0,unknown
1610201663553,51,118,2.5927734375E-5,53,60,40,714202,50286,37944,178438,226373,16764240,91963,89919,Tag0,unknown
1610201663563,51,57,1.2524414062500001E-5,53,60,40,714202,50286,37944,178438,226373,16764240,91963,89919,Tag0,unknown
1610201663578,51,26,5.712890625E-6,53,60,40,714202,50286,37944,178438,226373,16764240,91963,89919,Tag0,unknown
1610201663588,51,-294,-6.4599609375E-5,53,60,40,714202,50286,37944,178438,226373,16764240,91963,89919,Tag0,unknown
1610201663613,51,-122,-2.6806640625E-5,53,60,40,714202,50286,37944,178438,226373,16764240,91963,89919,Tag0,unknown
1610201663623,51,67,1.4721679687500002E-5,53,60,40,714202,50286,37944,178438,226373,16764240,91963,89919,Tag0,unknown
1610201663636,51,-263,-5.7788085937500005E-5,53,60,40,714202,50286,37944,178438,226373,16764240,91963,89919,Tag0,unknown
1610201663654,51,-265,-5.82275390625E-5,53,60,40,714202,50286,37944,178438,226373,16764240,91963,89919,Tag0,unknown
1610201663684,51,-379,-8.32763671875E-5,53,60,40,714202,50286,37944,178438,226373,16764240,91963,89919,Tag0,unknown
1610201663706,51,-136,-2.9882812500000002E-5,53,60,40,714202,50286,37944,178438,226373,16764240,91963,89919,Tag0,unknown
1610201663717,51,73,1.6040039062500002E-5,53,60,40,714202,50286,37944,178438,226373,16764240,91963,89919,Tag0,unknown
1610201663744,26,-12,-2.63671875E-6,53,60,40,1977736,229112,16750195,30956,28326,16769905,16756859,16746088,Tag0,unknown
1610201663754,26,-127,-2.79052734375E-5,53,60,40,1977736,229112,16750195,30956,28326,16769905,16756859,16746088,Tag0,unknown
1610201663770,26,-111,-2.43896484375E-5,53,60,40,1977736,229112,16750195,30956,28326,16769905,16756859,16746088,Tag0,unknown
1610201663788,26,83,1.82373046875E-5,53,60,40,1977736,229112,16750195,30956,28326,16769905,16756859,16746088,Tag0,unknown
1610201663804,26,107,2.35107421875E-5,53,60,40,1977736,229112,16750195,30956,28326,16769905,16756859,16746088,Tag0,unknown
1610201663822,26,43,9.448242187500001E-6,53,60,40,1977736,229112,16750195,30956,28326,16769905,16756859,16746088,Tag0,unknown
1610201663836,26,44,9.66796875E-6,53,60,40,1977736,229112,16750195,30956,28326,16769905,16756859,16746088,Tag0,unknown
1610201663852,26,-257,-5.64697265625E-5,53,60,40,1977736,229112,16750195,30956,28326,16769905,16756859,16746088,Tag0,unknown
1610201663874,26,48,1.0546875E-5,53,60,40,1977736,229112,16750195,30956,28326,16769905,16756859,16746088,Tag0,unknown
1610201663886,26,-261,-5.73486328125E-5,53,60,40,1977736,229112,16750195,30956,28326,16769905,16756859,16746088,Tag0,unknown
1610201663918,26,115,2.52685546875E-5,53,60,40,1977736,229112,16750195,30956,28326,16769905,16756859,16746088,Tag0,unknown
1610201663936,26,87,1.91162109375E-5,53,60,40,1977736,229112,16750195,30956,28326,16769905,16756859,16746088,Tag0,unknown
1610201663946,26,277,6.0864257812500005E-5,53,60,40,1977736,229112,16750195,30956,28326,16769905,16756859,16746088,Tag0,unknown
1610201663956,26,-95,-2.08740234375E-5,53,60,40,1977736,229112,16750195,30956,28326,16769905,16756859,16746088,Tag0,unknown
1610201663982,26,124,2.724609375E-5,53,60,40,1977736,229112,16750195,30956,28326,16769905,16756859,16746088,Tag0,unknown
1610201663992,26,257,5.64697265625E-5,53,60,40,1977736,229112,16750195,30956,28326,16769905,16756859,16746088,Tag0,unknown
1610201664024,26,-29,-6.3720703125E-6,53,60,40,1977736,229112,16750195,30956,28326,16769905,16756859,16746088,Tag0,unknown
1610201664038,26,-54,-1.1865234375000001E-5,53,60,40,1977736,229112,16750195,30956,28326,16769905,16756859,16746088,Tag0,unknown
1610201664048,26,-31,-6.8115234375E-6,53,60,40,1977736,229112,16750195,30956,28326,16769905,16756859,16746088,Tag0,unknown
1610201664073,26,-538,-1.1821289062499999E-4,53,60,40,1977736,229112,16750195,30956,28326,16769905,16756859,16746088,Tag0,unknown
1610201664089,26,-221,-4.85595703125E-5,53,60,40,1977736,229112,16750195,30956,28326,16769905,16756859,16746088,Tag0,unknown
1610201664122,26,-39,-8.5693359375E-6,53,60,40,1977736,229112,16750195,30956,28326,16769905,16756859,16746088,Tag0,unknown
1610201664137,26,-341,-7.492675781250002E-5,53,60,40,1977736,229112,16750195,30956,28326,16769905,16756859,16746088,Tag0,unknown
1610201664147,26,534,1.17333984375E-4,53,60,40,1977736,229112,16750195,30956,28326,16769905,16756859,16746088,Tag0,unknown
1610201664174,26,-243,-5.33935546875E-5,53,60,40,1977736,229112,16750195,30956,28326,16769905,16756859,16746088,Tag0,unknown
1610201664186,26,-263,-5.7788085937500005E-5,53,60,40,1977736,229112,16750195,30956,28326,16769905,16756859,16746088,Tag0,unknown
1610201664217,26,-126,-2.7685546875E-5,53,60,40,1977736,229112,16750195,30956,28326,16769905,16756859,16746088,Tag0,unknown
1610201664236,26,89,1.95556640625E-5,53,60,40,1977736,229112,16750195,30956,28326,16769905,16756859,16746088,Tag0,unknown
1610201664246,26,-55,-1.20849609375E-5,53,60,40,1977736,229112,16750195,30956,28326,16769905,16756859,16746088,Tag0,unknown
1610201664256,26,67,1.4721679687500002E-5,53,60,40,1977736,229112,16750195,30956,28326,16769905,16756859,16746088,Tag0,unknown
1610201664274,26,86,1.8896484375000003E-5,53,60,40,1977736,229112,16750195,30956,28326,16769905,16756859,16746088,Tag0,unknown
1610201664291,26,87,1.91162109375E-5,53,60,40,1977736,229112,16750195,30956,28326,16769905,16756859,16746088,Tag0,unknown
1610201664303,26,51,1.1206054687499999E-5,53,60,40,1977736,229112,16750195,30956,28326,16769905,16756859,16746088,Tag0,unknown
1610201664313,26,110,2.4169921875E-5,53,60,40,1977736,229112,16750195,30956,28326,16769905,16756859,16746088,Tag0,unknown
1610201664338,26,-181,-3.9770507812500004E-5,53,60,40,1977736,229112,16750195,30956,28326,16769905,16756859,16746088,Tag0,unknown
1610201664354,26,-520,-1.142578125E-4,53,60,40,1977736,229112,16750195,30956,28326,16769905,16756859,16746088,Tag0,unknown
1610201664364,26,-212,-4.6582031250000006E-5,53,60,40,1977736,229112,16750195,30956,28326,16769905,16756859,16746088,Tag0,unknown
1610201664376,26,-378,-8.3056640625E-5,53,60,40,1977736,229112,16750195,30956,28326,16769905,16756859,16746088,Tag0,unknown
1610201664387,26,-362,-7.954101562500001E-5,53,60,40,1977736,229112,16750195,30956,28326,16769905,16756859,16746088,Tag0,unknown
1610201664403,26,20,4.39453125E-6,53,60,40,1977736,229112,16750195,30956,28326,16769905,16756859,16746088,Tag0,unknown
1610201664421,26,53,1.1645507812500002E-5,53,60,40,1977736,229112,16750195,30956,28326,16769905,16756859,16746088,Tag0,unknown
1610201664445,26,345,7.58056640625E-5,53,60,40,1977736,229112,16750195,30956,28326,16769905,16756859,16746088,Tag0,unknown
1610201664455,26,280,6.15234375E-5,53,60,40,1977736,229112,16750195,30956,28326,16769905,16756859,16746088,Tag0,unknown
1610201664485,26,361,7.93212890625E-5,53,60,40,1977736,229112,16750195,30956,28326,16769905,16756859,16746088,Tag0,unknown
1610201664505,26,338,7.426757812499999E-5,53,60,40,1977736,229112,16750195,30956,28326,16769905,16756859,16746088,Tag0,unknown
1610201664520,26,-125,-2.74658203125E-5,53,60,40,1977736,229112,16750195,30956,28326,16769905,16756859,16746088,Tag0,unknown
1610201664551,26,-128,-2.8125E-5,53,60,40,1977736,229112,16750195,30956,28326,16769905,16756859,16746088,Tag0,unknown
1610201664570,26,92,2.021484375E-5,53,60,40,1977736,229112,16750195,30956,28326,16769905,16756859,16746088,Tag0,unknown
1610201664580,26,39,8.5693359375E-6,53,60,40,1977736,229112,16750195,30956,28326,16769905,16756859,16746088,Tag0,unknown
1610201664605,26,48,1.0546875E-5,53,60,40,1977736,229112,16750195,30956,28326,16769905,16756859,16746088,Tag0,unknown
1610201664625,26,71,1.56005859375E-5,53,60,40,1977736,229112,16750195,30956,28326,16769905,16756859,16746088,Tag0,unknown
1610201664637,26,51,1.1206054687499999E-5,53,60,40,1977736,229112,16750195,30956,28326,16769905,16756859,16746088,Tag0,unknown
1610201664647,26,49,1.07666015625E-5,53,60,40,1977736,229112,16750195,30956,28326,16769905,16756859,16746088,Tag0,unknown
1610201664663,26,63,1.38427734375E-5,53,60,40,1977736,229112,16750195,30956,28326,16769905,16756859,16746088,Tag0,unknown
1610201664673,26,-69,-1.51611328125E-5,53,60,40,1977736,229112,16750195,30956,28326,16769905,16756859,16746088,Tag0,unknown
1610201664700,26,27,5.9326171875000005E-6,53,60,40,1977736,229112,16750195,30956,28326,16769905,16756859,16746088,Tag0,unknown
1610201664720,26,35,7.6904296875E-6,53,60,40,1977736,229112,16750195,30956,28326,16769905,16756859,16746088,Tag0,unknown
1610201664741,0,-80,-1.7578125E-5,80,60,40,606698,99145,16748449,20377,24276,16763617,16757632,66688,Tag0,unknown
1610201664754,0,101,2.2192382812500002E-5,80,60,40,606698,99145,16748449,20377,24276,16763617,16757632,66688,Tag0,unknown
1610201664782,0,-257,-5.64697265625E-5,80,60,40,606698,99145,16748449,20377,24276,16763617,16757632,66688,Tag0,unknown
1610201664792,0,-329,-7.229003906250001E-5,80,60,40,606698,99145,16748449,20377,24276,16763617,16757632,66688,Tag0,unknown
1610201664804,0,56,1.23046875E-5,80,60,40,606698,99145,16748449,20377,24276,16763617,16757632,66688,Tag0,unknown
1610201664825,0,58,1.2744140625E-5,80,60,40,606698,99145,16748449,20377,24276,16763617,16757632,66688,Tag0,unknown
1610201664838,0,-277,-6.0864257812500005E-5,80,60,40,606698,99145,16748449,20377,24276,16763617,16757632,66688,Tag0,unknown
1610201664862,0,85,1.86767578125E-5,80,60,40,606698,99145,16748449,20377,24276,16763617,16757632,66688,Tag0,unknown
1610201664872,0,101,2.2192382812500002E-5,80,60,40,606698,99145,16748449,20377,24276,16763617,16757632,66688,Tag0,unknown
1610201664888,0,75,1.64794921875E-5,80,60,40,606698,99145,16748449,20377,24276,16763617,16757632,66688,Tag0,unknown
1610201664904,0,74,1.6259765625E-5,80,60,40,606698,99145,16748449,20377,24276,16763617,16757632,66688,Tag0,unknown
1610201664924,0,-67,-1.4721679687500002E-5,80,60,40,606698,99145,16748449,20377,24276,16763617,16757632,66688,Tag0,unknown
1610201664938,0,-19,-4.1748046875E-6,80,60,40,606698,99145,16748449,20377,24276,16763617,16757632,66688,Tag0,unknown
1610201664959,0,355,7.80029296875E-5,80,60,40,606698,99145,16748449,20377,24276,16763617,16757632,66688,Tag0,unknown
1610201664970,0,333,7.316894531249999E-5,80,60,40,606698,99145,16748449,20377,24276,16763617,16757632,66688,Tag0,unknown
1610201664998,0,11,2.4169921875E-6,80,60,40,606698,99145,16748449,20377,24276,16763617,16757632,66688,Tag0,unknown
1610201665008,0,-173,-3.80126953125E-5,80,60,40,606698,99145,16748449,20377,24276,16763617,16757632,66688,Tag0,unknown
1610201665035,0,1,2.197265625E-7,80,60,40,606698,99145,16748449,20377,24276,16763617,16757632,66688,Tag0,unknown
1610201665054,0,-281,-6.17431640625E-5,80,60,40,606698,99145,16748449,20377,24276,16763617,16757632,66688,Tag0,unknown
1610201665076,0,-83,-1.82373046875E-5,80,60,40,606698,99145,16748449,20377,24276,16763617,16757632,66688,Tag0,unknown
1610201665088,0,114,2.5048828125000003E-5,80,60,45,606698,99145,16748449,20377,24276,16763617,16757632,66688,Tag0,unknown
1610201665104,0,41,9.008789062499999E-6,80,60,45,606698,99145,16748449,20377,24276,16763617,16757632,66688,Tag0,unknown
1610201665122,0,21,4.614257812500001E-6,80,60,45,606698,99145,16748449,20377,24276,16763617,16757632,66688,Tag0,unknown
1610201665138,0,-260,-5.712890625E-5,80,60,45,606698,99145,16748449,20377,24276,16763617,16757632,66688,Tag0,unknown
1610201665155,0,14,3.076171875E-6,80,60,45,606698,99145,16748449,20377,24276,16763617,16757632,66688,Tag0,unknown
1610201665172,0,57,1.2524414062500001E-5,80,60,45,606698,99145,16748449,20377,24276,16763617,16757632,66688,Tag0,unknown
1610201665182,0,11,2.4169921875E-6,80,60,45,606698,99145,16748449,20377,24276,16763617,16757632,66688,Tag0,unknown
1610201665203,0,61,1.34033203125E-5,80,60,45,606698,99145,16748449,20377,24276,16763617,16757632,66688,Tag0,unknown
1610201665220,0,62,1.3623046875E-5,80,60,45,606698,99145,16748449,20377,24276,16763617,16757632,66688,Tag0,unknown
1610201665237,0,49,1.07666015625E-5,80,60,45,606698,99145,16748449,20377,24276,16763617,16757632,66688,Tag0,unknown
1610201665262,0,2,4.39453125E-7,80,60,45,606698,99145,16748449,20377,24276,16763617,16757632,66688,Tag0,unknown
1610201665272,0,328,7.207031249999999E-5,80,60,45,606698,99145,16748449,20377,24276,16763617,16757632,66688,Tag0,unknown
1610201665299,0,91,1.99951171875E-5,80,60,38,606698,99145,16748449,20377,24276,16763617,16757632,66688,Tag0,unknown
1610201665322,0,282,6.1962890625E-5,80,60,38,606698,99145,16748449,20377,24276,16763617,16757632,66688,Tag0,unknown
1610201665339,0,120,2.63671875E-5,80,60,38,606698,99145,16748449,20377,24276,16763617,16757632,66688,Tag0,unknown
1610201665355,0,-107,-2.35107421875E-5,80,60,38,606698,99145,16748449,20377,24276,16763617,16757632,66688,Tag0,unknown
1610201665365,0,334,7.338867187500001E-5,80,60,38,606698,99145,16748449,20377,24276,16763617,16757632,66688,Tag0,unknown
1610201665401,0,133,2.92236328125E-5,80,60,38,606698,99145,16748449,20377,24276,16763617,16757632,66688,Tag0,unknown
1610201665420,0,185,4.06494140625E-5,80,60,38,606698,99145,16748449,20377,24276,16763617,16757632,66688,Tag0,unknown
1610201665445,0,-517,-1.135986328125E-4,80,60,38,606698,99145,16748449,20377,24276,16763617,16757632,66688,Tag0,unknown
1610201665455,0,-230,-5.0537109375E-5,80,60,38,606698,99145,16748449,20377,24276,16763617,16757632,66688,Tag0,unknown
1610201665470,0,-105,-2.30712890625E-5,80,60,78,606698,99145,16748449,20377,24276,16763617,16757632,66688,Tag0,unknown
1610201665489,0,91,1.99951171875E-5,80,60,78,606698,99145,16748449,20377,24276,16763617,16757632,66688,Tag0,unknown
1610201665509,0,-244,-5.361328125E-5,80,60,78,606698,99145,16748449,20377,24276,16763617,16757632,66688,Tag0,unknown
1610201665520,0,-365,-8.02001953125E-5,80,60,78,606698,99145,16748449,20377,24276,16763617,16757632,66688,Tag0,unknown
1610201665537,0,-378,-8.3056640625E-5,80,60,78,606698,99145,16748449,20377,24276,16763617,16757632,66688,Tag0,unknown
1610201665554,0,-281,-6.17431640625E-5,80,60,78,606698,99145,16748449,20377,24276,16763617,16757632,66688,Tag0,unknown
1610201665571,0,71,1.56005859375E-5,80,60,78,606698,99145,16748449,20377,24276,16763617,16757632,66688,Tag0,unknown
1610201665588,0,92,2.021484375E-5,80,60,78,606698,99145,16748449,20377,24276,16763617,16757632,66688,Tag0,unknown
1610201665625,0,304,6.6796875E-5,80,60,78,606698,99145,16748449,20377,24276,16763617,16757632,66688,Tag0,unknown
1610201665636,0,276,6.064453125E-5,80,60,78,606698,99145,16748449,20377,24276,16763617,16757632,66688,Tag0,unknown
1610201665646,0,136,2.9882812500000002E-5,80,60,78,606698,99145,16748449,20377,24276,16763617,16757632,66688,Tag0,unknown
1610201665676,0,-89,-1.95556640625E-5,80,60,78,606698,99145,16748449,20377,24276,16763617,16757632,66688,Tag0,unknown
1610201665687,0,7,1.5380859375E-6,80,60,78,606698,99145,16748449,20377,24276,16763617,16757632,66688,Tag0,unknown
1610201665706,0,121,2.6586914062500003E-5,80,60,78,606698,99145,16748449,20377,24276,16763617,16757632,66688,Tag0,unknown
1610201665723,0,-315,-6.92138671875E-5,70,64,78,1120403,679921,250874,56389,158792,39715,16761573,66302,Tag0,unknown
1610201665751,0,-767,-1.685302734375E-4,70,64,78,1120403,679921,250874,56389,158792,39715,16761573,66302,Tag0,unknown
1610201665771,0,-1048,-2.302734375E-4,70,64,78,1120403,679921,250874,56389,158792,39715,16761573,66302,Tag0,unknown
1610201665781,0,-224,-4.921875E-5,70,64,78,1120403,679921,250874,56389,158792,39715,16761573,66302,Tag0,unknown
1610201665792,0,-38,-8.349609375E-6,70,64,78,1120403,679921,250874,56389,158792,39715,16761573,66302,Tag0,unknown
1610201665803,0,414,9.096679687500001E-5,70,64,78,1120403,679921,250874,56389,158792,39715,16761573,66302,Tag0,unknown
1610201665827,0,-599,-1.316162109375E-4,70,64,78,1120403,679921,250874,56389,158792,39715,16761573,66302,Tag0,unknown
1610201665839,0,-281,-6.17431640625E-5,70,64,78,1120403,679921,250874,56389,158792,39715,16761573,66302,Tag0,unknown
1610201665862,0,1541,3.385986328125E-4,70,64,78,1120403,679921,250874,56389,158792,39715,16761573,66302,Tag0,unknown
1610201665872,0,1389,3.0520019531250005E-4,70,64,78,1120403,679921,250874,56389,158792,39715,16761573,66302,Tag0,unknown
1610201665899,0,679,1.491943359375E-4,70,64,78,1120403,679921,250874,56389,158792,39715,16761573,66302,Tag0,unknown
1610201665909,0,-1913,-4.203369140625E-4,70,64,78,1120403,679921,250874,56389,158792,39715,16761573,66302,Tag0,unknown
1610201665921,0,-1223,-2.687255859375E-4,70,64,78,1120403,679921,250874,56389,158792,39715,16761573,66302,Tag0,unknown
1610201665940,0,-1281,-2.814697265625E-4,70,64,78,1120403,679921,250874,56389,158792,39715,16761573,66302,Tag0,unknown
1610201665955,0,-1243,-2.731201171875E-4,70,64,78,1120403,679921,250874,56389,158792,39715,16761573,66302,Tag0,unknown
1610201665978,0,-1015,-2.230224609375E-4,70,64,78,1120403,679921,250874,56389,158792,39715,16761573,66302,Tag0,unknown
1610201665988,0,-1397,-3.0695800781249997E-4,70,64,78,1120403,679921,250874,56389,158792,39715,16761573,66302,Tag0,unknown
1610201665998,0,-817,-1.7951660156250002E-4,70,64,78,1120403,679921,250874,56389,158792,39715,16761573,66302,Tag0,unknown
1610201666021,0,-64,-1.40625E-5,70,64,78,1120403,679921,250874,56389,158792,39715,16761573,66302,Tag0,unknown
1610201666049,0,411,9.03076171875E-5,70,64,78,1120403,679921,250874,56389,158792,39715,16761573,66302,Tag0,unknown
1610201666059,0,-15,-3.2958984375E-6,70,64,78,1120403,679921,250874,56389,158792,39715,16761573,66302,Tag0,unknown
1610201666071,0,328,7.207031249999999E-5,70,64,78,1120403,679921,250874,56389,158792,39715,16761573,66302,Tag0,unknown
1610201666092,0,341,7.492675781250002E-5,70,64,78,1120403,679921,250874,56389,158792,39715,16761573,66302,Tag0,unknown
1610201666104,0,-87,-1.91162109375E-5,70,64,78,1120403,679921,250874,56389,158792,39715,16761573,66302,Tag0,unknown
1610201666114,0,201,4.41650390625E-5,70,64,78,1120403,679921,250874,56389,158792,39715,16761573,66302,Tag0,unknown
1610201666133,0,-633,-1.3908691406250002E-4,70,64,78,1120403,679921,250874,56389,158792,39715,16761573,66302,Tag0,unknown
1610201666153,0,-603,-1.3249511718750002E-4,70,64,78,1120403,679921,250874,56389,158792,39715,16761573,66302,Tag0,unknown
1610201666174,0,-325,-7.14111328125E-5,70,64,78,1120403,679921,250874,56389,158792,39715,16761573,66302,Tag0,unknown
1610201666189,0,-168,-3.691406250000001E-5,70,64,78,1120403,679921,250874,56389,158792,39715,16761573,66302,Tag0,unknown
1610201666207,0,215,4.72412109375E-5,70,64,78,1120403,679921,250874,56389,158792,39715,16761573,66302,Tag0,unknown
1610201666225,0,541,1.1887207031250001E-4,70,64,78,1120403,679921,250874,56389,158792,39715,16761573,66302,Tag0,unknown
1610201666235,0,-90,-1.9775390625E-5,70,64,88,1120403,679921,250874,56389,158792,39715,16761573,66302,Tag0,unknown
1610201666277,0,352,7.734375E-5,70,64,88,1120403,679921,250874,56389,158792,39715,16761573,66302,Tag0,unknown
1610201666287,0,292,6.416015625000001E-5,70,64,88,1120403,679921,250874,56389,158792,39715,16761573,66302,Tag0,unknown
1610201666303,0,327,7.18505859375E-5,70,64,88,1120403,679921,250874,56389,158792,39715,16761573,66302,Tag0,unknown
1610201666323,0,169,3.7133789062499996E-5,70,64,88,1120403,679921,250874,56389,158792,39715,16761573,66302,Tag0,unknown
1610201666337,0,299,6.56982421875E-5,70,64,88,1120403,679921,250874,56389,158792,39715,16761573,66302,Tag0,unknown
1610201666373,0,-219,-4.81201171875E-5,70,64,49,1120403,679921,250874,56389,158792,39715,16761573,66302,Tag0,unknown
1610201666386,0,-308,-6.767578125E-5,70,64,49,1120403,679921,250874,56389,158792,39715,16761573,66302,Tag0,unknown
1610201666404,0,1018,2.23681640625E-4,70,64,49,1120403,679921,250874,56389,158792,39715,16761573,66302,Tag0,unknown
1610201666424,0,392,8.61328125E-5,70,64,49,1120403,679921,250874,56389,158792,39715,16761573,66302,Tag0,unknown
1610201666440,0,715,1.571044921875E-4,70,64,49,1120403,679921,250874,56389,158792,39715,16761573,66302,Tag0,unknown
1610201666469,0,629,1.382080078125E-4,70,64,49,1120403,679921,250874,56389,158792,39715,16761573,66302,Tag0,unknown
1610201666487,0,291,6.39404296875E-5,70,64,49,1120403,679921,250874,56389,158792,39715,16761573,66302,Tag0,unknown
1610201666504,0,353,7.75634765625E-5,70,64,49,1120403,679921,250874,56389,158792,39715,16761573,66302,Tag0,unknown
1610201666520,0,385,8.45947265625E-5,70,64,49,1120403,679921,250874,56389,158792,39715,16761573,66302,Tag0,unknown
1610201666541,0,173,3.80126953125E-5,70,64,49,1120403,679921,250874,56389,158792,39715,16761573,66302,Tag0,unknown
1610201666553,0,-1649,-3.6232910156250005E-4,70,64,49,1120403,679921,250874,56389,158792,39715,16761573,66302,Tag0,unknown
1610201666575,0,1791,3.935302734375E-4,70,64,49,1120403,679921,250874,56389,158792,39715,16761573,66302,Tag0,unknown
1610201666587,0,1791,3.935302734375E-4,70,64,49,1120403,679921,250874,56389,158792,39715,16761573,66302,Tag0,unknown
1610201666597,0,-2048,-4.5E-4,70,64,49,1120403,679921,250874,56389,158792,39715,16761573,66302,Tag0,unknown
1610201666616,0,-2048,-4.5E-4,70,64,49,1120403,679921,250874,56389,158792,39715,16761573,66302,Tag0,unknown
1610201666636,0,-2048,-4.5E-4,70,64,49,1120403,679921,250874,56389,158792,39715,16761573,66302,Tag0,unknown
1610201666655,0,-1974,-4.3374023437500004E-4,70,64,49,1120403,679921,250874,56389,158792,39715,16761573,66302,Tag0,unknown
1610201666671,0,-1402,-3.08056640625E-4,70,64,49,1120403,679921,250874,56389,158792,39715,16761573,66302,Tag0,unknown
1610201666688,0,-739,-1.623779296875E-4,70,64,49,1120403,679921,250874,56389,158792,39715,16761573,66302,Tag0,unknown
1610201666707,51,-787,-1.729248046875E-4,70,64,49,1568870,1381051,379608,756365,531764,761206,800444,249915,Tag0,unknown
1610201666726,51,-571,-1.254638671875E-4,70,64,49,1568870,1381051,379608,756365,531764,761206,800444,249915,Tag0,unknown
1610201666737,51,-554,-1.2172851562500001E-4,70,64,49,1568870,1381051,379608,756365,531764,761206,800444,249915,Tag0,unknown
1610201666763,51,-167,-3.6694335937500004E-5,70,64,49,1568870,1381051,379608,756365,531764,761206,800444,249915,Tag0,unknown
1610201666773,51,-135,-2.96630859375E-5,70,64,49,1568870,1381051,379608,756365,531764,761206,800444,249915,Tag0,unknown
1610201666787,51,-305,-6.70166015625E-5,70,64,49,1568870,1381051,379608,756365,531764,761206,800444,249915,Tag0,unknown
1610201666804,51,-279,-6.13037109375E-5,70,64,49,1568870,1381051,379608,756365,531764,761206,800444,249915,Tag0,unknown
1610201666820,51,-274,-6.0205078124999997E-5,70,64,49,1568870,1381051,379608,756365,531764,761206,800444,249915,Tag0,unknown
1610201666837,51,7,1.5380859375E-6,70,64,49,1568870,1381051,379608,756365,531764,761206,800444,249915,Tag0,unknown
1610201666853,51,9,1.9775390625E-6,70,64,49,1568870,1381051,379608,756365,531764,761206,800444,249915,Tag0,unknown
1610201666863,51,39,8.5693359375E-6,70,64,49,1568870,1381051,379608,756365,531764,761206,800444,249915,Tag0,unknown
1610201666879,51,43,9.448242187500001E-6,70,64,49,1568870,1381051,379608,756365,531764,761206,800444,249915,Tag0,unknown
1610201666889,51,46,1.0107421875E-5,70,64,49,1568870,1381051,379608,756365,531764,761206,800444,249915,Tag0,unknown
1610201666918,51,53,1.1645507812500002E-5,70,64,49,1568870,1381051,379608,756365,531764,761206,800444,249915,Tag0,unknown
1610201666937,51,56,1.23046875E-5,70,64,49,1568870,1381051,379608,756365,531764,761206,800444,249915,Tag0,unknown
1610201666955,51,-44,-9.66796875E-6,70,64,49,1568870,1381051,379608,756365,531764,761206,800444,249915,Tag0,unknown
1610201666971,51,1791,3.935302734375E-4,70,64,49,1568870,1381051,379608,756365,531764,761206,800444,249915,Tag0,unknown
1610201666988,51,1791,3.935302734375E-4,70,64,49,1568870,1381051,379608,756365,531764,761206,800444,249915,Tag0,unknown
1610201667003,51,1791,3.935302734375E-4,70,64,49,1568870,1381051,379608,756365,531764,761206,800444,249915,Tag0,unknown
1610201667013,51,-2048,-4.5E-4,70,64,49,1568870,1381051,379608,756365,531764,761206,800444,249915,Tag0,unknown
1610201667023,51,-1845,-4.053955078125E-4,70,64,49,1568870,1381051,379608,756365,531764,761206,800444,249915,Tag0,unknown
1610201667045,51,-1331,-2.9245605468750005E-4,70,64,49,1568870,1381051,379608,756365,531764,761206,800444,249915,Tag0,unknown
1610201667058,51,-1289,-2.8322753906250003E-4,70,64,49,1568870,1381051,379608,756365,531764,761206,800444,249915,Tag0,unknown
1610201667078,51,-660,-1.4501953125E-4,70,64,49,1568870,1381051,379608,756365,531764,761206,800444,249915,Tag0,unknown
1610201667088,51,-888,-1.951171875E-4,70,64,49,1568870,1381051,379608,756365,531764,761206,800444,249915,Tag0,unknown
1610201667103,51,-637,-1.399658203125E-4,70,64,49,1568870,1381051,379608,756365,531764,761206,800444,249915,Tag0,unknown
1610201667137,51,-218,-4.7900390625E-5,70,64,49,1568870,1381051,379608,756365,531764,761206,800444,249915,Tag0,unknown
1610201667155,51,-209,-4.59228515625E-5,70,64,49,1568870,1381051,379608,756365,531764,761206,800444,249915,Tag0,unknown
1610201667170,51,-345,-7.58056640625E-5,70,64,49,1568870,1381051,379608,756365,531764,761206,800444,249915,Tag0,unknown
1610201667187,51,54,1.1865234375000001E-5,70,64,49,1568870,1381051,379608,756365,531764,761206,800444,249915,Tag0,unknown
1610201667203,51,-599,-1.316162109375E-4,70,64,49,1568870,1381051,379608,756365,531764,761206,800444,249915,Tag0,unknown
1610201667221,51,-251,-5.5151367187500004E-5,70,64,49,1568870,1381051,379608,756365,531764,761206,800444,249915,Tag0,unknown
1610201667256,51,1761,3.8693847656250005E-4,70,64,49,1568870,1381051,379608,756365,531764,761206,800444,249915,Tag0,unknown
1610201667271,51,968,2.1269531250000002E-4,70,64,49,1568870,1381051,379608,756365,531764,761206,800444,249915,Tag0,unknown
1610201667295,51,1640,3.603515625E-4,70,64,49,1568870,1381051,379608,756365,531764,761206,800444,249915,Tag0,unknown
1610201667305,51,-598,-1.31396484375E-4,70,64,49,1568870,1381051,379608,756365,531764,761206,800444,249915,Tag0,unknown
1610201667320,51,1340,2.9443359375E-4,70,64,49,1568870,1381051,379608,756365,531764,761206,800444,249915,Tag0,unknown
1610201667336,51,450,9.8876953125E-5,70,64,49,1568870,1381051,379608,756365,531764,761206,800444,249915,Tag0,unknown
1610201667360,51,-2048,-4.5E-4,70,64,49,1568870,1381051,379608,756365,531764,761206,800444,249915,Tag0,unknown
1610201667371,51,-2048,-4.5E-4,70,64,49,1568870,1381051,379608,756365,531764,761206,800444,249915,Tag0,unknown
1610201667401,51,-1459,-3.2058105468750004E-4,70,64,49,1568870,1381051,379608,756365,531764,761206,800444,249915,Tag0,unknown
1610201667420,51,-1658,-3.64306640625E-4,70,64,49,1568870,1381051,379608,756365,531764,761206,800444,249915,Tag0,unknown
1610201667430,51,-811,-1.781982421875E-4,70,64,49,1568870,1381051,379608,756365,531764,761206,800444,249915,Tag0,unknown
1610201667440,51,-788,-1.7314453125E-4,70,64,49,1568870,1381051,379608,756365,531764,761206,800444,249915,Tag0,unknown
1610201667455,51,-509,-1.118408203125E-4,70,64,49,1568870,1381051,379608,756365,531764,761206,800444,249915,Tag0,unknown
1610201667470,51,-572,-1.2568359375E-4,70,64,49,1568870,1381051,379608,756365,531764,761206,800444,249915,Tag0,unknown
1610201667488,51,-167,-3.6694335937500004E-5,70,64,49,1568870,1381051,379608,756365,531764,761206,800444,249915,Tag0,unknown
1610201667513,51,-336,-7.382812500000001E-5,70,64,49,1568870,1381051,379608,756365,531764,761206,800444,249915,Tag0,unknown
1610201667523,51,-305,-6.70166015625E-5,70,64,49,1568870,1381051,379608,756365,531764,761206,800444,249915,Tag0,unknown
1610201667537,51,-279,-6.13037109375E-5,70,64,49,1568870,1381051,379608,756365,531764,761206,800444,249915,Tag0,unknown
1610201667558,51,8,1.7578125E-6,70,64,49,1568870,1381051,379608,756365,531764,761206,800444,249915,Tag0,unknown
1610201667571,51,13,2.8564453125E-6,70,64,49,1568870,1381051,379608,756365,531764,761206,800444,249915,Tag0,unknown
1610201667641,51,33,7.2509765625E-6,70,64,49,1568870,1381051,379608,756365,531764,761206,800444,249915,Tag0,unknown
1610201667658,51,38,8.349609375E-6,70,64,49,1568870,1381051,379608,756365,531764,761206,800444,249915,Tag0,unknown
1610201667668,51,34,7.4707031250000005E-6,70,64,49,1568870,1381051,379608,756365,531764,761206,800444,249915,Tag0,unknown
1610201667678,51,49,1.07666015625E-5,70,64,49,1568870,1381051,379608,756365,531764,761206,800444,249915,Tag0,unknown
1610201667688,51,71,1.56005859375E-5,70,64,49,1568870,1381051,379608,756365,531764,761206,800444,249915,Tag0,unknown
1610201667704,51,-63,-1.38427734375E-5,70,64,49,1568870,1381051,379608,756365,531764,761206,800444,249915,Tag0,unknown
1610201667721,51,-73,-1.6040039062500002E-5,70,64,49,1568870,1381051,379608,756365,531764,761206,800444,249915,Tag0,unknown
1610201667731,51,50,1.0986328125E-5,70,64,49,378229,122276,16767793,61570,75946,19575,17731,16756142,Tag0,unknown
1610201667748,51,657,1.443603515625E-4,70,64,49,378229,122276,16767793,61570,75946,19575,17731,16756142,Tag0,unknown
1610201667758,51,-693,-1.522705078125E-4,70,64,49,378229,122276,16767793,61570,75946,19575,17731,16756142,Tag0,unknown
1610201667778,51,523,1.149169921875E-4,70,64,49,378229,122276,16767793,61570,75946,19575,17731,16756142,Tag0,unknown
1610201667789,51,1791,3.935302734375E-4,70,64,49,378229,122276,16767793,61570,75946,19575,17731,16756142,Tag0,unknown
1610201667821,51,-1585,-3.482666015625E-4,70,64,49,378229,122276,16767793,61570,75946,19575,17731,16756142,Tag0,unknown
1610201667839,51,-1728,-3.7968750000000003E-4,70,64,49,378229,122276,16767793,61570,75946,19575,17731,16756142,Tag0,unknown
1610201667865,51,-27,-5.9326171875000005E-6,70,64,49,378229,122276,16767793,61570,75946,19575,17731,16756142,Tag0,unknown
1610201667875,51,353,7.75634765625E-5,70,64,49,378229,122276,16767793,61570,75946,19575,17731,16756142,Tag0,unknown
1610201667929,51,-813,-1.786376953125E-4,70,64,49,378229,122276,16767793,61570,75946,19575,17731,16756142,Tag0,unknown
1610201667939,51,-230,-5.0537109375E-5,70,64,49,378229,122276,16767793,61570,75946,19575,17731,16756142,Tag0,unknown
1610201667972,51,297,6.525878906250001E-5,70,64,49,378229,122276,16767793,61570,75946,19575,17731,16756142,Tag0,unknown
1610201667988,51,154,3.3837890625E-5,70,64,49,378229,122276,16767793,61570,75946,19575,17731,16756142,Tag0,unknown
1610201667998,51,-905,-1.988525390625E-4,70,64,49,378229,122276,16767793,61570,75946,19575,17731,16756142,Tag0,unknown
1610201668011,51,-433,-9.51416015625E-5,70,64,49,378229,122276,16767793,61570,75946,19575,17731,16756142,Tag0,unknown
1610201668039,51,-203,-4.460449218750001E-5,70,64,49,378229,122276,16767793,61570,75946,19575,17731,16756142,Tag0,unknown
1610201668055,51,-513,-1.127197265625E-4,70,64,49,378229,122276,16767793,61570,75946,19575,17731,16756142,Tag0,unknown
1610201668073,51,-361,-7.93212890625E-5,70,64,49,378229,122276,16767793,61570,75946,19575,17731,16756142,Tag0,unknown
1610201668089,51,-315,-6.92138671875E-5,70,64,49,378229,122276,16767793,61570,75946,19575,17731,16756142,Tag0,unknown
1610201668129,51,636,1.3974609375E-4,70,64,49,378229,122276,16767793,61570,75946,19575,17731,16756142,Tag0,unknown
1610201668139,51,330,7.2509765625E-5,70,64,49,378229,122276,16767793,61570,75946,19575,17731,16756142,Tag0,unknown
1610201668155,51,-276,-6.064453125E-5,70,64,49,378229,122276,16767793,61570,75946,19575,17731,16756142,Tag0,unknown
1610201668171,51,161,3.53759765625E-5,70,64,49,378229,122276,16767793,61570,75946,19575,17731,16756142,Tag0,unknown
1610201668189,51,-218,-4.7900390625E-5,70,64,49,378229,122276,16767793,61570,75946,19575,17731,16756142,Tag0,unknown
1610201668205,51,65,1.42822265625E-5,70,64,49,378229,122276,16767793,61570,75946,19575,17731,16756142,Tag0,unknown
1610201668229,51,-536,-1.1777343750000001E-4,70,64,49,378229,122276,16767793,61570,75946,19575,17731,16756142,Tag0,unknown
1610201668239,51,-514,-1.12939453125E-4,70,64,49,378229,122276,16767793,61570,75946,19575,17731,16756142,Tag0,unknown
1610201668254,51,-385,-8.45947265625E-5,70,64,49,378229,122276,16767793,61570,75946,19575,17731,16756142,Tag0,unknown
1610201668279,51,764,1.6787109375E-4,70,64,49,378229,122276,16767793,61570,75946,19575,17731,16756142,Tag0,unknown
1610201668289,51,-781,-1.716064453125E-4,70,64,49,378229,122276,16767793,61570,75946,19575,17731,16756142,Tag0,unknown
1610201668306,51,-1097,-2.4104003906250002E-4,70,64,49,378229,122276,16767793,61570,75946,19575,17731,16756142,Tag0,unknown
1610201668322,51,-842,-1.85009765625E-4,70,64,49,378229,122276,16767793,61570,75946,19575,17731,16756142,Tag0,unknown
1610201668339,51,-485,-1.065673828125E-4,70,64,49,378229,122276,16767793,61570,75946,19575,17731,16756142,Tag0,unknown
1610201668354,51,-545,-1.197509765625E-4,70,64,49,378229,122276,16767793,61570,75946,19575,17731,16756142,Tag0,unknown
1610201668375,51,-150,-3.2958984375E-5,70,64,49,378229,122276,16767793,61570,75946,19575,17731,16756142,Tag0,unknown
1610201668387,51,-194,-4.2626953125E-5,70,64,49,378229,122276,16767793,61570,75946,19575,17731,16756142,Tag0,unknown
1610201668403,51,344,7.558593750000001E-5,70,64,49,378229,122276,16767793,61570,75946,19575,17731,16756142,Tag0,unknown
1610201668420,51,-351,-7.71240234375E-5,70,64,49,378229,122276,16767793,61570,75946,19575,17731,16756142,Tag0,unknown
1610201668448,51,-151,-3.31787109375E-5,70,64,49,378229,122276,16767793,61570,75946,19575,17731,16756142,Tag0,unknown
1610201668458,51,-269,-5.9106445312499996E-5,70,64,49,378229,122276,16767793,61570,75946,19575,17731,16756142,Tag0,unknown
1610201668482,51,-284,-6.240234375E-5,70,64,49,378229,122276,16767793,61570,75946,19575,17731,16756142,Tag0,unknown
1610201668492,51,-299,-6.56982421875E-5,70,64,49,378229,122276,16767793,61570,75946,19575,17731,16756142,Tag0,unknown
1610201668504,51,17,3.7353515625000003E-6,70,64,49,378229,122276,16767793,61570,75946,19575,17731,16756142,Tag0,unknown
1610201668524,51,-295,-6.48193359375E-5,70,64,49,378229,122276,16767793,61570,75946,19575,17731,16756142,Tag0,unknown
1610201668537,51,39,8.5693359375E-6,70,64,49,378229,122276,16767793,61570,75946,19575,17731,16756142,Tag0,unknown
1610201668547,51,-35,-7.6904296875E-6,70,64,49,378229,122276,16767793,61570,75946,19575,17731,16756142,Tag0,unknown
1610201668571,51,-36,-7.91015625E-6,70,64,49,378229,122276,16767793,61570,75946,19575,17731,16756142,Tag0,unknown
1610201668599,51,-105,-2.30712890625E-5,70,64,49,378229,122276,16767793,61570,75946,19575,17731,16756142,Tag0,unknown
1610201668621,51,264,5.80078125E-5,70,64,49,378229,122276,16767793,61570,75946,19575,17731,16756142,Tag0,unknown
1610201668637,51,-107,-2.35107421875E-5,70,64,49,378229,122276,16767793,61570,75946,19575,17731,16756142,Tag0,unknown
1610201668663,51,-64,-1.40625E-5,70,64,49,378229,122276,16767793,61570,75946,19575,17731,16756142,Tag0,unknown
1610201668674,51,1791,3.935302734375E-4,70,64,49,378229,122276,16767793,61570,75946,19575,17731,16756142,Tag0,unknown
1610201668687,51,-1543,-3.390380859375E-4,70,64,49,378229,122276,16767793,61570,75946,19575,17731,16756142,Tag0,unknown
1610201668712,26,1791,3.935302734375E-4,70,64,49,648322,72245,16768159,69687,17321,72892,71092,14550,Tag0,unknown
1610201668722,26,1791,3.935302734375E-4,70,64,49,648322,72245,16768159,69687,17321,72892,71092,14550,Tag0,unknown
1610201668737,26,1166,2.56201171875E-4,70,64,49,648322,72245,16768159,69687,17321,72892,71092,14550,Tag0,unknown
1610201668755,26,-1074,-2.35986328125E-4,70,64,49,648322,72245,16768159,69687,17321,72892,71092,14550,Tag0,unknown
1610201668771,26,1264,2.7773437500000004E-4,70,64,49,648322,72245,16768159,69687,17321,72892,71092,14550,Tag0,unknown
1610201668787,26,-283,-6.218261718750001E-5,70,64,49,648322,72245,16768159,69687,17321,72892,71092,14550,Tag0,unknown
1610201668804,26,-1036,-2.2763671875E-4,70,64,49,648322,72245,16768159,69687,17321,72892,71092,14550,Tag0,unknown
1610201668814,26,-2048,-4.5E-4,70,64,49,648322,72245,16768159,69687,17321,72892,71092,14550,Tag0,unknown
1610201668830,26,-2048,-4.5E-4,70,64,49,648322,72245,16768159,69687,17321,72892,71092,14550,Tag0,unknown
1610201668840,26,-1897,-4.168212890625E-4,70,64,49,648322,72245,16768159,69687,17321,72892,71092,14550,Tag0,unknown
1610201668864,26,-1557,-3.421142578125E-4,70,64,49,648322,72245,16768159,69687,17321,72892,71092,14550,Tag0,unknown
1610201668874,26,-1251,-2.7487792968750003E-4,70,64,49,648322,72245,16768159,69687,17321,72892,71092,14550,Tag0,unknown
1610201668884,26,-858,-1.88525390625E-4,70,64,49,648322,72245,16768159,69687,17321,72892,71092,14550,Tag0,unknown
1610201668904,26,-452,-9.931640625E-5,70,64,49,648322,72245,16768159,69687,17321,72892,71092,14550,Tag0,unknown
1610201668920,26,-433,-9.51416015625E-5,70,64,49,648322,72245,16768159,69687,17321,72892,71092,14550,Tag0,unknown
1610201668937,26,-268,-5.8886718750000006E-5,70,64,49,648322,72245,16768159,69687,17321,72892,71092,14550,Tag0,unknown
1610201668954,26,5,1.0986328125E-6,70,64,49,648322,72245,16768159,69687,17321,72892,71092,14550,Tag0,unknown
1610201668976,26,69,1.51611328125E-5,70,64,49,648322,72245,16768159,69687,17321,72892,71092,14550,Tag0,unknown
1610201668987,26,72,1.58203125E-5,70,64,49,648322,72245,16768159,69687,17321,72892,71092,14550,Tag0,unknown
1610201669010,26,97,2.13134765625E-5,70,64,49,648322,72245,16768159,69687,17321,72892,71092,14550,Tag0,unknown
1610201669021,26,103,2.26318359375E-5,70,64,49,648322,72245,16768159,69687,17321,72892,71092,14550,Tag0,unknown
1610201669031,26,260,5.712890625E-5,70,64,49,648322,72245,16768159,69687,17321,72892,71092,14550,Tag0,unknown
1610201669053,26,-103,-2.26318359375E-5,70,64,49,648322,72245,16768159,69687,17321,72892,71092,14550,Tag0,unknown
1610201669071,26,-125,-2.74658203125E-5,70,64,49,648322,72245,16768159,69687,17321,72892,71092,14550,Tag0,unknown
1610201669081,26,304,6.6796875E-5,70,64,49,648322,72245,16768159,69687,17321,72892,71092,14550,Tag0,unknown
1610201669094,26,381,8.371582031250001E-5,70,64,49,648322,72245,16768159,69687,17321,72892,71092,14550,Tag0,unknown
1610201669104,26,657,1.443603515625E-4,70,64,49,648322,72245,16768159,69687,17321,72892,71092,14550,Tag0,unknown
1610201669133,26,88,1.93359375E-5,70,64,49,648322,72245,16768159,69687,17321,72892,71092,14550,Tag0,unknown
1610201669143,26,-28,-6.15234375E-6,70,64,49,648322,72245,16768159,69687,17321,72892,71092,14550,Tag0,unknown
1610201669154,26,560,1.23046875E-4,70,64,49,648322,72245,16768159,69687,17321,72892,71092,14550,Tag0,unknown
1610201669174,26,-289,-6.35009765625E-5,70,64,49,648322,72245,16768159,69687,17321,72892,71092,14550,Tag0,unknown
1610201669188,26,68,1.4941406250000001E-5,70,64,49,648322,72245,16768159,69687,17321,72892,71092,14550,Tag0,unknown
1610201669198,26,11,2.4169921875E-6,70,64,49,648322,72245,16768159,69687,17321,72892,71092,14550,Tag0,unknown
1610201669221,26,-325,-7.14111328125E-5,70,64,49,648322,72245,16768159,69687,17321,72892,71092,14550,Tag0,unknown
1610201669243,26,19,4.1748046875E-6,70,64,49,648322,72245,16768159,69687,17321,72892,71092,14550,Tag0,unknown
1610201669255,26,16,3.515625E-6,70,64,49,648322,72245,16768159,69687,17321,72892,71092,14550,Tag0,unknown
1610201669265,26,-301,-6.613769531250001E-5,70,64,49,648322,72245,16768159,69687,17321,72892,71092,14550,Tag0,unknown
1610201669306,26,77,1.69189453125E-5,70,64,49,648322,72245,16768159,69687,17321,72892,71092,14550,Tag0,unknown
1610201669320,26,-270,-5.9326171875E-5,70,64,49,648322,72245,16768159,69687,17321,72892,71092,14550,Tag0,unknown
1610201669353,26,151,3.31787109375E-5,70,64,49,648322,72245,16768159,69687,17321,72892,71092,14550,Tag0,unknown
1610201669371,26,160,3.515625E-5,70,64,49,648322,72245,16768159,69687,17321,72892,71092,14550,Tag0,unknown
1610201669381,26,-345,-7.58056640625E-5,70,64,49,648322,72245,16768159,69687,17321,72892,71092,14550,Tag0,unknown
1610201669391,26,20,4.39453125E-6,70,64,49,648322,72245,16768159,69687,17321,72892,71092,14550,Tag0,unknown
1610201669421,26,75,1.64794921875E-5,70,64,49,648322,72245,16768159,69687,17321,72892,71092,14550,Tag0,unknown
1610201669437,26,115,2.52685546875E-5,70,64,49,648322,72245,16768159,69687,17321,72892,71092,14550,Tag0,unknown
1610201669459,26,325,7.14111328125E-5,70,64,49,648322,72245,16768159,69687,17321,72892,71092,14550,Tag0,unknown
1610201669471,26,309,6.78955078125E-5,70,64,49,648322,72245,16768159,69687,17321,72892,71092,14550,Tag0,unknown
1610201669494,26,180,3.955078125E-5,70,64,49,648322,72245,16768159,69687,17321,72892,71092,14550,Tag0,unknown
