timestampMs,poorSignal,eegRawValue,eegRawValueVolts,attention,meditation,blinkStrength,delta,theta,alphaLow,alphaHigh,betaLow,betaHigh,gammaLow,gammaMid,tagEvent,location
1610201222913,200,235,5.16357421875E-5,0,0,123,891323,16748057,16754941,16362,24904,14418,2164,1827,Tag0,unknown
1610201222932,200,322,7.0751953125E-5,0,0,123,891323,16748057,16754941,16362,24904,14418,2164,1827,Tag0,unknown
1610201222945,200,-37,-8.1298828125E-6,0,0,123,891323,16748057,16754941,16362,24904,14418,2164,1827,Tag0,unknown
1610201222971,200,310,6.8115234375E-5,0,0,123,891323,16748057,16754941,16362,24904,14418,2164,1827,Tag0,unknown
1610201222981,200,-48,-1.0546875E-5,0,0,123,891323,16748057,16754941,16362,24904,14418,2164,1827,Tag0,unknown
1610201223010,200,-9,-1.9775390625E-6,0,0,123,891323,16748057,16754941,16362,24904,14418,2164,1827,Tag0,unknown
1610201223029,200,294,6.4599609375E-5,0,0,123,891323,16748057,16754941,16362,24904,14418,2164,1827,Tag0,unknown
1610201223050,200,369,8.10791015625E-5,0,0,123,891323,16748057,16754941,16362,24904,14418,2164,1827,Tag0,unknown
1610201223062,200,374,8.2177734375E-5,0,0,123,891323,16748057,16754941,16362,24904,14418,2164,1827,Tag0,unknown
1610201223086,200,-53,-1.1645507812500002E-5,0,0,123,891323,16748057,16754941,16362,24904,14418,2164,1827,Tag0,unknown
1610201223096,200,-37,-8.1298828125E-6,0,0,123,891323,16748057,16754941,16362,24904,14418,2164,1827,Tag0,unknown
1610201223123,200,-89,-1.95556640625E-5,0,0,123,891323,16748057,16754941,16362,24904,14418,2164,1827,Tag0,unknown
1610201223161,200,73,1.6040039062500002E-5,0,0,123,891323,16748057,16754941,16362,24904,14418,2164,1827,Tag0,unknown
1610201223179,200,-43,-9.448242187500001E-6,0,0,123,891323,16748057,16754941,16362,24904,14418,2164,1827,Tag0,unknown
1610201223204,200,-23,-5.0537109375E-6,0,0,123,891323,16748057,16754941,16362,24904,14418,2164,1827,Tag0,unknown
1610201223214,200,-363,-7.97607421875E-5,0,0,123,891323,16748057,16754941,16362,24904,14418,2164,1827,Tag0,unknown
1610201223238,200,-89,-1.95556640625E-5,0,0,123,891323,16748057,16754941,16362,24904,14418,2164,1827,Tag0,unknown
1610201223272,200,-305,-6.70166015625E-5,0,0,123,891323,16748057,16754941,16362,24904,14418,2164,1827,Tag0,unknown
1610201223282,200,-313,-6.87744140625E-5,0,0,123,891323,16748057,16754941,16362,24904,14418,2164,1827,Tag0,unknown
1610201223296,200,-151,-3.31787109375E-5,0,0,123,891323,16748057,16754941,16362,24904,14418,2164,1827,Tag0,unknown
1610201223327,200,-139,-3.0541992187500004E-5,0,0,123,891323,16748057,16754941,16362,24904,14418,2164,1827,Tag0,unknown
1610201223345,200,-564,-1.2392578125E-4,0,0,123,891323,16748057,16754941,16362,24904,14418,2164,1827,Tag0,unknown
1610201223363,200,-648,-1.423828125E-4,0,0,123,891323,16748057,16754941,16362,24904,14418,2164,1827,Tag0,unknown
1610201223383,200,-829,-1.821533203125E-4,0,0,123,891323,16748057,16754941,16362,24904,14418,2164,1827,Tag0,unknown
1610201223398,200,-940,-2.0654296875E-4,0,0,123,891323,16748057,16754941,16362,24904,14418,2164,1827,Tag0,unknown
1610201223415,200,-947,-2.0808105468750001E-4,0,0,123,891323,16748057,16754941,16362,24904,14418,2164,1827,Tag0,unknown
1610201223425,200,-216,-4.7460937500000004E-5,0,0,123,891323,16748057,16754941,16362,24904,14418,2164,1827,Tag0,unknown
1610201223435,200,-181,-3.9770507812500004E-5,0,0,123,891323,16748057,16754941,16362,24904,14418,2164,1827,Tag0,unknown
1610201223448,200,-225,-4.94384765625E-5,0,0,123,891323,16748057,16754941,16362,24904,14418,2164,1827,Tag0,unknown
1610201223467,200,-164,-3.6035156249999995E-5,0,0,123,891323,16748057,16754941,16362,24904,14418,2164,1827,Tag0,unknown
1610201223481,200,-225,-4.94384765625E-5,0,0,123,891323,16748057,16754941,16362,24904,14418,2164,1827,Tag0,unknown
1610201223502,200,-545,-1.197509765625E-4,0,0,123,891323,16748057,16754941,16362,24904,14418,2164,1827,Tag0,unknown
1610201223515,200,-573,-1.259033203125E-4,0,0,123,891323,16748057,16754941,16362,24904,14418,2164,1827,Tag0,unknown
1610201223525,200,-541,-1.1887207031250001E-4,0,0,123,891323,16748057,16754941,16362,24904,14418,2164,1827,Tag0,unknown
1610201223539,200,-339,-7.448730468750001E-5,0,0,123,891323,16748057,16754941,16362,24904,14418,2164,1827,Tag0,unknown
1610201223549,200,-181,-3.9770507812500004E-5,0,0,123,891323,16748057,16754941,16362,24904,14418,2164,1827,Tag0,unknown
1610201223575,200,-599,-1.316162109375E-4,0,0,123,891323,16748057,16754941,16362,24904,14418,2164,1827,Tag0,unknown
1610201223599,200,-472,-1.037109375E-4,0,0,123,891323,16748057,16754941,16362,24904,14418,2164,1827,Tag0,unknown
1610201223615,200,-603,-1.3249511718750002E-4,0,0,123,891323,16748057,16754941,16362,24904,14418,2164,1827,Tag0,unknown
1610201223631,200,-373,-8.19580078125E-5,0,0,123,891323,16748057,16754941,16362,24904,14418,2164,1827,Tag0,unknown
1610201223651,200,-270,-5.9326171875E-5,0,0,123,891323,16748057,16754941,16362,24904,14418,2164,1827,Tag0,unknown
1610201223665,200,-275,-6.04248046875E-5,0,0,123,891323,16748057,16754941,16362,24904,14418,2164,1827,Tag0,unknown
1610201223681,200,579,1.272216796875E-4,0,0,123,891323,16748057,16754941,16362,24904,14418,2164,1827,Tag0,unknown
1610201223697,200,610,1.34033203125E-4,0,0,123,891323,16748057,16754941,16362,24904,14418,2164,1827,Tag0,unknown
1610201223714,200,492,1.0810546875E-4,0,0,123,891323,16748057,16754941,16362,24904,14418,2164,1827,Tag0,unknown
1610201223731,200,392,8.61328125E-5,0,0,123,891323,16748057,16754941,16362,24904,14418,2164,1827,Tag0,unknown
1610201223758,200,546,1.1997070312500001E-4,0,0,123,891323,16748057,16754941,16362,24904,14418,2164,1827,Tag0,unknown
1610201223768,200,188,4.1308593750000004E-5,0,0,123,891323,16748057,16754941,16362,24904,14418,2164,1827,Tag0,unknown
1610201223800,200,-102,-2.2412109374999998E-5,0,0,123,891323,16748057,16754941,16362,24904,14418,2164,1827,Tag0,unknown
1610201223814,200,-122,-2.6806640625E-5,0,0,123,891323,16748057,16754941,16362,24904,14418,2164,1827,Tag0,unknown
1610201223824,200,-283,-6.218261718750001E-5,0,0,123,891323,16748057,16754941,16362,24904,14418,2164,1827,Tag0,unknown
1610201223836,200,-367,-8.063964843750001E-5,0,0,123,891323,16748057,16754941,16362,24904,14418,2164,1827,Tag0,unknown
1610201223849,200,-157,-3.44970703125E-5,0,0,123,891323,16748057,16754941,16362,24904,14418,2164,1827,Tag0,unknown
1610201223859,200,-117,-2.5708007812499998E-5,0,0,123,891323,16748057,16754941,16362,24904,14418,2164,1827,Tag0,unknown
1610201223887,200,305,6.70166015625E-5,0,0,123,2061610,60229,83266,26379,28688,16765936,18071,20659,Tag0,unknown
1610201223901,200,357,7.844238281250001E-5,0,0,123,2061610,60229,83266,26379,28688,16765936,18071,20659,Tag0,unknown
1610201223916,200,291,6.39404296875E-5,0,0,123,2061610,60229,83266,26379,28688,16765936,18071,20659,Tag0,unknown
1610201223930,200,325,7.14111328125E-5,0,0,123,2061610,60229,83266,26379,28688,16765936,18071,20659,Tag0,unknown
1610201223950,200,396,8.701171875000001E-5,0,0,123,2061610,60229,83266,26379,28688,16765936,18071,20659,Tag0,unknown
1610201223964,200,628,1.3798828125E-4,0,0,123,2061610,60229,83266,26379,28688,16765936,18071,20659,Tag0,unknown
1610201223974,200,817,1.7951660156250002E-4,0,0,123,2061610,60229,83266,26379,28688,16765936,18071,20659,Tag0,unknown
1610201223989,200,1109,2.436767578125E-4,0,0,123,2061610,60229,83266,26379,28688,16765936,18071,20659,Tag0,unknown
1610201223999,200,1057,2.322509765625E-4,0,0,123,2061610,60229,83266,26379,28688,16765936,18071,20659,Tag0,unknown
1610201224051,200,83,1.82373046875E-5,0,0,123,2061610,60229,83266,26379,28688,16765936,18071,20659,Tag0,unknown
1610201224066,200,-264,-5.80078125E-5,0,0,123,2061610,60229,83266,26379,28688,16765936,18071,20659,Tag0,unknown
1610201224076,200,-291,-6.39404296875E-5,0,0,123,2061610,60229,83266,26379,28688,16765936,18071,20659,Tag0,unknown
1610201224097,200,7,1.5380859375E-6,0,0,123,2061610,60229,83266,26379,28688,16765936,18071,20659,Tag0,unknown
1610201224114,200,34,7.4707031250000005E-6,0,0,123,2061610,60229,83266,26379,28688,16765936,18071,20659,Tag0,unknown
1610201224124,200,-261,-5.73486328125E-5,0,0,123,2061610,60229,83266,26379,28688,16765936,18071,20659,Tag0,unknown
1610201224138,200,53,1.1645507812500002E-5,0,0,123,2061610,60229,83266,26379,28688,16765936,18071,20659,Tag0,unknown
1610201224148,200,115,2.52685546875E-5,0,0,123,2061610,60229,83266,26379,28688,16765936,18071,20659,Tag0,unknown
1610201224164,200,-110,-2.4169921875E-5,0,0,123,2061610,60229,83266,26379,28688,16765936,18071,20659,Tag0,unknown
1610201224181,200,-43,-9.448242187500001E-6,0,0,123,2061610,60229,83266,26379,28688,16765936,18071,20659,Tag0,unknown
1610201224209,200,44,9.66796875E-6,0,0,123,2061610,60229,83266,26379,28688,16765936,18071,20659,Tag0,unknown
1610201224219,200,124,2.724609375E-5,0,0,123,2061610,60229,83266,26379,28688,16765936,18071,20659,Tag0,unknown
1610201224231,200,89,1.95556640625E-5,0,0,123,2061610,60229,83266,26379,28688,16765936,18071,20659,Tag0,unknown
1610201224248,200,-115,-2.52685546875E-5,0,0,123,2061610,60229,83266,26379,28688,16765936,18071,20659,Tag0,unknown
1610201224264,200,-12,-2.63671875E-6,0,0,123,2061610,60229,83266,26379,28688,16765936,18071,20659,Tag0,unknown
1610201224274,200,361,7.93212890625E-5,0,0,123,2061610,60229,83266,26379,28688,16765936,18071,20659,Tag0,unknown
1610201224287,200,176,3.8671875E-5,0,0,123,2061610,60229,83266,26379,28688,16765936,18071,20659,Tag0,unknown
1610201224299,200,571,1.254638671875E-4,0,0,123,2061610,60229,83266,26379,28688,16765936,18071,20659,Tag0,unknown
1610201224315,200,375,8.23974609375E-5,0,0,123,2061610,60229,83266,26379,28688,16765936,18071,20659,Tag0,unknown
1610201224331,200,92,2.021484375E-5,0,0,123,2061610,60229,83266,26379,28688,16765936,18071,20659,Tag0,unknown
1610201224358,200,-337,-7.40478515625E-5,0,0,123,2061610,60229,83266,26379,28688,16765936,18071,20659,Tag0,unknown
1610201224368,200,7,1.5380859375E-6,0,0,123,2061610,60229,83266,26379,28688,16765936,18071,20659,Tag0,unknown
1610201224399,200,-133,-2.92236328125E-5,0,0,123,2061610,60229,83266,26379,28688,16765936,18071,20659,Tag0,unknown
1610201224415,200,-612,-1.3447265625000002E-4,0,0,123,2061610,60229,83266,26379,28688,16765936,18071,20659,Tag0,unknown
1610201224435,200,-1397,-3.0695800781249997E-4,0,0,123,2061610,60229,83266,26379,28688,16765936,18071,20659,Tag0,unknown
1610201224448,200,-1395,-3.065185546875E-4,0,0,123,2061610,60229,83266,26379,28688,16765936,18071,20659,Tag0,unknown
1610201224458,200,-1132,-2.4873046875000004E-4,0,0,123,2061610,60229,83266,26379,28688,16765936,18071,20659,Tag0,unknown
1610201224490,200,-969,-2.129150390625E-4,0,0,123,2061610,60229,83266,26379,28688,16765936,18071,20659,Tag0,unknown
1610201224500,200,-971,-2.133544921875E-4,0,0,123,2061610,60229,83266,26379,28688,16765936,18071,20659,Tag0,unknown
1610201224515,200,-814,-1.78857421875E-4,0,0,123,2061610,60229,83266,26379,28688,16765936,18071,20659,Tag0,unknown
1610201224535,200,-518,-1.13818359375E-4,0,0,123,2061610,60229,83266,26379,28688,16765936,18071,20659,Tag0,unknown
1610201224548,200,-172,-3.7792968750000005E-5,0,0,123,2061610,60229,83266,26379,28688,16765936,18071,20659,Tag0,unknown
1610201224574,200,-1122,-2.46533203125E-4,0,0,123,2061610,60229,83266,26379,28688,16765936,18071,20659,Tag0,unknown
1610201224584,200,-1069,-2.3488769531250002E-4,0,0,123,2061610,60229,83266,26379,28688,16765936,18071,20659,Tag0,unknown
1610201224599,200,-1061,-2.331298828125E-4,0,0,123,2061610,60229,83266,26379,28688,16765936,18071,20659,Tag0,unknown
1610201224617,200,-469,-1.0305175781250001E-4,0,0,123,2061610,60229,83266,26379,28688,16765936,18071,20659,Tag0,unknown
1610201224631,200,-449,-9.86572265625E-5,0,0,123,2061610,60229,83266,26379,28688,16765936,18071,20659,Tag0,unknown
1610201224651,200,-531,-1.1667480468750001E-4,0,0,123,2061610,60229,83266,26379,28688,16765936,18071,20659,Tag0,unknown
1610201224665,200,-517,-1.135986328125E-4,0,0,123,2061610,60229,83266,26379,28688,16765936,18071,20659,Tag0,unknown
1610201224698,200,-140,-3.076171875E-5,0,0,123,2061610,60229,83266,26379,28688,16765936,18071,20659,Tag0,unknown
1610201224714,200,-134,-2.9443359375000003E-5,0,0,123,2061610,60229,83266,26379,28688,16765936,18071,20659,Tag0,unknown
1610201224724,200,933,2.050048828125E-4,0,0,123,2061610,60229,83266,26379,28688,16765936,18071,20659,Tag0,unknown
1610201224738,200,1201,2.6389160156250005E-4,0,0,123,2061610,60229,83266,26379,28688,16765936,18071,20659,Tag0,unknown
1610201224748,200,1733,3.807861328125E-4,0,0,123,2061610,60229,83266,26379,28688,16765936,18071,20659,Tag0,unknown
1610201224758,200,1791,3.935302734375E-4,0,0,123,2061610,60229,83266,26379,28688,16765936,18071,20659,Tag0,unknown
1610201224782,200,1791,3.935302734375E-4,0,0,123,2061610,60229,83266,26379,28688,16765936,18071,20659,Tag0,unknown
1610201224797,200,1791,3.935302734375E-4,0,0,123,2061610,60229,83266,26379,28688,16765936,18071,20659,Tag0,unknown
1610201224821,200,1033,2.2697753906250002E-4,0,0,123,2061610,60229,83266,26379,28688,16765936,18071,20659,Tag0,unknown
1610201224831,200,489,1.0744628906250001E-4,0,0,123,2061610,60229,83266,26379,28688,16765936,18071,20659,Tag0,unknown
1610201224852,200,437,9.602050781250001E-5,0,0,123,2061610,60229,83266,26379,28688,16765936,18071,20659,Tag0,unknown
1610201224865,200,417,9.16259765625E-5,0,0,123,2061610,60229,83266,26379,28688,16765936,18071,20659,Tag0,unknown
1610201224895,200,32,7.03125E-6,0,0,123,926744,83281,23663,16747551,18329,25316,7680,5820,Tag0,unknown
1610201224915,200,-807,-1.7731933593750001E-4,0,0,123,926744,83281,23663,16747551,18329,25316,7680,5820,Tag0,unknown
1610201224931,200,-693,-1.522705078125E-4,0,0,123,926744,83281,23663,16747551,18329,25316,7680,5820,Tag0,unknown
1610201224949,200,-893,-1.9621582031250002E-4,0,0,123,926744,83281,23663,16747551,18329,25316,7680,5820,Tag0,unknown
1610201224964,200,-161,-3.53759765625E-5,0,0,123,926744,83281,23663,16747551,18329,25316,7680,5820,Tag0,unknown
1610201225000,200,106,2.3291015625000003E-5,0,0,123,926744,83281,23663,16747551,18329,25316,7680,5820,Tag0,unknown
1610201225015,200,40,8.7890625E-6,0,0,123,926744,83281,23663,16747551,18329,25316,7680,5820,Tag0,unknown
1610201225025,200,616,1.353515625E-4,0,0,123,926744,83281,23663,16747551,18329,25316,7680,5820,Tag0,unknown
1610201225040,200,407,8.94287109375E-5,0,0,123,926744,83281,23663,16747551,18329,25316,7680,5820,Tag0,unknown
1610201225050,200,410,9.0087890625E-5,0,0,123,926744,83281,23663,16747551,18329,25316,7680,5820,Tag0,unknown
1610201225066,200,164,3.6035156249999995E-5,0,0,123,926744,83281,23663,16747551,18329,25316,7680,5820,Tag0,unknown
1610201225082,200,135,2.96630859375E-5,0,0,123,926744,83281,23663,16747551,18329,25316,7680,5820,Tag0,unknown
1610201225100,200,360,7.91015625E-5,0,0,123,926744,83281,23663,16747551,18329,25316,7680,5820,Tag0,unknown
1610201225110,200,-5,-1.0986328125E-6,0,0,123,926744,83281,23663,16747551,18329,25316,7680,5820,Tag0,unknown
1610201225131,200,123,2.70263671875E-5,0,0,123,926744,83281,23663,16747551,18329,25316,7680,5820,Tag0,unknown
1610201225155,200,75,1.64794921875E-5,0,0,123,926744,83281,23663,16747551,18329,25316,7680,5820,Tag0,unknown
1610201225166,200,25,5.4931640625E-6,0,0,123,926744,83281,23663,16747551,18329,25316,7680,5820,Tag0,unknown
1610201225199,200,-773,-1.6984863281250002E-4,0,0,123,926744,83281,23663,16747551,18329,25316,7680,5820,Tag0,unknown
1610201225215,200,-870,-1.91162109375E-4,0,0,123,926744,83281,23663,16747551,18329,25316,7680,5820,Tag0,unknown
1610201225232,200,-1144,-2.513671875E-4,0,0,123,926744,83281,23663,16747551,18329,25316,7680,5820,Tag0,unknown
1610201225248,200,-915,-2.010498046875E-4,0,0,123,926744,83281,23663,16747551,18329,25316,7680,5820,Tag0,unknown
1610201225258,200,-739,-1.623779296875E-4,0,0,123,926744,83281,23663,16747551,18329,25316,7680,5820,Tag0,unknown
1610201225268,200,-733,-1.6105957031250002E-4,0,0,123,926744,83281,23663,16747551,18329,25316,7680,5820,Tag0,unknown
1610201225282,200,-725,-1.593017578125E-4,0,0,123,926744,83281,23663,16747551,18329,25316,7680,5820,Tag0,unknown
1610201225304,200,-666,-1.4633789062499998E-4,0,0,123,926744,83281,23663,16747551,18329,25316,7680,5820,Tag0,unknown
1610201225315,200,-690,-1.51611328125E-4,0,0,123,926744,83281,23663,16747551,18329,25316,7680,5820,Tag0,unknown
1610201225335,200,-811,-1.781982421875E-4,0,0,123,926744,83281,23663,16747551,18329,25316,7680,5820,Tag0,unknown
1610201225348,200,-505,-1.109619140625E-4,0,0,123,926744,83281,23663,16747551,18329,25316,7680,5820,Tag0,unknown
1610201225379,200,257,5.64697265625E-5,0,0,123,926744,83281,23663,16747551,18329,25316,7680,5820,Tag0,unknown
1610201225398,200,266,5.8447265625E-5,0,0,123,926744,83281,23663,16747551,18329,25316,7680,5820,Tag0,unknown
1610201225421,200,-89,-1.95556640625E-5,0,0,123,926744,83281,23663,16747551,18329,25316,7680,5820,Tag0,unknown
1610201225431,200,-22,-4.833984375E-6,0,0,123,926744,83281,23663,16747551,18329,25316,7680,5820,Tag0,unknown
1610201225455,200,-56,-1.23046875E-5,0,0,123,926744,83281,23663,16747551,18329,25316,7680,5820,Tag0,unknown
1610201225465,200,-121,-2.6586914062500003E-5,0,0,123,926744,83281,23663,16747551,18329,25316,7680,5820,Tag0,unknown
1610201225481,200,-317,-6.96533203125E-5,0,0,123,926744,83281,23663,16747551,18329,25316,7680,5820,Tag0,unknown
1610201225499,200,256,5.625E-5,0,0,123,926744,83281,23663,16747551,18329,25316,7680,5820,Tag0,unknown
1610201225514,200,173,3.80126953125E-5,0,0,123,926744,83281,23663,16747551,18329,25316,7680,5820,Tag0,unknown
1610201225533,200,553,1.215087890625E-4,0,0,123,926744,83281,23663,16747551,18329,25316,7680,5820,Tag0,unknown
1610201225549,200,507,1.1140136718750001E-4,0,0,123,926744,83281,23663,16747551,18329,25316,7680,5820,Tag0,unknown
1610201225567,200,768,1.6875E-4,0,0,123,926744,83281,23663,16747551,18329,25316,7680,5820,Tag0,unknown
1610201225602,200,712,1.564453125E-4,0,0,123,926744,83281,23663,16747551,18329,25316,7680,5820,Tag0,unknown
1610201225616,200,665,1.461181640625E-4,0,0,123,926744,83281,23663,16747551,18329,25316,7680,5820,Tag0,unknown
1610201225626,200,209,4.59228515625E-5,0,0,123,926744,83281,23663,16747551,18329,25316,7680,5820,Tag0,unknown
1610201225641,200,379,8.32763671875E-5,0,0,123,926744,83281,23663,16747551,18329,25316,7680,5820,Tag0,unknown
1610201225651,200,258,5.6689453125000004E-5,0,0,123,926744,83281,23663,16747551,18329,25316,7680,5820,Tag0,unknown
1610201225664,200,25,5.4931640625E-6,0,0,123,926744,83281,23663,16747551,18329,25316,7680,5820,Tag0,unknown
1610201225682,200,69,1.51611328125E-5,0,0,123,926744,83281,23663,16747551,18329,25316,7680,5820,Tag0,unknown
1610201225711,200,14,3.076171875E-6,0,0,123,926744,83281,23663,16747551,18329,25316,7680,5820,Tag0,unknown
1610201225721,200,83,1.82373046875E-5,0,0,123,926744,83281,23663,16747551,18329,25316,7680,5820,Tag0,unknown
1610201225751,200,-59,-1.29638671875E-5,0,0,123,926744,83281,23663,16747551,18329,25316,7680,5820,Tag0,unknown
1610201225764,200,-341,-7.492675781250002E-5,0,0,123,926744,83281,23663,16747551,18329,25316,7680,5820,Tag0,unknown
1610201225789,200,-541,-1.1887207031250001E-4,0,0,123,926744,83281,23663,16747551,18329,25316,7680,5820,Tag0,unknown
1610201225800,200,-549,-1.2062988281250001E-4,0,0,123,926744,83281,23663,16747551,18329,25316,7680,5820,Tag0,unknown
1610201225810,200,-242,-5.3173828125000005E-5,0,0,123,926744,83281,23663,16747551,18329,25316,7680,5820,Tag0,unknown
1610201225832,200,-546,-1.1997070312500001E-4,0,0,123,926744,83281,23663,16747551,18329,25316,7680,5820,Tag0,unknown
1610201225848,200,-509,-1.118408203125E-4,0,0,123,926744,83281,23663,16747551,18329,25316,7680,5820,Tag0,unknown
1610201225865,200,-445,-9.77783203125E-5,0,0,123,926744,83281,23663,16747551,18329,25316,7680,5820,Tag0,unknown
1610201225883,200,-662,-1.4545898437500003E-4,0,0,123,926744,83281,23663,16747551,18329,25316,7680,5820,Tag0,unknown
1610201225908,200,-1147,-2.520263671875E-4,0,0,123,1189007,744495,19169,103046,16750134,80665,15979,16460,Tag0,unknown
1610201225931,200,-674,-1.48095703125E-4,0,0,123,1189007,744495,19169,103046,16750134,80665,15979,16460,Tag0,unknown
1610201225951,200,-706,-1.55126953125E-4,0,0,123,1189007,744495,19169,103046,16750134,80665,15979,16460,Tag0,unknown
1610201225965,200,-743,-1.6325683593750002E-4,0,0,123,1189007,744495,19169,103046,16750134,80665,15979,16460,Tag0,unknown
1610201225981,200,-565,-1.241455078125E-4,0,0,123,1189007,744495,19169,103046,16750134,80665,15979,16460,Tag0,unknown
1610201225998,200,826,1.81494140625E-4,0,0,123,1189007,744495,19169,103046,16750134,80665,15979,16460,Tag0,unknown
1610201226015,200,1157,2.542236328125E-4,0,0,123,1189007,744495,19169,103046,16750134,80665,15979,16460,Tag0,unknown
1610201226048,200,789,1.7336425781250002E-4,0,0,123,1189007,744495,19169,103046,16750134,80665,15979,16460,Tag0,unknown
1610201226064,200,438,9.6240234375E-5,0,0,123,1189007,744495,19169,103046,16750134,80665,15979,16460,Tag0,unknown
1610201226074,200,1,2.197265625E-7,0,0,123,1189007,744495,19169,103046,16750134,80665,15979,16460,Tag0,unknown
1610201226089,200,-259,-5.69091796875E-5,0,0,123,1189007,744495,19169,103046,16750134,80665,15979,16460,Tag0,unknown
1610201226099,200,11,2.4169921875E-6,0,0,123,1189007,744495,19169,103046,16750134,80665,15979,16460,Tag0,unknown
1610201226122,200,-603,-1.3249511718750002E-4,0,0,123,1189007,744495,19169,103046,16750134,80665,15979,16460,Tag0,unknown
1610201226133,200,-577,-1.2678222656250002E-4,0,0,123,1189007,744495,19169,103046,16750134,80665,15979,16460,Tag0,unknown
1610201226148,200,284,6.240234375E-5,0,0,123,1189007,744495,19169,103046,16750134,80665,15979,16460,Tag0,unknown
1610201226164,200,365,8.02001953125E-5,0,0,123,1189007,744495,19169,103046,16750134,80665,15979,16460,Tag0,unknown
1610201226181,200,490,1.07666015625E-4,0,0,123,1189007,744495,19169,103046,16750134,80665,15979,16460,Tag0,unknown
1610201226226,200,685,1.505126953125E-4,0,0,123,1189007,744495,19169,103046,16750134,80665,15979,16460,Tag0,unknown
1610201226248,200,888,1.951171875E-4,0,0,123,1189007,744495,19169,103046,16750134,80665,15979,16460,Tag0,unknown
1610201226274,200,572,1.2568359375E-4,0,0,123,1189007,744495,19169,103046,16750134,80665,15979,16460,Tag0,unknown
1610201226284,200,638,1.40185546875E-4,0,0,123,1189007,744495,19169,103046,16750134,80665,15979,16460,Tag0,unknown
1610201226299,200,183,4.02099609375E-5,0,0,123,1189007,744495,19169,103046,16750134,80665,15979,16460,Tag0,unknown
1610201226316,200,-7,-1.5380859375E-6,0,0,123,1189007,744495,19169,103046,16750134,80665,15979,16460,Tag0,unknown
1610201226332,200,-105,-2.30712890625E-5,0,0,123,1189007,744495,19169,103046,16750134,80665,15979,16460,Tag0,unknown
1610201226362,200,325,7.14111328125E-5,0,0,123,1189007,744495,19169,103046,16750134,80665,15979,16460,Tag0,unknown
1610201226381,200,373,8.19580078125E-5,0,0,123,1189007,744495,19169,103046,16750134,80665,15979,16460,Tag0,unknown
1610201226400,200,219,4.81201171875E-5,0,0,123,1189007,744495,19169,103046,16750134,80665,15979,16460,Tag0,unknown
1610201226414,200,313,6.87744140625E-5,0,0,123,1189007,744495,19169,103046,16750134,80665,15979,16460,Tag0,unknown
1610201226432,200,75,1.64794921875E-5,0,0,123,1189007,744495,19169,103046,16750134,80665,15979,16460,Tag0,unknown
1610201226448,200,40,8.7890625E-6,0,0,123,1189007,744495,19169,103046,16750134,80665,15979,16460,Tag0,unknown
1610201226466,200,-627,-1.377685546875E-4,0,0,123,1189007,744495,19169,103046,16750134,80665,15979,16460,Tag0,unknown
1610201226482,200,-475,-1.043701171875E-4,0,0,123,1189007,744495,19169,103046,16750134,80665,15979,16460,Tag0,unknown
1610201226492,200,-904,-1.986328125E-4,0,0,123,1189007,744495,19169,103046,16750134,80665,15979,16460,Tag0,unknown
1610201226507,200,-1129,-2.480712890625E-4,0,0,123,1189007,744495,19169,103046,16750134,80665,15979,16460,Tag0,unknown
1610201226517,200,-881,-1.9357910156249998E-4,0,0,123,1189007,744495,19169,103046,16750134,80665,15979,16460,Tag0,unknown
1610201226532,200,-527,-1.157958984375E-4,0,0,123,1189007,744495,19169,103046,16750134,80665,15979,16460,Tag0,unknown
1610201226549,200,-316,-6.943359375000001E-5,0,0,123,1189007,744495,19169,103046,16750134,80665,15979,16460,Tag0,unknown
1610201226581,200,-142,-3.1201171875E-5,0,0,123,1189007,744495,19169,103046,16750134,80665,15979,16460,Tag0,unknown
1610201226598,200,-205,-4.50439453125E-5,0,0,123,1189007,744495,19169,103046,16750134,80665,15979,16460,Tag0,unknown
1610201226619,200,3,6.591796875E-7,0,0,123,1189007,744495,19169,103046,16750134,80665,15979,16460,Tag0,unknown
1610201226632,200,-89,-1.95556640625E-5,0,0,123,1189007,744495,19169,103046,16750134,80665,15979,16460,Tag0,unknown
1610201226642,200,101,2.2192382812500002E-5,0,0,123,1189007,744495,19169,103046,16750134,80665,15979,16460,Tag0,unknown
1610201226665,200,9,1.9775390625E-6,0,0,123,1189007,744495,19169,103046,16750134,80665,15979,16460,Tag0,unknown
1610201226682,200,-413,-9.07470703125E-5,0,0,123,1189007,744495,19169,103046,16750134,80665,15979,16460,Tag0,unknown
1610201226726,200,-714,-1.5688476562500001E-4,0,0,123,1189007,744495,19169,103046,16750134,80665,15979,16460,Tag0,unknown
1610201226748,200,-743,-1.6325683593750002E-4,0,0,123,1189007,744495,19169,103046,16750134,80665,15979,16460,Tag0,unknown
1610201226758,200,-348,-7.646484375E-5,0,0,123,1189007,744495,19169,103046,16750134,80665,15979,16460,Tag0,unknown
1610201226768,200,-273,-5.998535156250001E-5,0,0,123,1189007,744495,19169,103046,16750134,80665,15979,16460,Tag0,unknown
1610201226783,200,-280,-6.15234375E-5,0,0,123,1189007,744495,19169,103046,16750134,80665,15979,16460,Tag0,unknown
1610201226793,200,-333,-7.316894531249999E-5,0,0,123,1189007,744495,19169,103046,16750134,80665,15979,16460,Tag0,unknown
1610201226805,200,-123,-2.70263671875E-5,0,0,123,1189007,744495,19169,103046,16750134,80665,15979,16460,Tag0,unknown
1610201226818,200,-57,-1.2524414062500001E-5,0,0,123,1189007,744495,19169,103046,16750134,80665,15979,16460,Tag0,unknown
1610201226845,200,345,7.58056640625E-5,0,0,123,1189007,744495,19169,103046,16750134,80665,15979,16460,Tag0,unknown
1610201226865,200,131,2.87841796875E-5,0,0,123,1189007,744495,19169,103046,16750134,80665,15979,16460,Tag0,unknown
1610201226882,200,-340,-7.470703125E-5,0,0,123,299933,6160,3547,7909,1992,2565,358,418,Tag0,unknown
1610201226901,200,583,1.281005859375E-4,0,0,123,299933,6160,3547,7909,1992,2565,358,418,Tag0,unknown
1610201226917,200,808,1.7753906250000002E-4,0,0,123,299933,6160,3547,7909,1992,2565,358,418,Tag0,unknown
1610201226932,200,825,1.812744140625E-4,0,0,123,299933,6160,3547,7909,1992,2565,358,418,Tag0,unknown
1610201226953,200,345,7.58056640625E-5,0,0,123,299933,6160,3547,7909,1992,2565,358,418,Tag0,unknown
1610201226965,200,377,8.28369140625E-5,0,0,123,299933,6160,3547,7909,1992,2565,358,418,Tag0,unknown
1610201226987,200,51,1.1206054687499999E-5,0,0,123,299933,6160,3547,7909,1992,2565,358,418,Tag0,unknown
1610201226999,200,0,0.0,0,0,123,299933,6160,3547,7909,1992,2565,358,418,Tag0,unknown
1610201227009,200,-1051,-2.309326171875E-4,0,0,123,299933,6160,3547,7909,1992,2565,358,418,Tag0,unknown
1610201227033,200,-759,-1.667724609375E-4,0,0,123,299933,6160,3547,7909,1992,2565,358,418,Tag0,unknown
1610201227072,200,-629,-1.382080078125E-4,0,0,123,299933,6160,3547,7909,1992,2565,358,418,Tag0,unknown
1610201227082,200,-539,-1.1843261718750001E-4,0,0,123,299933,6160,3547,7909,1992,2565,358,418,Tag0,unknown
1610201227120,200,-5,-1.0986328125E-6,0,0,123,299933,6160,3547,7909,1992,2565,358,418,Tag0,unknown
1610201227131,200,257,5.64697265625E-5,0,0,123,299933,6160,3547,7909,1992,2565,358,418,Tag0,unknown
1610201227141,200,-35,-7.6904296875E-6,0,0,123,299933,6160,3547,7909,1992,2565,358,418,Tag0,unknown
1610201227175,200,298,6.5478515625E-5,0,0,123,299933,6160,3547,7909,1992,2565,358,418,Tag0,unknown
1610201227185,200,325,7.14111328125E-5,0,0,123,299933,6160,3547,7909,1992,2565,358,418,Tag0,unknown
1610201227198,200,-84,-1.8457031250000004E-5,0,0,123,299933,6160,3547,7909,1992,2565,358,418,Tag0,unknown
1610201227229,200,122,2.6806640625E-5,0,0,123,299933,6160,3547,7909,1992,2565,358,418,Tag0,unknown
1610201227248,200,-124,-2.724609375E-5,0,0,123,299933,6160,3547,7909,1992,2565,358,418,Tag0,unknown
1610201227265,200,-130,-2.8564453125E-5,0,0,123,299933,6160,3547,7909,1992,2565,358,418,Tag0,unknown
1610201227281,200,-96,-2.109375E-5,0,0,123,299933,6160,3547,7909,1992,2565,358,418,Tag0,unknown
1610201227324,200,-122,-2.6806640625E-5,0,0,123,299933,6160,3547,7909,1992,2565,358,418,Tag0,unknown
1610201227334,200,17,3.7353515625000003E-6,0,0,123,299933,6160,3547,7909,1992,2565,358,418,Tag0,unknown
1610201227348,200,280,6.15234375E-5,0,0,123,299933,6160,3547,7909,1992,2565,358,418,Tag0,unknown
1610201227370,200,393,8.63525390625E-5,0,0,123,299933,6160,3547,7909,1992,2565,358,418,Tag0,unknown
1610201227382,200,633,1.3908691406250002E-4,0,0,123,299933,6160,3547,7909,1992,2565,358,418,Tag0,unknown
1610201227408,200,-91,-1.99951171875E-5,0,0,123,299933,6160,3547,7909,1992,2565,358,418,Tag0,unknown
1610201227418,200,56,1.23046875E-5,0,0,123,299933,6160,3547,7909,1992,2565,358,418,Tag0,unknown
1610201227433,200,83,1.82373046875E-5,0,0,123,299933,6160,3547,7909,1992,2565,358,418,Tag0,unknown
1610201227449,200,282,6.1962890625E-5,0,0,123,299933,6160,3547,7909,1992,2565,358,418,Tag0,unknown
1610201227465,200,328,7.207031249999999E-5,0,0,123,299933,6160,3547,7909,1992,2565,358,418,Tag0,unknown
1610201227486,200,275,6.04248046875E-5,0,0,123,299933,6160,3547,7909,1992,2565,358,418,Tag0,unknown
1610201227499,200,281,6.17431640625E-5,0,0,123,299933,6160,3547,7909,1992,2565,358,418,Tag0,unknown
1610201227524,200,-353,-7.75634765625E-5,0,0,123,299933,6160,3547,7909,1992,2565,358,418,Tag0,unknown
1610201227534,200,-195,-4.28466796875E-5,0,0,123,299933,6160,3547,7909,1992,2565,358,418,Tag0,unknown
1610201227550,200,-517,-1.135986328125E-4,0,0,123,299933,6160,3547,7909,1992,2565,358,418,Tag0,unknown
1610201227564,200,-521,-1.1447753906250001E-4,0,0,123,299933,6160,3547,7909,1992,2565,358,418,Tag0,unknown
1610201227574,200,-171,-3.75732421875E-5,0,0,123,299933,6160,3547,7909,1992,2565,358,418,Tag0,unknown
1610201227591,200,-501,-1.100830078125E-4,0,0,123,299933,6160,3547,7909,1992,2565,358,418,Tag0,unknown
1610201227601,200,-482,-1.05908203125E-4,0,0,123,299933,6160,3547,7909,1992,2565,358,418,Tag0,unknown
1610201227623,200,-423,-9.29443359375E-5,0,0,123,299933,6160,3547,7909,1992,2565,358,418,Tag0,unknown
1610201227633,200,-409,-8.986816406250001E-5,0,0,123,299933,6160,3547,7909,1992,2565,358,418,Tag0,unknown
1610201227649,200,-594,-1.3051757812500002E-4,0,0,123,299933,6160,3547,7909,1992,2565,358,418,Tag0,unknown
1610201227659,200,-161,-3.53759765625E-5,0,0,123,299933,6160,3547,7909,1992,2565,358,418,Tag0,unknown
1610201227673,200,-130,-2.8564453125E-5,0,0,123,299933,6160,3547,7909,1992,2565,358,418,Tag0,unknown
1610201227683,200,-328,-7.207031249999999E-5,0,0,123,299933,6160,3547,7909,1992,2565,358,418,Tag0,unknown
1610201227698,200,-85,-1.86767578125E-5,0,0,123,299933,6160,3547,7909,1992,2565,358,418,Tag0,unknown
1610201227715,200,273,5.998535156250001E-5,0,0,123,299933,6160,3547,7909,1992,2565,358,418,Tag0,unknown
1610201227743,200,359,7.88818359375E-5,0,0,123,299933,6160,3547,7909,1992,2565,358,418,Tag0,unknown
1610201227753,200,251,5.5151367187500004E-5,0,0,123,299933,6160,3547,7909,1992,2565,358,418,Tag0,unknown
1610201227764,200,187,4.10888671875E-5,0,0,123,299933,6160,3547,7909,1992,2565,358,418,Tag0,unknown
1610201227786,200,-456,-1.0019531250000001E-4,0,0,123,299933,6160,3547,7909,1992,2565,358,418,Tag0,unknown
1610201227799,200,-1599,-3.513427734375E-4,0,0,123,299933,6160,3547,7909,1992,2565,358,418,Tag0,unknown
1610201227815,200,267,5.86669921875E-5,0,0,123,299933,6160,3547,7909,1992,2565,358,418,Tag0,unknown
1610201227832,200,-15,-3.2958984375E-6,0,0,123,299933,6160,3547,7909,1992,2565,358,418,Tag0,unknown
1610201227850,200,331,7.272949218750001E-5,0,0,123,299933,6160,3547,7909,1992,2565,358,418,Tag0,unknown
1610201227868,200,307,6.74560546875E-5,0,0,123,964353,577611,145285,69891,16751104,16765823,15213,13906,Tag0,unknown
1610201227893,200,144,3.1640625E-5,0,0,123,964353,577611,145285,69891,16751104,16765823,15213,13906,Tag0,unknown
1610201227903,200,-53,-1.1645507812500002E-5,0,0,123,964353,577611,145285,69891,16751104,16765823,15213,13906,Tag0,unknown
1610201227916,200,33,7.2509765625E-6,0,0,123,964353,577611,145285,69891,16751104,16765823,15213,13906,Tag0,unknown
1610201227931,200,-71,-1.56005859375E-5,0,0,123,964353,577611,145285,69891,16751104,16765823,15213,13906,Tag0,unknown
1610201227958,200,299,6.56982421875E-5,0,0,123,964353,577611,145285,69891,16751104,16765823,15213,13906,Tag0,unknown
1610201227968,200,-60,-1.318359375E-5,0,0,123,964353,577611,145285,69891,16751104,16765823,15213,13906,Tag0,unknown
1610201227983,200,-112,-2.4609375E-5,0,0,123,964353,577611,145285,69891,16751104,16765823,15213,13906,Tag0,unknown
1610201227999,200,-5,-1.0986328125E-6,0,0,123,964353,577611,145285,69891,16751104,16765823,15213,13906,Tag0,unknown
1610201228016,200,-37,-8.1298828125E-6,0,0,123,964353,577611,145285,69891,16751104,16765823,15213,13906,Tag0,unknown
1610201228042,200,-69,-1.51611328125E-5,0,0,123,964353,577611,145285,69891,16751104,16765823,15213,13906,Tag0,unknown
1610201228053,200,-76,-1.669921875E-5,0,0,123,964353,577611,145285,69891,16751104,16765823,15213,13906,Tag0,unknown
1610201228065,200,-123,-2.70263671875E-5,0,0,123,964353,577611,145285,69891,16751104,16765823,15213,13906,Tag0,unknown
1610201228083,200,115,2.52685546875E-5,0,0,123,964353,577611,145285,69891,16751104,16765823,15213,13906,Tag0,unknown
1610201228098,200,116,2.548828125E-5,0,0,123,964353,577611,145285,69891,16751104,16765823,15213,13906,Tag0,unknown
1610201228117,200,102,2.2412109374999998E-5,0,0,123,964353,577611,145285,69891,16751104,16765823,15213,13906,Tag0,unknown
1610201228131,200,123,2.70263671875E-5,0,0,123,964353,577611,145285,69891,16751104,16765823,15213,13906,Tag0,unknown
1610201228151,200,-9,-1.9775390625E-6,0,0,123,964353,577611,145285,69891,16751104,16765823,15213,13906,Tag0,unknown
1610201228165,200,-4,-8.7890625E-7,0,0,123,964353,577611,145285,69891,16751104,16765823,15213,13906,Tag0,unknown
1610201228175,200,33,7.2509765625E-6,0,0,123,964353,577611,145285,69891,16751104,16765823,15213,13906,Tag0,unknown
1610201228187,200,106,2.3291015625000003E-5,0,0,123,964353,577611,145285,69891,16751104,16765823,15213,13906,Tag0,unknown
1610201228199,200,109,2.39501953125E-5,0,0,123,964353,577611,145285,69891,16751104,16765823,15213,13906,Tag0,unknown
1610201228239,200,-310,-6.8115234375E-5,0,0,123,964353,577611,145285,69891,16751104,16765823,15213,13906,Tag0,unknown
1610201228249,200,-265,-5.82275390625E-5,0,0,123,964353,577611,145285,69891,16751104,16765823,15213,13906,Tag0,unknown
1610201228259,200,-343,-7.53662109375E-5,0,0,123,964353,577611,145285,69891,16751104,16765823,15213,13906,Tag0,unknown
1610201228269,200,25,5.4931640625E-6,0,0,123,964353,577611,145285,69891,16751104,16765823,15213,13906,Tag0,unknown
1610201228288,200,82,1.8017578124999998E-5,0,0,123,964353,577611,145285,69891,16751104,16765823,15213,13906,Tag0,unknown
1610201228299,200,100,2.197265625E-5,0,0,123,964353,577611,145285,69891,16751104,16765823,15213,13906,Tag0,unknown
1610201228320,200,70,1.5380859375E-5,0,0,123,964353,577611,145285,69891,16751104,16765823,15213,13906,Tag0,unknown
1610201228332,200,64,1.40625E-5,0,0,123,964353,577611,145285,69891,16751104,16765823,15213,13906,Tag0,unknown
1610201228349,200,278,6.108398437500001E-5,0,0,123,964353,577611,145285,69891,16751104,16765823,15213,13906,Tag0,unknown
1610201228370,200,-77,-1.69189453125E-5,0,0,123,964353,577611,145285,69891,16751104,16765823,15213,13906,Tag0,unknown
1610201228381,200,-124,-2.724609375E-5,0,0,123,964353,577611,145285,69891,16751104,16765823,15213,13906,Tag0,unknown
1610201228391,200,-268,-5.8886718750000006E-5,0,0,123,964353,577611,145285,69891,16751104,16765823,15213,13906,Tag0,unknown
1610201228407,200,99,2.1752929687500003E-5,0,0,123,964353,577611,145285,69891,16751104,16765823,15213,13906,Tag0,unknown
1610201228417,200,-69,-1.51611328125E-5,0,0,123,964353,577611,145285,69891,16751104,16765823,15213,13906,Tag0,unknown
1610201228450,200,-111,-2.43896484375E-5,0,0,123,964353,577611,145285,69891,16751104,16765823,15213,13906,Tag0,unknown
1610201228464,200,-122,-2.6806640625E-5,0,0,123,964353,577611,145285,69891,16751104,16765823,15213,13906,Tag0,unknown
1610201228474,200,-333,-7.316894531249999E-5,0,0,123,964353,577611,145285,69891,16751104,16765823,15213,13906,Tag0,unknown
1610201228486,200,-373,-8.19580078125E-5,0,0,123,964353,577611,145285,69891,16751104,16765823,15213,13906,Tag0,unknown
1610201228498,200,-373,-8.19580078125E-5,0,0,123,964353,577611,145285,69891,16751104,16765823,15213,13906,Tag0,unknown
1610201228515,200,-356,-7.822265625E-5,0,0,123,964353,577611,145285,69891,16751104,16765823,15213,13906,Tag0,unknown
1610201228531,200,9,1.9775390625E-6,0,0,123,964353,577611,145285,69891,16751104,16765823,15213,13906,Tag0,unknown
1610201228556,200,53,1.1645507812500002E-5,0,0,123,964353,577611,145285,69891,16751104,16765823,15213,13906,Tag0,unknown
1610201228566,200,84,1.8457031250000004E-5,0,0,123,964353,577611,145285,69891,16751104,16765823,15213,13906,Tag0,unknown
1610201228597,200,-137,-3.0102539062499998E-5,0,0,123,964353,577611,145285,69891,16751104,16765823,15213,13906,Tag0,unknown
1610201228615,200,-356,-7.822265625E-5,0,0,123,964353,577611,145285,69891,16751104,16765823,15213,13906,Tag0,unknown
1610201228625,200,82,1.8017578124999998E-5,0,0,123,964353,577611,145285,69891,16751104,16765823,15213,13906,Tag0,unknown
1610201228638,200,113,2.48291015625E-5,0,0,123,964353,577611,145285,69891,16751104,16765823,15213,13906,Tag0,unknown
1610201228649,200,116,2.548828125E-5,0,0,123,964353,577611,145285,69891,16751104,16765823,15213,13906,Tag0,unknown
1610201228665,200,107,2.35107421875E-5,0,0,123,964353,577611,145285,69891,16751104,16765823,15213,13906,Tag0,unknown
1610201228682,200,-300,-6.591796875E-5,0,0,123,964353,577611,145285,69891,16751104,16765823,15213,13906,Tag0,unknown
1610201228712,200,-157,-3.44970703125E-5,0,0,123,964353,577611,145285,69891,16751104,16765823,15213,13906,Tag0,unknown
1610201228732,200,34,7.4707031250000005E-6,0,0,123,964353,577611,145285,69891,16751104,16765823,15213,13906,Tag0,unknown
1610201228750,200,-119,-2.6147460937500004E-5,0,0,123,964353,577611,145285,69891,16751104,16765823,15213,13906,Tag0,unknown
1610201228765,200,-73,-1.6040039062500002E-5,0,0,123,964353,577611,145285,69891,16751104,16765823,15213,13906,Tag0,unknown
1610201228783,200,-361,-7.93212890625E-5,0,0,123,964353,577611,145285,69891,16751104,16765823,15213,13906,Tag0,unknown
1610201228798,200,-321,-7.053222656250001E-5,0,0,123,964353,577611,145285,69891,16751104,16765823,15213,13906,Tag0,unknown
1610201228826,200,71,1.56005859375E-5,0,0,123,964353,577611,145285,69891,16751104,16765823,15213,13906,Tag0,unknown
1610201228836,200,-38,-8.349609375E-6,0,0,123,964353,577611,145285,69891,16751104,16765823,15213,13906,Tag0,unknown
1610201228848,200,-11,-2.4169921875E-6,0,0,123,964353,577611,145285,69891,16751104,16765823,15213,13906,Tag0,unknown
1610201228867,200,103,2.26318359375E-5,0,0,123,504289,29937,5199,8152,5312,2157,1792,2101,Tag0,unknown
1610201228897,200,-110,-2.4169921875E-5,0,0,123,504289,29937,5199,8152,5312,2157,1792,2101,Tag0,unknown
1610201228915,200,-89,-1.95556640625E-5,0,0,123,504289,29937,5199,8152,5312,2157,1792,2101,Tag0,unknown
1610201228925,200,-257,-5.64697265625E-5,0,0,123,504289,29937,5199,8152,5312,2157,1792,2101,Tag0,unknown
1610201228940,200,-269,-5.9106445312499996E-5,0,0,123,504289,29937,5199,8152,5312,2157,1792,2101,Tag0,unknown
1610201228950,200,-325,-7.14111328125E-5,0,0,123,504289,29937,5199,8152,5312,2157,1792,2101,Tag0,unknown
1610201228965,200,-292,-6.416015625000001E-5,0,0,123,504289,29937,5199,8152,5312,2157,1792,2101,Tag0,unknown
1610201228983,200,122,2.6806640625E-5,0,0,123,504289,29937,5199,8152,5312,2157,1792,2101,Tag0,unknown
1610201228998,200,104,2.28515625E-5,0,0,123,504289,29937,5199,8152,5312,2157,1792,2101,Tag0,unknown
1610201229016,200,6,1.318359375E-6,0,0,123,504289,29937,5199,8152,5312,2157,1792,2101,Tag0,unknown
1610201229031,200,-277,-6.0864257812500005E-5,0,0,123,504289,29937,5199,8152,5312,2157,1792,2101,Tag0,unknown
1610201229053,200,-259,-5.69091796875E-5,0,0,123,504289,29937,5199,8152,5312,2157,1792,2101,Tag0,unknown
1610201229065,200,41,9.008789062499999E-6,0,0,123,504289,29937,5199,8152,5312,2157,1792,2101,Tag0,unknown
1610201229093,200,59,1.29638671875E-5,0,0,123,504289,29937,5199,8152,5312,2157,1792,2101,Tag0,unknown
1610201229103,200,-64,-1.40625E-5,0,0,123,504289,29937,5199,8152,5312,2157,1792,2101,Tag0,unknown
1610201229116,200,-75,-1.64794921875E-5,0,0,123,504289,29937,5199,8152,5312,2157,1792,2101,Tag0,unknown
1610201229131,200,13,2.8564453125E-6,0,0,123,504289,29937,5199,8152,5312,2157,1792,2101,Tag0,unknown
1610201229148,200,75,1.64794921875E-5,0,0,123,504289,29937,5199,8152,5312,2157,1792,2101,Tag0,unknown
1610201229158,200,-59,-1.29638671875E-5,0,0,123,504289,29937,5199,8152,5312,2157,1792,2101,Tag0,unknown
1610201229172,200,-51,-1.1206054687499999E-5,0,0,123,504289,29937,5199,8152,5312,2157,1792,2101,Tag0,unknown
1610201229182,200,-69,-1.51611328125E-5,0,0,123,504289,29937,5199,8152,5312,2157,1792,2101,Tag0,unknown
1610201229222,200,-87,-1.91162109375E-5,0,0,123,504289,29937,5199,8152,5312,2157,1792,2101,Tag0,unknown
1610201229232,200,-7,-1.5380859375E-6,0,0,123,504289,29937,5199,8152,5312,2157,1792,2101,Tag0,unknown
1610201229272,200,89,1.95556640625E-5,0,0,123,504289,29937,5199,8152,5312,2157,1792,2101,Tag0,unknown
1610201229282,200,115,2.52685546875E-5,0,0,123,504289,29937,5199,8152,5312,2157,1792,2101,Tag0,unknown
1610201229309,200,27,5.9326171875000005E-6,0,0,123,504289,29937,5199,8152,5312,2157,1792,2101,Tag0,unknown
1610201229319,200,65,1.42822265625E-5,0,0,123,504289,29937,5199,8152,5312,2157,1792,2101,Tag0,unknown
1610201229332,200,-282,-6.1962890625E-5,0,0,123,504289,29937,5199,8152,5312,2157,1792,2101,Tag0,unknown
1610201229349,200,24,5.2734375E-6,0,0,123,504289,29937,5199,8152,5312,2157,1792,2101,Tag0,unknown
1610201229366,200,96,2.109375E-5,0,0,123,504289,29937,5199,8152,5312,2157,1792,2101,Tag0,unknown
1610201229386,200,-127,-2.79052734375E-5,0,0,123,504289,29937,5199,8152,5312,2157,1792,2101,Tag0,unknown
1610201229399,200,89,1.95556640625E-5,0,0,123,504289,29937,5199,8152,5312,2157,1792,2101,Tag0,unknown
1610201229422,200,104,2.28515625E-5,0,0,123,504289,29937,5199,8152,5312,2157,1792,2101,Tag0,unknown
1610201229432,200,-111,-2.43896484375E-5,0,0,123,504289,29937,5199,8152,5312,2157,1792,2101,Tag0,unknown
1610201229459,200,-59,-1.29638671875E-5,0,0,123,504289,29937,5199,8152,5312,2157,1792,2101,Tag0,unknown
1610201229469,200,-269,-5.9106445312499996E-5,0,0,123,504289,29937,5199,8152,5312,2157,1792,2101,Tag0,unknown
1610201229482,200,-310,-6.8115234375E-5,0,0,123,504289,29937,5199,8152,5312,2157,1792,2101,Tag0,unknown
1610201229500,200,71,1.56005859375E-5,0,0,123,504289,29937,5199,8152,5312,2157,1792,2101,Tag0,unknown
1610201229517,200,-127,-2.79052734375E-5,0,0,123,504289,29937,5199,8152,5312,2157,1792,2101,Tag0,unknown
1610201229549,200,-85,-1.86767578125E-5,0,0,123,504289,29937,5199,8152,5312,2157,1792,2101,Tag0,unknown
1610201229566,200,-77,-1.69189453125E-5,0,0,123,504289,29937,5199,8152,5312,2157,1792,2101,Tag0,unknown
1610201229576,200,-127,-2.79052734375E-5,0,0,123,504289,29937,5199,8152,5312,2157,1792,2101,Tag0,unknown
1610201229588,200,-44,-9.66796875E-6,0,0,123,504289,29937,5199,8152,5312,2157,1792,2101,Tag0,unknown
1610201229600,200,-31,-6.8115234375E-6,0,0,123,504289,29937,5199,8152,5312,2157,1792,2101,Tag0,unknown
1610201229623,200,85,1.86767578125E-5,0,0,123,504289,29937,5199,8152,5312,2157,1792,2101,Tag0,unknown
1610201229633,200,109,2.39501953125E-5,0,0,123,504289,29937,5199,8152,5312,2157,1792,2101,Tag0,unknown
1610201229649,200,-343,-7.53662109375E-5,0,0,123,504289,29937,5199,8152,5312,2157,1792,2101,Tag0,unknown
1610201229668,200,-279,-6.13037109375E-5,0,0,123,504289,29937,5199,8152,5312,2157,1792,2101,Tag0,unknown
1610201229682,200,16,3.515625E-6,0,0,123,504289,29937,5199,8152,5312,2157,1792,2101,Tag0,unknown
1610201229692,200,-297,-6.525878906250001E-5,0,0,123,504289,29937,5199,8152,5312,2157,1792,2101,Tag0,unknown
1610201229722,200,29,6.3720703125E-6,0,0,123,504289,29937,5199,8152,5312,2157,1792,2101,Tag0,unknown
1610201229732,200,-266,-5.8447265625E-5,0,0,123,504289,29937,5199,8152,5312,2157,1792,2101,Tag0,unknown
1610201229742,200,37,8.1298828125E-6,0,0,123,504289,29937,5199,8152,5312,2157,1792,2101,Tag0,unknown
1610201229758,200,102,2.2412109374999998E-5,0,0,123,504289,29937,5199,8152,5312,2157,1792,2101,Tag0,unknown
1610201229768,200,-276,-6.064453125E-5,0,0,123,504289,29937,5199,8152,5312,2157,1792,2101,Tag0,unknown
1610201229800,200,-182,-3.9990234375E-5,0,0,123,504289,29937,5199,8152,5312,2157,1792,2101,Tag0,unknown
1610201229818,200,-201,-4.41650390625E-5,0,0,123,504289,29937,5199,8152,5312,2157,1792,2101,Tag0,unknown
1610201229828,200,-289,-6.35009765625E-5,0,0,123,504289,29937,5199,8152,5312,2157,1792,2101,Tag0,unknown
1610201229841,200,-58,-1.2744140625E-5,0,0,123,504289,29937,5199,8152,5312,2157,1792,2101,Tag0,unknown
1610201229851,200,-59,-1.29638671875E-5,0,0,123,504289,29937,5199,8152,5312,2157,1792,2101,Tag0,unknown
1610201229869,200,-93,-2.04345703125E-5,0,0,123,99414,78819,16745857,16613,15080,14302,6806,2514,Tag0,unknown
1610201229882,200,-120,-2.63671875E-5,0,0,123,99414,78819,16745857,16613,15080,14302,6806,2514,Tag0,unknown
1610201229910,200,2,4.39453125E-7,0,0,123,99414,78819,16745857,16613,15080,14302,6806,2514,Tag0,unknown
1610201229932,200,-281,-6.17431640625E-5,0,0,123,99414,78819,16745857,16613,15080,14302,6806,2514,Tag0,unknown
1610201229950,200,-296,-6.50390625E-5,0,0,123,99414,78819,16745857,16613,15080,14302,6806,2514,Tag0,unknown
1610201229965,200,-330,-7.2509765625E-5,0,0,123,99414,78819,16745857,16613,15080,14302,6806,2514,Tag0,unknown
1610201229984,200,21,4.614257812500001E-6,0,0,123,99414,78819,16745857,16613,15080,14302,6806,2514,Tag0,unknown
1610201229999,200,53,1.1645507812500002E-5,0,0,123,99414,78819,16745857,16613,15080,14302,6806,2514,Tag0,unknown
1610201230009,200,107,2.35107421875E-5,0,0,123,99414,78819,16745857,16613,15080,14302,6806,2514,Tag0,unknown
1610201230022,200,86,1.8896484375000003E-5,0,0,123,99414,78819,16745857,16613,15080,14302,6806,2514,Tag0,unknown
1610201230032,200,73,1.6040039062500002E-5,0,0,123,99414,78819,16745857,16613,15080,14302,6806,2514,Tag0,unknown
1610201230059,200,-310,-6.8115234375E-5,0,0,123,99414,78819,16745857,16613,15080,14302,6806,2514,Tag0,unknown
1610201230069,200,-315,-6.92138671875E-5,0,0,123,99414,78819,16745857,16613,15080,14302,6806,2514,Tag0,unknown
1610201230082,200,20,4.39453125E-6,0,0,123,99414,78819,16745857,16613,15080,14302,6806,2514,Tag0,unknown
1610201230112,200,96,2.109375E-5,0,0,123,99414,78819,16745857,16613,15080,14302,6806,2514,Tag0,unknown
1610201230122,200,67,1.4721679687500002E-5,0,0,123,99414,78819,16745857,16613,15080,14302,6806,2514,Tag0,unknown
1610201230133,200,42,9.228515625000002E-6,0,0,123,99414,78819,16745857,16613,15080,14302,6806,2514,Tag0,unknown
1610201230149,200,-51,-1.1206054687499999E-5,0,0,123,99414,78819,16745857,16613,15080,14302,6806,2514,Tag0,unknown
1610201230165,200,-20,-4.39453125E-6,0,0,123,99414,78819,16745857,16613,15080,14302,6806,2514,Tag0,unknown
1610201230193,200,-79,-1.7358398437500003E-5,0,0,123,99414,78819,16745857,16613,15080,14302,6806,2514,Tag0,unknown
1610201230203,200,122,2.6806640625E-5,0,0,123,99414,78819,16745857,16613,15080,14302,6806,2514,Tag0,unknown
1610201230215,200,-315,-6.92138671875E-5,0,0,123,99414,78819,16745857,16613,15080,14302,6806,2514,Tag0,unknown
1610201230242,200,-93,-2.04345703125E-5,0,0,123,99414,78819,16745857,16613,15080,14302,6806,2514,Tag0,unknown
1610201230252,200,-265,-5.82275390625E-5,0,0,123,99414,78819,16745857,16613,15080,14302,6806,2514,Tag0,unknown
1610201230265,200,32,7.03125E-6,0,0,123,99414,78819,16745857,16613,15080,14302,6806,2514,Tag0,unknown
1610201230283,200,124,2.724609375E-5,0,0,123,99414,78819,16745857,16613,15080,14302,6806,2514,Tag0,unknown
1610201230298,200,-118,-2.5927734375E-5,0,0,123,99414,78819,16745857,16613,15080,14302,6806,2514,Tag0,unknown
1610201230325,200,5,1.0986328125E-6,0,0,123,99414,78819,16745857,16613,15080,14302,6806,2514,Tag0,unknown
1610201230335,200,100,2.197265625E-5,0,0,123,99414,78819,16745857,16613,15080,14302,6806,2514,Tag0,unknown
1610201230349,200,-314,-6.8994140625E-5,0,0,123,99414,78819,16745857,16613,15080,14302,6806,2514,Tag0,unknown
1610201230367,200,-279,-6.13037109375E-5,0,0,123,99414,78819,16745857,16613,15080,14302,6806,2514,Tag0,unknown
1610201230381,200,119,2.6147460937500004E-5,0,0,123,99414,78819,16745857,16613,15080,14302,6806,2514,Tag0,unknown
1610201230391,200,265,5.82275390625E-5,0,0,123,99414,78819,16745857,16613,15080,14302,6806,2514,Tag0,unknown
1610201230415,200,117,2.5708007812499998E-5,0,0,123,99414,78819,16745857,16613,15080,14302,6806,2514,Tag0,unknown
1610201230431,200,-57,-1.2524414062500001E-5,0,0,123,99414,78819,16745857,16613,15080,14302,6806,2514,Tag0,unknown
1610201230452,200,124,2.724609375E-5,0,0,123,99414,78819,16745857,16613,15080,14302,6806,2514,Tag0,unknown
1610201230466,200,-128,-2.8125E-5,0,0,123,99414,78819,16745857,16613,15080,14302,6806,2514,Tag0,unknown
1610201230482,200,80,1.7578125E-5,0,0,123,99414,78819,16745857,16613,15080,14302,6806,2514,Tag0,unknown
1610201230506,200,-261,-5.73486328125E-5,0,0,123,99414,78819,16745857,16613,15080,14302,6806,2514,Tag0,unknown
1610201230517,200,-289,-6.35009765625E-5,0,0,123,99414,78819,16745857,16613,15080,14302,6806,2514,Tag0,unknown
1610201230532,200,-143,-3.14208984375E-5,0,0,123,99414,78819,16745857,16613,15080,14302,6806,2514,Tag0,unknown
1610201230552,200,-184,-4.04296875E-5,0,0,123,99414,78819,16745857,16613,15080,14302,6806,2514,Tag0,unknown
1610201230565,200,-179,-3.93310546875E-5,0,0,123,99414,78819,16745857,16613,15080,14302,6806,2514,Tag0,unknown
1610201230589,200,-211,-4.63623046875E-5,0,0,123,99414,78819,16745857,16613,15080,14302,6806,2514,Tag0,unknown
1610201230599,200,-253,-5.55908203125E-5,0,0,123,99414,78819,16745857,16613,15080,14302,6806,2514,Tag0,unknown
1610201230615,200,0,0.0,0,0,123,99414,78819,16745857,16613,15080,14302,6806,2514,Tag0,unknown
1610201230633,200,-105,-2.30712890625E-5,0,0,123,99414,78819,16745857,16613,15080,14302,6806,2514,Tag0,unknown
1610201230650,200,265,5.82275390625E-5,0,0,123,99414,78819,16745857,16613,15080,14302,6806,2514,Tag0,unknown
1610201230698,200,293,6.43798828125E-5,0,0,123,99414,78819,16745857,16613,15080,14302,6806,2514,Tag0,unknown
1610201230715,200,-24,-5.2734375E-6,0,0,123,99414,78819,16745857,16613,15080,14302,6806,2514,Tag0,unknown
1610201230725,200,-210,-4.6142578125E-5,0,0,123,99414,78819,16745857,16613,15080,14302,6806,2514,Tag0,unknown
1610201230748,200,-153,-3.3618164062500004E-5,0,0,123,99414,78819,16745857,16613,15080,14302,6806,2514,Tag0,unknown
1610201230772,200,-156,-3.427734375E-5,0,0,123,99414,78819,16745857,16613,15080,14302,6806,2514,Tag0,unknown
1610201230782,200,-347,-7.62451171875E-5,0,0,123,99414,78819,16745857,16613,15080,14302,6806,2514,Tag0,unknown
1610201230813,200,119,2.6147460937500004E-5,0,0,123,99414,78819,16745857,16613,15080,14302,6806,2514,Tag0,unknown
1610201230832,200,82,1.8017578124999998E-5,0,0,123,99414,78819,16745857,16613,15080,14302,6806,2514,Tag0,unknown
1610201230856,200,-69,-1.51611328125E-5,0,0,123,99414,78819,16745857,16613,15080,14302,6806,2514,Tag0,unknown
1610201230866,200,-19,-4.1748046875E-6,0,0,123,99414,78819,16745857,16613,15080,14302,6806,2514,Tag0,unknown
1610201230896,200,135,2.96630859375E-5,0,0,123,424047,16753399,15427,3733,18521,13615,4442,2608,Tag0,unknown
1610201230915,200,130,2.8564453125E-5,0,0,123,424047,16753399,15427,3733,18521,13615,4442,2608,Tag0,unknown
1610201230925,200,-94,-2.0654296875000002E-5,0,0,123,424047,16753399,15427,3733,18521,13615,4442,2608,Tag0,unknown
1610201230935,200,214,4.7021484375E-5,0,0,123,424047,16753399,15427,3733,18521,13615,4442,2608,Tag0,unknown
1610201230967,200,311,6.833496093750001E-5,0,0,123,424047,16753399,15427,3733,18521,13615,4442,2608,Tag0,unknown
1610201230983,200,-21,-4.614257812500001E-6,0,0,123,424047,16753399,15427,3733,18521,13615,4442,2608,Tag0,unknown
1610201230993,200,-265,-5.82275390625E-5,0,0,123,424047,16753399,15427,3733,18521,13615,4442,2608,Tag0,unknown
1610201231026,200,-577,-1.2678222656250002E-4,0,0,123,424047,16753399,15427,3733,18521,13615,4442,2608,Tag0,unknown
1610201231049,200,-550,-1.20849609375E-4,0,0,123,424047,16753399,15427,3733,18521,13615,4442,2608,Tag0,unknown
1610201231059,200,-809,-1.777587890625E-4,0,0,123,424047,16753399,15427,3733,18521,13615,4442,2608,Tag0,unknown
1610201231074,200,-522,-1.14697265625E-4,0,0,123,424047,16753399,15427,3733,18521,13615,4442,2608,Tag0,unknown
1610201231085,200,13,2.8564453125E-6,0,0,123,424047,16753399,15427,3733,18521,13615,4442,2608,Tag0,unknown
1610201231095,200,291,6.39404296875E-5,0,0,123,424047,16753399,15427,3733,18521,13615,4442,2608,Tag0,unknown
1610201231122,200,615,1.351318359375E-4,0,0,123,424047,16753399,15427,3733,18521,13615,4442,2608,Tag0,unknown
1610201231133,200,385,8.45947265625E-5,0,0,123,424047,16753399,15427,3733,18521,13615,4442,2608,Tag0,unknown
1610201231143,200,417,9.16259765625E-5,0,0,123,424047,16753399,15427,3733,18521,13615,4442,2608,Tag0,unknown
1610201231177,200,585,1.285400390625E-4,0,0,123,424047,16753399,15427,3733,18521,13615,4442,2608,Tag0,unknown
1610201231199,200,521,1.1447753906250001E-4,0,0,123,424047,16753399,15427,3733,18521,13615,4442,2608,Tag0,unknown
1610201231209,200,-215,-4.72412109375E-5,0,0,123,424047,16753399,15427,3733,18521,13615,4442,2608,Tag0,unknown
1610201231225,200,-604,-1.3271484375E-4,0,0,123,424047,16753399,15427,3733,18521,13615,4442,2608,Tag0,unknown
1610201231235,200,-529,-1.162353515625E-4,0,0,123,424047,16753399,15427,3733,18521,13615,4442,2608,Tag0,unknown
1610201231249,200,-481,-1.056884765625E-4,0,0,123,424047,16753399,15427,3733,18521,13615,4442,2608,Tag0,unknown
1610201231276,200,-150,-3.2958984375E-5,0,0,123,424047,16753399,15427,3733,18521,13615,4442,2608,Tag0,unknown
1610201231286,200,-364,-7.998046875E-5,0,0,123,424047,16753399,15427,3733,18521,13615,4442,2608,Tag0,unknown
1610201231299,200,-549,-1.2062988281250001E-4,0,0,123,424047,16753399,15427,3733,18521,13615,4442,2608,Tag0,unknown
1610201231316,200,-517,-1.135986328125E-4,0,0,123,424047,16753399,15427,3733,18521,13615,4442,2608,Tag0,unknown
1610201231335,200,269,5.9106445312499996E-5,0,0,123,424047,16753399,15427,3733,18521,13615,4442,2608,Tag0,unknown
1610201231350,200,-26,-5.712890625E-6,0,0,123,424047,16753399,15427,3733,18521,13615,4442,2608,Tag0,unknown
1610201231376,200,-289,-6.35009765625E-5,0,0,123,424047,16753399,15427,3733,18521,13615,4442,2608,Tag0,unknown
1610201231386,200,48,1.0546875E-5,0,0,123,424047,16753399,15427,3733,18521,13615,4442,2608,Tag0,unknown
1610201231399,200,-193,-4.2407226562500005E-5,0,0,123,424047,16753399,15427,3733,18521,13615,4442,2608,Tag0,unknown
1610201231419,200,5,1.0986328125E-6,0,0,123,424047,16753399,15427,3733,18521,13615,4442,2608,Tag0,unknown
1610201231432,200,9,1.9775390625E-6,0,0,123,424047,16753399,15427,3733,18521,13615,4442,2608,Tag0,unknown
1610201231453,200,-310,-6.8115234375E-5,0,0,123,424047,16753399,15427,3733,18521,13615,4442,2608,Tag0,unknown
1610201231466,200,-355,-7.80029296875E-5,0,0,123,424047,16753399,15427,3733,18521,13615,4442,2608,Tag0,unknown
1610201231476,200,267,5.86669921875E-5,0,0,123,424047,16753399,15427,3733,18521,13615,4442,2608,Tag0,unknown
1610201231499,200,257,5.64697265625E-5,0,0,123,424047,16753399,15427,3733,18521,13615,4442,2608,Tag0,unknown
1610201231515,200,263,5.7788085937500005E-5,0,0,123,424047,16753399,15427,3733,18521,13615,4442,2608,Tag0,unknown
1610201231525,200,-125,-2.74658203125E-5,0,0,123,424047,16753399,15427,3733,18521,13615,4442,2608,Tag0,unknown
1610201231545,200,-73,-1.6040039062500002E-5,0,0,123,424047,16753399,15427,3733,18521,13615,4442,2608,Tag0,unknown
1610201231565,200,260,5.712890625E-5,0,0,123,424047,16753399,15427,3733,18521,13615,4442,2608,Tag0,unknown
1610201231599,200,105,2.30712890625E-5,0,0,123,424047,16753399,15427,3733,18521,13615,4442,2608,Tag0,unknown
1610201231618,200,71,1.56005859375E-5,0,0,123,424047,16753399,15427,3733,18521,13615,4442,2608,Tag0,unknown
1610201231628,200,108,2.3730468750000002E-5,0,0,123,424047,16753399,15427,3733,18521,13615,4442,2608,Tag0,unknown
1610201231638,200,355,7.80029296875E-5,0,0,123,424047,16753399,15427,3733,18521,13615,4442,2608,Tag0,unknown
1610201231650,200,585,1.285400390625E-4,0,0,123,424047,16753399,15427,3733,18521,13615,4442,2608,Tag0,unknown
1610201231665,200,375,8.23974609375E-5,0,0,123,424047,16753399,15427,3733,18521,13615,4442,2608,Tag0,unknown
1610201231682,200,478,1.0502929687499999E-4,0,0,123,424047,16753399,15427,3733,18521,13615,4442,2608,Tag0,unknown
1610201231759,200,413,9.07470703125E-5,0,0,123,424047,16753399,15427,3733,18521,13615,4442,2608,Tag0,unknown
1610201231782,200,437,9.602050781250001E-5,0,0,123,424047,16753399,15427,3733,18521,13615,4442,2608,Tag0,unknown
1610201231792,200,419,9.206542968750001E-5,0,0,123,424047,16753399,15427,3733,18521,13615,4442,2608,Tag0,unknown
1610201231824,200,-660,-1.4501953125E-4,0,0,123,424047,16753399,15427,3733,18521,13615,4442,2608,Tag0,unknown
1610201231834,200,-683,-1.500732421875E-4,0,0,123,424047,16753399,15427,3733,18521,13615,4442,2608,Tag0,unknown
1610201231871,200,-683,-1.500732421875E-4,0,0,123,854040,62871,97788,23131,20057,16755923,21778,8915,Tag0,unknown
1610201231882,200,-842,-1.85009765625E-4,0,0,123,854040,62871,97788,23131,20057,16755923,21778,8915,Tag0,unknown
1610201231899,200,-813,-1.786376953125E-4,0,0,123,854040,62871,97788,23131,20057,16755923,21778,8915,Tag0,unknown
1610201231915,200,-469,-1.0305175781250001E-4,0,0,123,854040,62871,97788,23131,20057,16755923,21778,8915,Tag0,unknown
1610201231936,200,-856,-1.880859375E-4,0,0,123,854040,62871,97788,23131,20057,16755923,21778,8915,Tag0,unknown
1610201231949,200,-669,-1.469970703125E-4,0,0,123,854040,62871,97788,23131,20057,16755923,21778,8915,Tag0,unknown
1610201231959,200,-866,-1.90283203125E-4,0,0,123,854040,62871,97788,23131,20057,16755923,21778,8915,Tag0,unknown
1610201231978,200,-509,-1.118408203125E-4,0,0,123,854040,62871,97788,23131,20057,16755923,21778,8915,Tag0,unknown
1610201231999,200,101,2.2192382812500002E-5,0,0,123,854040,62871,97788,23131,20057,16755923,21778,8915,Tag0,unknown
1610201232020,200,231,5.07568359375E-5,0,0,123,854040,62871,97788,23131,20057,16755923,21778,8915,Tag0,unknown
1610201232033,200,616,1.353515625E-4,0,0,123,854040,62871,97788,23131,20057,16755923,21778,8915,Tag0,unknown
1610201232057,200,494,1.08544921875E-4,0,0,123,854040,62871,97788,23131,20057,16755923,21778,8915,Tag0,unknown
1610201232067,200,888,1.951171875E-4,0,0,123,854040,62871,97788,23131,20057,16755923,21778,8915,Tag0,unknown
1610201232078,200,261,5.73486328125E-5,0,0,123,854040,62871,97788,23131,20057,16755923,21778,8915,Tag0,unknown
1610201232101,200,-39,-8.5693359375E-6,0,0,123,854040,62871,97788,23131,20057,16755923,21778,8915,Tag0,unknown
1610201232116,200,-118,-2.5927734375E-5,0,0,123,854040,62871,97788,23131,20057,16755923,21778,8915,Tag0,unknown
1610201232126,200,-311,-6.833496093750001E-5,0,0,123,854040,62871,97788,23131,20057,16755923,21778,8915,Tag0,unknown
1610201232148,200,-337,-7.40478515625E-5,0,0,123,854040,62871,97788,23131,20057,16755923,21778,8915,Tag0,unknown
1610201232166,200,-197,-4.32861328125E-5,0,0,123,854040,62871,97788,23131,20057,16755923,21778,8915,Tag0,unknown
1610201232176,200,19,4.1748046875E-6,0,0,123,854040,62871,97788,23131,20057,16755923,21778,8915,Tag0,unknown
1610201232200,200,17,3.7353515625000003E-6,0,0,123,854040,62871,97788,23131,20057,16755923,21778,8915,Tag0,unknown
1610201232215,200,-262,-5.7568359375E-5,0,0,123,854040,62871,97788,23131,20057,16755923,21778,8915,Tag0,unknown
1610201232225,200,-260,-5.712890625E-5,0,0,123,854040,62871,97788,23131,20057,16755923,21778,8915,Tag0,unknown
1610201232238,200,102,2.2412109374999998E-5,0,0,123,854040,62871,97788,23131,20057,16755923,21778,8915,Tag0,unknown
1610201232249,200,-59,-1.29638671875E-5,0,0,123,854040,62871,97788,23131,20057,16755923,21778,8915,Tag0,unknown
1610201232277,200,117,2.5708007812499998E-5,0,0,123,854040,62871,97788,23131,20057,16755923,21778,8915,Tag0,unknown
1610201232287,200,51,1.1206054687499999E-5,0,0,123,854040,62871,97788,23131,20057,16755923,21778,8915,Tag0,unknown
1610201232299,200,-73,-1.6040039062500002E-5,0,0,123,854040,62871,97788,23131,20057,16755923,21778,8915,Tag0,unknown
1610201232317,200,85,1.86767578125E-5,0,0,123,854040,62871,97788,23131,20057,16755923,21778,8915,Tag0,unknown
1610201232332,200,285,6.26220703125E-5,0,0,123,854040,62871,97788,23131,20057,16755923,21778,8915,Tag0,unknown
1610201232351,200,-46,-1.0107421875E-5,0,0,123,854040,62871,97788,23131,20057,16755923,21778,8915,Tag0,unknown
1610201232365,200,321,7.053222656250001E-5,0,0,123,854040,62871,97788,23131,20057,16755923,21778,8915,Tag0,unknown
1610201232375,200,-513,-1.127197265625E-4,0,0,123,854040,62871,97788,23131,20057,16755923,21778,8915,Tag0,unknown
1610201232387,200,-531,-1.1667480468750001E-4,0,0,123,854040,62871,97788,23131,20057,16755923,21778,8915,Tag0,unknown
1610201232400,200,-548,-1.2041015624999999E-4,0,0,123,854040,62871,97788,23131,20057,16755923,21778,8915,Tag0,unknown
1610201232415,200,-226,-4.9658203125E-5,0,0,123,854040,62871,97788,23131,20057,16755923,21778,8915,Tag0,unknown
1610201232432,200,-297,-6.525878906250001E-5,0,0,123,854040,62871,97788,23131,20057,16755923,21778,8915,Tag0,unknown
1610201232455,200,268,5.8886718750000006E-5,0,0,123,854040,62871,97788,23131,20057,16755923,21778,8915,Tag0,unknown
1610201232465,200,273,5.998535156250001E-5,0,0,123,854040,62871,97788,23131,20057,16755923,21778,8915,Tag0,unknown
1610201232498,200,145,3.18603515625E-5,0,0,123,854040,62871,97788,23131,20057,16755923,21778,8915,Tag0,unknown
1610201232515,200,177,3.8891601562500006E-5,0,0,123,854040,62871,97788,23131,20057,16755923,21778,8915,Tag0,unknown
1610201232536,200,381,8.371582031250001E-5,0,0,123,854040,62871,97788,23131,20057,16755923,21778,8915,Tag0,unknown
1610201232551,200,141,3.09814453125E-5,0,0,123,854040,62871,97788,23131,20057,16755923,21778,8915,Tag0,unknown
1610201232566,200,103,2.26318359375E-5,0,0,123,854040,62871,97788,23131,20057,16755923,21778,8915,Tag0,unknown
1610201232584,200,-125,-2.74658203125E-5,0,0,123,854040,62871,97788,23131,20057,16755923,21778,8915,Tag0,unknown
1610201232599,200,2,4.39453125E-7,0,0,123,854040,62871,97788,23131,20057,16755923,21778,8915,Tag0,unknown
1610201232617,200,70,1.5380859375E-5,0,0,123,854040,62871,97788,23131,20057,16755923,21778,8915,Tag0,unknown
1610201232632,200,-75,-1.64794921875E-5,0,0,123,854040,62871,97788,23131,20057,16755923,21778,8915,Tag0,unknown
1610201232652,200,280,6.15234375E-5,0,0,123,854040,62871,97788,23131,20057,16755923,21778,8915,Tag0,unknown
1610201232666,200,268,5.8886718750000006E-5,0,0,123,854040,62871,97788,23131,20057,16755923,21778,8915,Tag0,unknown
1610201232695,200,370,8.1298828125E-5,0,0,123,854040,62871,97788,23131,20057,16755923,21778,8915,Tag0,unknown
1610201232715,200,145,3.18603515625E-5,0,0,123,854040,62871,97788,23131,20057,16755923,21778,8915,Tag0,unknown
1610201232736,200,18,3.955078125E-6,0,0,123,854040,62871,97788,23131,20057,16755923,21778,8915,Tag0,unknown
1610201232750,200,-279,-6.13037109375E-5,0,0,123,854040,62871,97788,23131,20057,16755923,21778,8915,Tag0,unknown
1610201232777,200,84,1.8457031250000004E-5,0,0,123,854040,62871,97788,23131,20057,16755923,21778,8915,Tag0,unknown
1610201232787,200,52,1.142578125E-5,0,0,123,854040,62871,97788,23131,20057,16755923,21778,8915,Tag0,unknown
1610201232799,200,-277,-6.0864257812500005E-5,0,0,123,854040,62871,97788,23131,20057,16755923,21778,8915,Tag0,unknown
1610201232816,200,11,2.4169921875E-6,0,0,123,854040,62871,97788,23131,20057,16755923,21778,8915,Tag0,unknown
1610201232834,200,-265,-5.82275390625E-5,0,0,123,854040,62871,97788,23131,20057,16755923,21778,8915,Tag0,unknown
1610201232849,200,-301,-6.613769531250001E-5,0,0,123,854040,62871,97788,23131,20057,16755923,21778,8915,Tag0,unknown
1610201232872,200,-131,-2.87841796875E-5,0,0,123,1083580,16755365,24629,12613,12136,5469,2117,3512,Tag0,unknown
1610201232883,200,-307,-6.74560546875E-5,0,0,123,1083580,16755365,24629,12613,12136,5469,2117,3512,Tag0,unknown
1610201232908,200,11,2.4169921875E-6,0,0,123,1083580,16755365,24629,12613,12136,5469,2117,3512,Tag0,unknown
1610201232919,200,123,2.70263671875E-5,0,0,123,1083580,16755365,24629,12613,12136,5469,2117,3512,Tag0,unknown
1610201232948,200,-141,-3.09814453125E-5,0,0,123,1083580,16755365,24629,12613,12136,5469,2117,3512,Tag0,unknown
1610201232966,200,-370,-8.1298828125E-5,0,0,123,1083580,16755365,24629,12613,12136,5469,2117,3512,Tag0,unknown
1610201232976,200,-633,-1.3908691406250002E-4,0,0,123,1083580,16755365,24629,12613,12136,5469,2117,3512,Tag0,unknown
1610201232989,200,-316,-6.943359375000001E-5,0,0,123,1083580,16755365,24629,12613,12136,5469,2117,3512,Tag0,unknown
1610201233000,200,-340,-7.470703125E-5,0,0,123,1083580,16755365,24629,12613,12136,5469,2117,3512,Tag0,unknown
1610201233033,200,-242,-5.3173828125000005E-5,0,0,123,1083580,16755365,24629,12613,12136,5469,2117,3512,Tag0,unknown
1610201233051,200,-613,-1.3469238281250002E-4,0,0,123,1083580,16755365,24629,12613,12136,5469,2117,3512,Tag0,unknown
1610201233061,200,-1114,-2.44775390625E-4,0,0,123,1083580,16755365,24629,12613,12136,5469,2117,3512,Tag0,unknown
1610201233073,200,-609,-1.338134765625E-4,0,0,123,1083580,16755365,24629,12613,12136,5469,2117,3512,Tag0,unknown
1610201233097,200,-343,-7.53662109375E-5,0,0,123,1083580,16755365,24629,12613,12136,5469,2117,3512,Tag0,unknown
1610201233116,200,-276,-6.064453125E-5,0,0,123,1083580,16755365,24629,12613,12136,5469,2117,3512,Tag0,unknown
1610201233139,200,-59,-1.29638671875E-5,0,0,123,1083580,16755365,24629,12613,12136,5469,2117,3512,Tag0,unknown
1610201233153,200,-69,-1.51611328125E-5,0,0,123,1083580,16755365,24629,12613,12136,5469,2117,3512,Tag0,unknown
1610201233168,200,242,5.3173828125000005E-5,0,0,123,1083580,16755365,24629,12613,12136,5469,2117,3512,Tag0,unknown
1610201233182,200,388,8.525390625E-5,0,0,123,1083580,16755365,24629,12613,12136,5469,2117,3512,Tag0,unknown
1610201233199,200,453,9.95361328125E-5,0,0,123,1083580,16755365,24629,12613,12136,5469,2117,3512,Tag0,unknown
1610201233216,200,627,1.377685546875E-4,0,0,123,1083580,16755365,24629,12613,12136,5469,2117,3512,Tag0,unknown
1610201233232,200,387,8.50341796875E-5,0,0,123,1083580,16755365,24629,12613,12136,5469,2117,3512,Tag0,unknown
1610201233249,200,209,4.59228515625E-5,0,0,123,1083580,16755365,24629,12613,12136,5469,2117,3512,Tag0,unknown
1610201233265,200,213,4.68017578125E-5,0,0,123,1083580,16755365,24629,12613,12136,5469,2117,3512,Tag0,unknown
1610201233289,200,-43,-9.448242187500001E-6,0,0,123,1083580,16755365,24629,12613,12136,5469,2117,3512,Tag0,unknown
1610201233299,200,-77,-1.69189453125E-5,0,0,123,1083580,16755365,24629,12613,12136,5469,2117,3512,Tag0,unknown
1610201233315,200,-370,-8.1298828125E-5,0,0,123,1083580,16755365,24629,12613,12136,5469,2117,3512,Tag0,unknown
1610201233334,200,25,5.4931640625E-6,0,0,123,1083580,16755365,24629,12613,12136,5469,2117,3512,Tag0,unknown
1610201233349,200,17,3.7353515625000003E-6,0,0,123,1083580,16755365,24629,12613,12136,5469,2117,3512,Tag0,unknown
1610201233374,200,323,7.09716796875E-5,0,0,123,1083580,16755365,24629,12613,12136,5469,2117,3512,Tag0,unknown
1610201233384,200,183,4.02099609375E-5,0,0,123,1083580,16755365,24629,12613,12136,5469,2117,3512,Tag0,unknown
1610201233408,200,363,7.97607421875E-5,0,0,123,1083580,16755365,24629,12613,12136,5469,2117,3512,Tag0,unknown
1610201233418,200,336,7.382812500000001E-5,0,0,123,1083580,16755365,24629,12613,12136,5469,2117,3512,Tag0,unknown
1610201233432,200,-308,-6.767578125E-5,0,0,123,1083580,16755365,24629,12613,12136,5469,2117,3512,Tag0,unknown
1610201233454,200,-371,-8.151855468750001E-5,0,0,123,1083580,16755365,24629,12613,12136,5469,2117,3512,Tag0,unknown
1610201233465,200,-347,-7.62451171875E-5,0,0,123,1083580,16755365,24629,12613,12136,5469,2117,3512,Tag0,unknown
1610201233483,200,-1113,-2.445556640625E-4,0,0,123,1083580,16755365,24629,12613,12136,5469,2117,3512,Tag0,unknown
1610201233505,200,92,2.021484375E-5,0,0,123,1083580,16755365,24629,12613,12136,5469,2117,3512,Tag0,unknown
1610201233516,200,89,1.95556640625E-5,0,0,123,1083580,16755365,24629,12613,12136,5469,2117,3512,Tag0,unknown
1610201233532,200,-297,-6.525878906250001E-5,0,0,123,1083580,16755365,24629,12613,12136,5469,2117,3512,Tag0,unknown
1610201233549,200,327,7.18505859375E-5,0,0,123,1083580,16755365,24629,12613,12136,5469,2117,3512,Tag0,unknown
1610201233566,200,621,1.364501953125E-4,0,0,123,1083580,16755365,24629,12613,12136,5469,2117,3512,Tag0,unknown
1610201233592,200,8,1.7578125E-6,0,0,123,1083580,16755365,24629,12613,12136,5469,2117,3512,Tag0,unknown
1610201233602,200,-260,-5.712890625E-5,0,0,123,1083580,16755365,24629,12613,12136,5469,2117,3512,Tag0,unknown
1610201233628,200,-356,-7.822265625E-5,0,0,123,1083580,16755365,24629,12613,12136,5469,2117,3512,Tag0,unknown
1610201233649,200,68,1.4941406250000001E-5,0,0,123,1083580,16755365,24629,12613,12136,5469,2117,3512,Tag0,unknown
1610201233667,200,-277,-6.0864257812500005E-5,0,0,123,1083580,16755365,24629,12613,12136,5469,2117,3512,Tag0,unknown
1610201233682,200,-76,-1.669921875E-5,0,0,123,1083580,16755365,24629,12613,12136,5469,2117,3512,Tag0,unknown
1610201233701,200,-118,-2.5927734375E-5,0,0,123,1083580,16755365,24629,12613,12136,5469,2117,3512,Tag0,unknown
1610201233715,200,-20,-4.39453125E-6,0,0,123,1083580,16755365,24629,12613,12136,5469,2117,3512,Tag0,unknown
1610201233742,200,-90,-1.9775390625E-5,0,0,123,1083580,16755365,24629,12613,12136,5469,2117,3512,Tag0,unknown
1610201233752,200,39,8.5693359375E-6,0,0,123,1083580,16755365,24629,12613,12136,5469,2117,3512,Tag0,unknown
1610201233766,200,51,1.1206054687499999E-5,0,0,123,1083580,16755365,24629,12613,12136,5469,2117,3512,Tag0,unknown
1610201233783,200,99,2.1752929687500003E-5,0,0,123,1083580,16755365,24629,12613,12136,5469,2117,3512,Tag0,unknown
1610201233801,200,-94,-2.0654296875000002E-5,0,0,123,1083580,16755365,24629,12613,12136,5469,2117,3512,Tag0,unknown
1610201233815,200,290,6.3720703125E-5,0,0,123,1083580,16755365,24629,12613,12136,5469,2117,3512,Tag0,unknown
1610201233849,200,89,1.95556640625E-5,0,0,123,1083580,16755365,24629,12613,12136,5469,2117,3512,Tag0,unknown
1610201233868,200,68,1.4941406250000001E-5,0,0,123,1083580,16755365,24629,12613,12136,5469,2117,3512,Tag0,unknown
1610201233878,200,-119,-2.6147460937500004E-5,0,0,123,1171204,306930,72809,21719,16770654,16759861,13194,11743,Tag0,unknown
1610201233888,200,101,2.2192382812500002E-5,0,0,123,1171204,306930,72809,21719,16770654,16759861,13194,11743,Tag0,unknown
1610201233900,200,-26,-5.712890625E-6,0,0,123,1171204,306930,72809,21719,16770654,16759861,13194,11743,Tag0,unknown
1610201233916,200,-53,-1.1645507812500002E-5,0,0,123,1171204,306930,72809,21719,16770654,16759861,13194,11743,Tag0,unknown
1610201233934,200,105,2.30712890625E-5,0,0,123,1171204,306930,72809,21719,16770654,16759861,13194,11743,Tag0,unknown
1610201233948,200,-124,-2.724609375E-5,0,0,123,1171204,306930,72809,21719,16770654,16759861,13194,11743,Tag0,unknown
1610201233958,200,321,7.053222656250001E-5,0,0,123,1171204,306930,72809,21719,16770654,16759861,13194,11743,Tag0,unknown
1610201233973,200,353,7.75634765625E-5,0,0,123,1171204,306930,72809,21719,16770654,16759861,13194,11743,Tag0,unknown
1610201233984,200,189,4.15283203125E-5,0,0,123,1171204,306930,72809,21719,16770654,16759861,13194,11743,Tag0,unknown
1610201233998,200,553,1.215087890625E-4,0,0,123,1171204,306930,72809,21719,16770654,16759861,13194,11743,Tag0,unknown
1610201234018,200,523,1.149169921875E-4,0,0,123,1171204,306930,72809,21719,16770654,16759861,13194,11743,Tag0,unknown
1610201234032,200,565,1.241455078125E-4,0,0,123,1171204,306930,72809,21719,16770654,16759861,13194,11743,Tag0,unknown
1610201234053,200,82,1.8017578124999998E-5,0,0,123,1171204,306930,72809,21719,16770654,16759861,13194,11743,Tag0,unknown
1610201234066,200,39,8.5693359375E-6,0,0,123,1171204,306930,72809,21719,16770654,16759861,13194,11743,Tag0,unknown
1610201234085,200,-423,-9.29443359375E-5,0,0,123,1171204,306930,72809,21719,16770654,16759861,13194,11743,Tag0,unknown
1610201234107,200,-775,-1.702880859375E-4,0,0,123,1171204,306930,72809,21719,16770654,16759861,13194,11743,Tag0,unknown
1610201234118,200,-462,-1.01513671875E-4,0,0,123,1171204,306930,72809,21719,16770654,16759861,13194,11743,Tag0,unknown
1610201234132,200,-269,-5.9106445312499996E-5,0,0,123,1171204,306930,72809,21719,16770654,16759861,13194,11743,Tag0,unknown
1610201234154,200,35,7.6904296875E-6,0,0,123,1171204,306930,72809,21719,16770654,16759861,13194,11743,Tag0,unknown
1610201234170,200,-275,-6.04248046875E-5,0,0,123,1171204,306930,72809,21719,16770654,16759861,13194,11743,Tag0,unknown
1610201234183,200,-116,-2.548828125E-5,0,0,123,1171204,306930,72809,21719,16770654,16759861,13194,11743,Tag0,unknown
1610201234199,200,17,3.7353515625000003E-6,0,0,123,1171204,306930,72809,21719,16770654,16759861,13194,11743,Tag0,unknown
1610201234222,200,69,1.51611328125E-5,0,0,123,1171204,306930,72809,21719,16770654,16759861,13194,11743,Tag0,unknown
1610201234233,200,117,2.5708007812499998E-5,0,0,123,1171204,306930,72809,21719,16770654,16759861,13194,11743,Tag0,unknown
1610201234250,200,-96,-2.109375E-5,0,0,123,1171204,306930,72809,21719,16770654,16759861,13194,11743,Tag0,unknown
1610201234267,200,-55,-1.20849609375E-5,0,0,123,1171204,306930,72809,21719,16770654,16759861,13194,11743,Tag0,unknown
1610201234283,200,-361,-7.93212890625E-5,0,0,123,1171204,306930,72809,21719,16770654,16759861,13194,11743,Tag0,unknown
1610201234309,200,-601,-1.3205566406249998E-4,0,0,123,1171204,306930,72809,21719,16770654,16759861,13194,11743,Tag0,unknown
1610201234321,200,-318,-6.9873046875E-5,0,0,123,1171204,306930,72809,21719,16770654,16759861,13194,11743,Tag0,unknown
1610201234333,200,-198,-4.3505859375000006E-5,0,0,123,1171204,306930,72809,21719,16770654,16759861,13194,11743,Tag0,unknown
1610201234350,200,-247,-5.42724609375E-5,0,0,123,1171204,306930,72809,21719,16770654,16759861,13194,11743,Tag0,unknown
1610201234365,200,-131,-2.87841796875E-5,0,0,123,1171204,306930,72809,21719,16770654,16759861,13194,11743,Tag0,unknown
1610201234383,200,-293,-6.43798828125E-5,0,0,123,1171204,306930,72809,21719,16770654,16759861,13194,11743,Tag0,unknown
1610201234414,200,-257,-5.64697265625E-5,0,0,123,1171204,306930,72809,21719,16770654,16759861,13194,11743,Tag0,unknown
1610201234432,200,45,9.8876953125E-6,0,0,123,1171204,306930,72809,21719,16770654,16759861,13194,11743,Tag0,unknown
1610201234442,200,58,1.2744140625E-5,0,0,123,1171204,306930,72809,21719,16770654,16759861,13194,11743,Tag0,unknown
1610201234467,200,-118,-2.5927734375E-5,0,0,123,1171204,306930,72809,21719,16770654,16759861,13194,11743,Tag0,unknown
1610201234484,200,102,2.2412109374999998E-5,0,0,123,1171204,306930,72809,21719,16770654,16759861,13194,11743,Tag0,unknown
1610201234499,200,291,6.39404296875E-5,0,0,123,1171204,306930,72809,21719,16770654,16759861,13194,11743,Tag0,unknown
1610201234520,200,-80,-1.7578125E-5,0,0,123,1171204,306930,72809,21719,16770654,16759861,13194,11743,Tag0,unknown
1610201234532,200,98,2.1533203125E-5,0,0,123,1171204,306930,72809,21719,16770654,16759861,13194,11743,Tag0,unknown
1610201234542,200,121,2.6586914062500003E-5,0,0,123,1171204,306930,72809,21719,16770654,16759861,13194,11743,Tag0,unknown
1610201234558,200,-62,-1.3623046875E-5,0,0,123,1171204,306930,72809,21719,16770654,16759861,13194,11743,Tag0,unknown
1610201234568,200,-37,-8.1298828125E-6,0,0,123,1171204,306930,72809,21719,16770654,16759861,13194,11743,Tag0,unknown
1610201234585,200,-111,-2.43896484375E-5,0,0,123,1171204,306930,72809,21719,16770654,16759861,13194,11743,Tag0,unknown
1610201234606,200,120,2.63671875E-5,0,0,123,1171204,306930,72809,21719,16770654,16759861,13194,11743,Tag0,unknown
1610201234616,200,-89,-1.95556640625E-5,0,0,123,1171204,306930,72809,21719,16770654,16759861,13194,11743,Tag0,unknown
1610201234639,200,-107,-2.35107421875E-5,0,0,123,1171204,306930,72809,21719,16770654,16759861,13194,11743,Tag0,unknown
1610201234651,200,-119,-2.6147460937500004E-5,0,0,123,1171204,306930,72809,21719,16770654,16759861,13194,11743,Tag0,unknown
1610201234661,200,329,7.229003906250001E-5,0,0,123,1171204,306930,72809,21719,16770654,16759861,13194,11743,Tag0,unknown
1610201234677,200,35,7.6904296875E-6,0,0,123,1171204,306930,72809,21719,16770654,16759861,13194,11743,Tag0,unknown
1610201234687,200,-85,-1.86767578125E-5,0,0,123,1171204,306930,72809,21719,16770654,16759861,13194,11743,Tag0,unknown
1610201234711,200,-353,-7.75634765625E-5,0,0,123,1171204,306930,72809,21719,16770654,16759861,13194,11743,Tag0,unknown
1610201234721,200,-5,-1.0986328125E-6,0,0,123,1171204,306930,72809,21719,16770654,16759861,13194,11743,Tag0,unknown
1610201234732,200,-63,-1.38427734375E-5,0,0,123,1171204,306930,72809,21719,16770654,16759861,13194,11743,Tag0,unknown
1610201234753,200,2,4.39453125E-7,0,0,123,1171204,306930,72809,21719,16770654,16759861,13194,11743,Tag0,unknown
1610201234766,200,-46,-1.0107421875E-5,0,0,123,1171204,306930,72809,21719,16770654,16759861,13194,11743,Tag0,unknown
1610201234789,200,-289,-6.35009765625E-5,0,0,123,1171204,306930,72809,21719,16770654,16759861,13194,11743,Tag0,unknown
1610201234799,200,-263,-5.7788085937500005E-5,0,0,123,1171204,306930,72809,21719,16770654,16759861,13194,11743,Tag0,unknown
1610201234809,200,-257,-5.64697265625E-5,0,0,123,1171204,306930,72809,21719,16770654,16759861,13194,11743,Tag0,unknown
1610201234827,200,35,7.6904296875E-6,0,0,123,1171204,306930,72809,21719,16770654,16759861,13194,11743,Tag0,unknown
1610201234838,200,37,8.1298828125E-6,0,0,123,1171204,306930,72809,21719,16770654,16759861,13194,11743,Tag0,unknown
1610201234850,200,-217,-4.76806640625E-5,0,0,123,990330,60999,28159,15668,19700,16753740,9928,12256,Tag0,unknown
1610201234860,200,-312,-6.85546875E-5,0,0,123,990330,60999,28159,15668,19700,16753740,9928,12256,Tag0,unknown
1610201234875,200,1,2.197265625E-7,0,0,123,990330,60999,28159,15668,19700,16753740,9928,12256,Tag0,unknown
1610201234885,200,-266,-5.8447265625E-5,0,0,123,990330,60999,28159,15668,19700,16753740,9928,12256,Tag0,unknown
1610201234899,200,-307,-6.74560546875E-5,0,0,123,990330,60999,28159,15668,19700,16753740,9928,12256,Tag0,unknown
1610201234916,200,59,1.29638671875E-5,0,0,123,990330,60999,28159,15668,19700,16753740,9928,12256,Tag0,unknown
1610201234933,200,-29,-6.3720703125E-6,0,0,123,990330,60999,28159,15668,19700,16753740,9928,12256,Tag0,unknown
1610201234949,200,-45,-9.8876953125E-6,0,0,123,990330,60999,28159,15668,19700,16753740,9928,12256,Tag0,unknown
1610201234972,200,-20,-4.39453125E-6,0,0,123,990330,60999,28159,15668,19700,16753740,9928,12256,Tag0,unknown
1610201234985,200,261,5.73486328125E-5,0,0,123,990330,60999,28159,15668,19700,16753740,9928,12256,Tag0,unknown
1610201234999,200,-112,-2.4609375E-5,0,0,123,990330,60999,28159,15668,19700,16753740,9928,12256,Tag0,unknown
1610201235015,200,24,5.2734375E-6,0,0,123,990330,60999,28159,15668,19700,16753740,9928,12256,Tag0,unknown
1610201235032,200,-261,-5.73486328125E-5,0,0,123,990330,60999,28159,15668,19700,16753740,9928,12256,Tag0,unknown
1610201235051,200,-345,-7.58056640625E-5,0,0,123,990330,60999,28159,15668,19700,16753740,9928,12256,Tag0,unknown
1610201235066,200,-306,-6.723632812500001E-5,0,0,123,990330,60999,28159,15668,19700,16753740,9928,12256,Tag0,unknown
1610201235088,200,-146,-3.2080078125000004E-5,0,0,123,990330,60999,28159,15668,19700,16753740,9928,12256,Tag0,unknown
1610201235099,200,-168,-3.691406250000001E-5,0,0,123,990330,60999,28159,15668,19700,16753740,9928,12256,Tag0,unknown
1610201235111,200,6,1.318359375E-6,0,0,123,990330,60999,28159,15668,19700,16753740,9928,12256,Tag0,unknown
1610201235122,200,-125,-2.74658203125E-5,0,0,123,990330,60999,28159,15668,19700,16753740,9928,12256,Tag0,unknown
1610201235133,200,-80,-1.7578125E-5,0,0,123,990330,60999,28159,15668,19700,16753740,9928,12256,Tag0,unknown
1610201235162,200,-300,-6.591796875E-5,0,0,123,990330,60999,28159,15668,19700,16753740,9928,12256,Tag0,unknown
1610201235182,200,-267,-5.86669921875E-5,0,0,123,990330,60999,28159,15668,19700,16753740,9928,12256,Tag0,unknown
1610201235201,200,-273,-5.998535156250001E-5,0,0,123,990330,60999,28159,15668,19700,16753740,9928,12256,Tag0,unknown
1610201235216,200,41,9.008789062499999E-6,0,0,123,990330,60999,28159,15668,19700,16753740,9928,12256,Tag0,unknown
1610201235237,200,-537,-1.179931640625E-4,0,0,123,990330,60999,28159,15668,19700,16753740,9928,12256,Tag0,unknown
1610201235249,200,-335,-7.36083984375E-5,0,0,123,990330,60999,28159,15668,19700,16753740,9928,12256,Tag0,unknown
1610201235274,200,260,5.712890625E-5,0,0,123,990330,60999,28159,15668,19700,16753740,9928,12256,Tag0,unknown
1610201235284,200,320,7.03125E-5,0,0,123,990330,60999,28159,15668,19700,16753740,9928,12256,Tag0,unknown
1610201235318,200,-57,-1.2524414062500001E-5,0,0,123,990330,60999,28159,15668,19700,16753740,9928,12256,Tag0,unknown
1610201235333,200,262,5.7568359375E-5,0,0,123,990330,60999,28159,15668,19700,16753740,9928,12256,Tag0,unknown
1610201235343,200,-76,-1.669921875E-5,0,0,123,990330,60999,28159,15668,19700,16753740,9928,12256,Tag0,unknown
1610201235354,200,-57,-1.2524414062500001E-5,0,0,123,990330,60999,28159,15668,19700,16753740,9928,12256,Tag0,unknown
1610201235366,200,-93,-2.04345703125E-5,0,0,123,990330,60999,28159,15668,19700,16753740,9928,12256,Tag0,unknown
1610201235386,200,-182,-3.9990234375E-5,0,0,123,990330,60999,28159,15668,19700,16753740,9928,12256,Tag0,unknown
1610201235399,200,-181,-3.9770507812500004E-5,0,0,123,990330,60999,28159,15668,19700,16753740,9928,12256,Tag0,unknown
1610201235409,200,-45,-9.8876953125E-6,0,0,123,990330,60999,28159,15668,19700,16753740,9928,12256,Tag0,unknown
1610201235422,200,-8,-1.7578125E-6,0,0,123,990330,60999,28159,15668,19700,16753740,9928,12256,Tag0,unknown
1610201235433,200,-21,-4.614257812500001E-6,0,0,123,990330,60999,28159,15668,19700,16753740,9928,12256,Tag0,unknown
1610201235450,200,-77,-1.69189453125E-5,0,0,123,990330,60999,28159,15668,19700,16753740,9928,12256,Tag0,unknown
1610201235471,200,184,4.04296875E-5,0,0,123,990330,60999,28159,15668,19700,16753740,9928,12256,Tag0,unknown
1610201235483,200,204,4.4824218749999996E-5,0,0,123,990330,60999,28159,15668,19700,16753740,9928,12256,Tag0,unknown
1610201235504,200,-20,-4.39453125E-6,0,0,123,990330,60999,28159,15668,19700,16753740,9928,12256,Tag0,unknown
1610201235516,200,-67,-1.4721679687500002E-5,0,0,123,990330,60999,28159,15668,19700,16753740,9928,12256,Tag0,unknown
1610201235534,200,-5,-1.0986328125E-6,0,0,123,990330,60999,28159,15668,19700,16753740,9928,12256,Tag0,unknown
1610201235555,200,39,8.5693359375E-6,0,0,123,990330,60999,28159,15668,19700,16753740,9928,12256,Tag0,unknown
1610201235566,200,-95,-2.08740234375E-5,0,0,123,990330,60999,28159,15668,19700,16753740,9928,12256,Tag0,unknown
1610201235592,200,18,3.955078125E-6,0,0,123,990330,60999,28159,15668,19700,16753740,9928,12256,Tag0,unknown
1610201235602,200,-126,-2.7685546875E-5,0,0,123,990330,60999,28159,15668,19700,16753740,9928,12256,Tag0,unknown
1610201235617,200,13,2.8564453125E-6,0,0,123,990330,60999,28159,15668,19700,16753740,9928,12256,Tag0,unknown
1610201235647,200,76,1.669921875E-5,0,0,123,990330,60999,28159,15668,19700,16753740,9928,12256,Tag0,unknown
1610201235666,200,91,1.99951171875E-5,0,0,123,990330,60999,28159,15668,19700,16753740,9928,12256,Tag0,unknown
1610201235676,200,-77,-1.69189453125E-5,0,0,123,990330,60999,28159,15668,19700,16753740,9928,12256,Tag0,unknown
1610201235692,200,-22,-4.833984375E-6,0,0,123,990330,60999,28159,15668,19700,16753740,9928,12256,Tag0,unknown
1610201235702,200,122,2.6806640625E-5,0,0,123,990330,60999,28159,15668,19700,16753740,9928,12256,Tag0,unknown
1610201235726,200,-293,-6.43798828125E-5,0,0,123,990330,60999,28159,15668,19700,16753740,9928,12256,Tag0,unknown
1610201235736,200,10,2.197265625E-6,0,0,123,990330,60999,28159,15668,19700,16753740,9928,12256,Tag0,unknown
1610201235750,200,-131,-2.87841796875E-5,0,0,123,990330,60999,28159,15668,19700,16753740,9928,12256,Tag0,unknown
1610201235772,200,-193,-4.2407226562500005E-5,0,0,123,990330,60999,28159,15668,19700,16753740,9928,12256,Tag0,unknown
1610201235786,200,-513,-1.127197265625E-4,0,0,123,990330,60999,28159,15668,19700,16753740,9928,12256,Tag0,unknown
1610201235810,200,-347,-7.62451171875E-5,0,0,123,990330,60999,28159,15668,19700,16753740,9928,12256,Tag0,unknown
1610201235820,200,-264,-5.80078125E-5,0,0,123,990330,60999,28159,15668,19700,16753740,9928,12256,Tag0,unknown
1610201235836,200,-341,-7.492675781250002E-5,0,0,123,193897,23506,8549,4881,6142,5911,2885,2516,Tag0,unknown
1610201235852,200,119,2.6147460937500004E-5,0,0,123,193897,23506,8549,4881,6142,5911,2885,2516,Tag0,unknown
1610201235867,200,75,1.64794921875E-5,0,0,123,193897,23506,8549,4881,6142,5911,2885,2516,Tag0,unknown
1610201235889,200,-94,-2.0654296875000002E-5,0,0,123,193897,23506,8549,4881,6142,5911,2885,2516,Tag0,unknown
1610201235901,200,-80,-1.7578125E-5,0,0,123,193897,23506,8549,4881,6142,5911,2885,2516,Tag0,unknown
1610201235927,200,-59,-1.29638671875E-5,0,0,123,193897,23506,8549,4881,6142,5911,2885,2516,Tag0,unknown
1610201235937,200,-126,-2.7685546875E-5,0,0,123,193897,23506,8549,4881,6142,5911,2885,2516,Tag0,unknown
1610201235952,200,2,4.39453125E-7,0,0,123,193897,23506,8549,4881,6142,5911,2885,2516,Tag0,unknown
1610201235966,200,22,4.833984375E-6,0,0,123,193897,23506,8549,4881,6142,5911,2885,2516,Tag0,unknown
1610201235986,200,-47,-1.0327148437500001E-5,0,0,123,193897,23506,8549,4881,6142,5911,2885,2516,Tag0,unknown
1610201236001,200,-67,-1.4721679687500002E-5,0,0,123,193897,23506,8549,4881,6142,5911,2885,2516,Tag0,unknown
1610201236028,200,-289,-6.35009765625E-5,0,0,123,193897,23506,8549,4881,6142,5911,2885,2516,Tag0,unknown
1610201236038,200,11,2.4169921875E-6,0,0,123,193897,23506,8549,4881,6142,5911,2885,2516,Tag0,unknown
1610201236049,200,-129,-2.8344726562500002E-5,0,0,123,193897,23506,8549,4881,6142,5911,2885,2516,Tag0,unknown
1610201236067,200,-297,-6.525878906250001E-5,0,0,123,193897,23506,8549,4881,6142,5911,2885,2516,Tag0,unknown
1610201236085,200,-269,-5.9106445312499996E-5,0,0,123,193897,23506,8549,4881,6142,5911,2885,2516,Tag0,unknown
1610201236102,200,-301,-6.613769531250001E-5,0,0,123,193897,23506,8549,4881,6142,5911,2885,2516,Tag0,unknown
1610201236116,200,-299,-6.56982421875E-5,0,0,123,193897,23506,8549,4881,6142,5911,2885,2516,Tag0,unknown
1610201236140,200,178,3.9111328125E-5,0,0,123,193897,23506,8549,4881,6142,5911,2885,2516,Tag0,unknown
1610201236150,200,229,5.03173828125E-5,0,0,123,193897,23506,8549,4881,6142,5911,2885,2516,Tag0,unknown
1610201236179,200,-47,-1.0327148437500001E-5,0,0,123,193897,23506,8549,4881,6142,5911,2885,2516,Tag0,unknown
1610201236189,200,-116,-2.548828125E-5,0,0,123,193897,23506,8549,4881,6142,5911,2885,2516,Tag0,unknown
1610201236200,200,75,1.64794921875E-5,0,0,123,193897,23506,8549,4881,6142,5911,2885,2516,Tag0,unknown
1610201236218,200,17,3.7353515625000003E-6,0,0,123,193897,23506,8549,4881,6142,5911,2885,2516,Tag0,unknown
1610201236233,200,-316,-6.943359375000001E-5,0,0,123,193897,23506,8549,4881,6142,5911,2885,2516,Tag0,unknown
1610201236251,200,-238,-5.229492187500001E-5,0,0,123,193897,23506,8549,4881,6142,5911,2885,2516,Tag0,unknown
1610201236267,200,-217,-4.76806640625E-5,0,0,123,193897,23506,8549,4881,6142,5911,2885,2516,Tag0,unknown
1610201236290,200,73,1.6040039062500002E-5,0,0,123,193897,23506,8549,4881,6142,5911,2885,2516,Tag0,unknown
1610201236302,200,83,1.82373046875E-5,0,0,123,193897,23506,8549,4881,6142,5911,2885,2516,Tag0,unknown
1610201236316,200,57,1.2524414062500001E-5,0,0,123,193897,23506,8549,4881,6142,5911,2885,2516,Tag0,unknown
1610201236334,200,-91,-1.99951171875E-5,0,0,123,193897,23506,8549,4881,6142,5911,2885,2516,Tag0,unknown
1610201236358,200,281,6.17431640625E-5,0,0,123,193897,23506,8549,4881,6142,5911,2885,2516,Tag0,unknown
1610201236368,200,-29,-6.3720703125E-6,0,0,123,193897,23506,8549,4881,6142,5911,2885,2516,Tag0,unknown
1610201236393,200,-102,-2.2412109374999998E-5,0,0,123,193897,23506,8549,4881,6142,5911,2885,2516,Tag0,unknown
1610201236403,200,-62,-1.3623046875E-5,0,0,123,193897,23506,8549,4881,6142,5911,2885,2516,Tag0,unknown
1610201236417,200,101,2.2192382812500002E-5,0,0,123,193897,23506,8549,4881,6142,5911,2885,2516,Tag0,unknown
1610201236439,200,297,6.525878906250001E-5,0,0,123,193897,23506,8549,4881,6142,5911,2885,2516,Tag0,unknown
1610201236450,200,-5,-1.0986328125E-6,0,0,123,193897,23506,8549,4881,6142,5911,2885,2516,Tag0,unknown
1610201236467,200,39,8.5693359375E-6,0,0,123,193897,23506,8549,4881,6142,5911,2885,2516,Tag0,unknown
1610201236490,200,-295,-6.48193359375E-5,0,0,123,193897,23506,8549,4881,6142,5911,2885,2516,Tag0,unknown
1610201236500,200,-263,-5.7788085937500005E-5,0,0,123,193897,23506,8549,4881,6142,5911,2885,2516,Tag0,unknown
1610201236517,200,-221,-4.85595703125E-5,0,0,123,193897,23506,8549,4881,6142,5911,2885,2516,Tag0,unknown
1610201236548,200,-363,-7.97607421875E-5,0,0,123,193897,23506,8549,4881,6142,5911,2885,2516,Tag0,unknown
1610201236567,200,-179,-3.93310546875E-5,0,0,123,193897,23506,8549,4881,6142,5911,2885,2516,Tag0,unknown
1610201236577,200,-537,-1.179931640625E-4,0,0,123,193897,23506,8549,4881,6142,5911,2885,2516,Tag0,unknown
1610201236587,200,-345,-7.58056640625E-5,0,0,123,193897,23506,8549,4881,6142,5911,2885,2516,Tag0,unknown
1610201236601,200,102,2.2412109374999998E-5,0,0,123,193897,23506,8549,4881,6142,5911,2885,2516,Tag0,unknown
1610201236617,200,336,7.382812500000001E-5,0,0,123,193897,23506,8549,4881,6142,5911,2885,2516,Tag0,unknown
1610201236633,200,202,4.4384765625000004E-5,0,0,123,193897,23506,8549,4881,6142,5911,2885,2516,Tag0,unknown
1610201236660,200,182,3.9990234375E-5,0,0,123,193897,23506,8549,4881,6142,5911,2885,2516,Tag0,unknown
1610201236670,200,551,1.210693359375E-4,0,0,123,193897,23506,8549,4881,6142,5911,2885,2516,Tag0,unknown
1610201236683,200,-27,-5.9326171875000005E-6,0,0,123,193897,23506,8549,4881,6142,5911,2885,2516,Tag0,unknown
1610201236733,200,23,5.0537109375E-6,0,0,123,193897,23506,8549,4881,6142,5911,2885,2516,Tag0,unknown
1610201236750,200,23,5.0537109375E-6,0,0,123,193897,23506,8549,4881,6142,5911,2885,2516,Tag0,unknown
1610201236760,200,-569,-1.250244140625E-4,0,0,123,193897,23506,8549,4881,6142,5911,2885,2516,Tag0,unknown
1610201236772,200,-391,-8.591308593750001E-5,0,0,123,193897,23506,8549,4881,6142,5911,2885,2516,Tag0,unknown
1610201236783,200,-637,-1.399658203125E-4,0,0,123,193897,23506,8549,4881,6142,5911,2885,2516,Tag0,unknown
1610201236846,200,-580,-1.2744140625E-4,0,0,123,193897,23506,8549,4881,6142,5911,2885,2516,Tag0,unknown
1610201236869,200,-185,-4.06494140625E-5,0,0,123,193897,23506,8549,4881,6142,5911,2885,2516,Tag0,unknown
1610201236887,200,27,5.9326171875000005E-6,0,0,123,193897,23506,8549,4881,6142,5911,2885,2516,Tag0,unknown
1610201236905,200,-54,-1.1865234375000001E-5,0,0,123,330277,118629,27673,16773240,11694,16758761,16694,6192,Tag0,unknown
1610201236915,200,491,1.078857421875E-4,0,0,123,330277,118629,27673,16773240,11694,16758761,16694,6192,Tag0,unknown
1610201236935,200,555,1.219482421875E-4,0,0,123,330277,118629,27673,16773240,11694,16758761,16694,6192,Tag0,unknown
1610201236945,200,-269,-5.9106445312499996E-5,0,0,123,330277,118629,27673,16773240,11694,16758761,16694,6192,Tag0,unknown
1610201236955,200,-249,-5.47119140625E-5,0,0,123,330277,118629,27673,16773240,11694,16758761,16694,6192,Tag0,unknown
1610201236967,200,-520,-1.142578125E-4,0,0,123,330277,118629,27673,16773240,11694,16758761,16694,6192,Tag0,unknown
1610201236985,200,-161,-3.53759765625E-5,0,0,123,330277,118629,27673,16773240,11694,16758761,16694,6192,Tag0,unknown
1610201237005,200,-605,-1.329345703125E-4,0,0,123,330277,118629,27673,16773240,11694,16758761,16694,6192,Tag0,unknown
1610201237016,200,-354,-7.778320312500001E-5,0,0,123,330277,118629,27673,16773240,11694,16758761,16694,6192,Tag0,unknown
1610201237042,200,86,1.8896484375000003E-5,0,0,123,330277,118629,27673,16773240,11694,16758761,16694,6192,Tag0,unknown
1610201237052,200,317,6.96533203125E-5,0,0,123,330277,118629,27673,16773240,11694,16758761,16694,6192,Tag0,unknown
1610201237067,200,373,8.19580078125E-5,0,0,123,330277,118629,27673,16773240,11694,16758761,16694,6192,Tag0,unknown
1610201237085,200,151,3.31787109375E-5,0,0,123,330277,118629,27673,16773240,11694,16758761,16694,6192,Tag0,unknown
1610201237100,200,310,6.8115234375E-5,0,0,123,330277,118629,27673,16773240,11694,16758761,16694,6192,Tag0,unknown
1610201237120,200,-260,-5.712890625E-5,0,0,123,330277,118629,27673,16773240,11694,16758761,16694,6192,Tag0,unknown
1610201237134,200,93,2.04345703125E-5,0,0,123,330277,118629,27673,16773240,11694,16758761,16694,6192,Tag0,unknown
1610201237155,200,-531,-1.1667480468750001E-4,0,0,123,330277,118629,27673,16773240,11694,16758761,16694,6192,Tag0,unknown
1610201237167,200,-250,-5.4931640625E-5,0,0,123,330277,118629,27673,16773240,11694,16758761,16694,6192,Tag0,unknown
1610201237183,200,-547,-1.201904296875E-4,0,0,123,330277,118629,27673,16773240,11694,16758761,16694,6192,Tag0,unknown
1610201237202,200,-23,-5.0537109375E-6,0,0,123,330277,118629,27673,16773240,11694,16758761,16694,6192,Tag0,unknown
1610201237217,200,81,1.77978515625E-5,0,0,123,330277,118629,27673,16773240,11694,16758761,16694,6192,Tag0,unknown
1610201237234,200,-185,-4.06494140625E-5,0,0,123,330277,118629,27673,16773240,11694,16758761,16694,6192,Tag0,unknown
1610201237258,200,-340,-7.470703125E-5,0,0,123,330277,118629,27673,16773240,11694,16758761,16694,6192,Tag0,unknown
1610201237268,200,6,1.318359375E-6,0,0,123,330277,118629,27673,16773240,11694,16758761,16694,6192,Tag0,unknown
1610201237283,200,99,2.1752929687500003E-5,0,0,123,330277,118629,27673,16773240,11694,16758761,16694,6192,Tag0,unknown
1610201237301,200,-16,-3.515625E-6,0,0,123,330277,118629,27673,16773240,11694,16758761,16694,6192,Tag0,unknown
1610201237317,200,284,6.240234375E-5,0,0,123,330277,118629,27673,16773240,11694,16758761,16694,6192,Tag0,unknown
1610201237338,200,-91,-1.99951171875E-5,0,0,123,330277,118629,27673,16773240,11694,16758761,16694,6192,Tag0,unknown
1610201237350,200,-51,-1.1206054687499999E-5,0,0,123,330277,118629,27673,16773240,11694,16758761,16694,6192,Tag0,unknown
1610201237360,200,121,2.6586914062500003E-5,0,0,123,330277,118629,27673,16773240,11694,16758761,16694,6192,Tag0,unknown
1610201237375,200,104,2.28515625E-5,0,0,123,330277,118629,27673,16773240,11694,16758761,16694,6192,Tag0,unknown
1610201237385,200,283,6.218261718750001E-5,0,0,123,330277,118629,27673,16773240,11694,16758761,16694,6192,Tag0,unknown
1610201237414,200,29,6.3720703125E-6,0,0,123,330277,118629,27673,16773240,11694,16758761,16694,6192,Tag0,unknown
1610201237433,200,119,2.6147460937500004E-5,0,0,123,330277,118629,27673,16773240,11694,16758761,16694,6192,Tag0,unknown
1610201237443,200,-106,-2.3291015625000003E-5,0,0,123,330277,118629,27673,16773240,11694,16758761,16694,6192,Tag0,unknown
1610201237467,200,35,7.6904296875E-6,0,0,123,330277,118629,27673,16773240,11694,16758761,16694,6192,Tag0,unknown
1610201237484,200,68,1.4941406250000001E-5,0,0,123,330277,118629,27673,16773240,11694,16758761,16694,6192,Tag0,unknown
1610201237501,200,123,2.70263671875E-5,0,0,123,330277,118629,27673,16773240,11694,16758761,16694,6192,Tag0,unknown
1610201237517,200,77,1.69189453125E-5,0,0,123,330277,118629,27673,16773240,11694,16758761,16694,6192,Tag0,unknown
1610201237535,200,-313,-6.87744140625E-5,0,0,123,330277,118629,27673,16773240,11694,16758761,16694,6192,Tag0,unknown
1610201237550,200,33,7.2509765625E-6,0,0,123,330277,118629,27673,16773240,11694,16758761,16694,6192,Tag0,unknown
1610201237570,200,-102,-2.2412109374999998E-5,0,0,123,330277,118629,27673,16773240,11694,16758761,16694,6192,Tag0,unknown
1610201237583,200,-112,-2.4609375E-5,0,0,123,330277,118629,27673,16773240,11694,16758761,16694,6192,Tag0,unknown
1610201237605,200,-35,-7.6904296875E-6,0,0,123,330277,118629,27673,16773240,11694,16758761,16694,6192,Tag0,unknown
1610201237616,200,331,7.272949218750001E-5,0,0,123,330277,118629,27673,16773240,11694,16758761,16694,6192,Tag0,unknown
1610201237643,200,-328,-7.207031249999999E-5,0,0,123,330277,118629,27673,16773240,11694,16758761,16694,6192,Tag0,unknown
1610201237678,200,-171,-3.75732421875E-5,0,0,123,330277,118629,27673,16773240,11694,16758761,16694,6192,Tag0,unknown
1610201237688,200,-369,-8.10791015625E-5,0,0,123,330277,118629,27673,16773240,11694,16758761,16694,6192,Tag0,unknown
1610201237699,200,-257,-5.64697265625E-5,0,0,123,330277,118629,27673,16773240,11694,16758761,16694,6192,Tag0,unknown
1610201237716,200,113,2.48291015625E-5,0,0,123,330277,118629,27673,16773240,11694,16758761,16694,6192,Tag0,unknown
1610201237733,200,-116,-2.548828125E-5,0,0,123,330277,118629,27673,16773240,11694,16758761,16694,6192,Tag0,unknown
1610201237751,200,120,2.63671875E-5,0,0,123,330277,118629,27673,16773240,11694,16758761,16694,6192,Tag0,unknown
1610201237767,200,-103,-2.26318359375E-5,0,0,123,330277,118629,27673,16773240,11694,16758761,16694,6192,Tag0,unknown
1610201237792,200,123,2.70263671875E-5,0,0,123,330277,118629,27673,16773240,11694,16758761,16694,6192,Tag0,unknown
1610201237802,200,112,2.4609375E-5,0,0,123,330277,118629,27673,16773240,11694,16758761,16694,6192,Tag0,unknown
1610201237819,200,-325,-7.14111328125E-5,0,0,123,158069,66271,7012,5843,6434,7205,7695,5033,Tag0,unknown
1610201237833,200,-263,-5.7788085937500005E-5,0,0,123,158069,66271,7012,5843,6434,7205,7695,5033,Tag0,unknown
1610201237852,200,1,2.197265625E-7,0,0,123,158069,66271,7012,5843,6434,7205,7695,5033,Tag0,unknown
1610201237867,200,67,1.4721679687500002E-5,0,0,123,158069,66271,7012,5843,6434,7205,7695,5033,Tag0,unknown
1610201237900,200,21,4.614257812500001E-6,0,0,123,158069,66271,7012,5843,6434,7205,7695,5033,Tag0,unknown
1610201237916,200,6,1.318359375E-6,0,0,123,158069,66271,7012,5843,6434,7205,7695,5033,Tag0,unknown
1610201237926,200,-261,-5.73486328125E-5,0,0,123,158069,66271,7012,5843,6434,7205,7695,5033,Tag0,unknown
1610201237936,200,125,2.74658203125E-5,0,0,123,158069,66271,7012,5843,6434,7205,7695,5033,Tag0,unknown
1610201237949,200,-87,-1.91162109375E-5,0,0,123,158069,66271,7012,5843,6434,7205,7695,5033,Tag0,unknown
1610201237972,200,54,1.1865234375000001E-5,0,0,123,158069,66271,7012,5843,6434,7205,7695,5033,Tag0,unknown
1610201237983,200,71,1.56005859375E-5,0,0,123,158069,66271,7012,5843,6434,7205,7695,5033,Tag0,unknown
1610201238006,200,-43,-9.448242187500001E-6,0,0,123,158069,66271,7012,5843,6434,7205,7695,5033,Tag0,unknown
1610201238017,200,-11,-2.4169921875E-6,0,0,123,158069,66271,7012,5843,6434,7205,7695,5033,Tag0,unknown
1610201238033,200,-112,-2.4609375E-5,0,0,123,158069,66271,7012,5843,6434,7205,7695,5033,Tag0,unknown
1610201238052,200,-119,-2.6147460937500004E-5,0,0,123,158069,66271,7012,5843,6434,7205,7695,5033,Tag0,unknown
1610201238067,200,-78,-1.7138671875E-5,0,0,123,158069,66271,7012,5843,6434,7205,7695,5033,Tag0,unknown
1610201238093,200,-39,-8.5693359375E-6,0,0,123,158069,66271,7012,5843,6434,7205,7695,5033,Tag0,unknown
1610201238103,200,104,2.28515625E-5,0,0,123,158069,66271,7012,5843,6434,7205,7695,5033,Tag0,unknown
1610201238148,200,100,2.197265625E-5,0,0,123,158069,66271,7012,5843,6434,7205,7695,5033,Tag0,unknown
1610201238166,200,74,1.6259765625E-5,0,0,123,158069,66271,7012,5843,6434,7205,7695,5033,Tag0,unknown
1610201238197,200,65,1.42822265625E-5,0,0,123,158069,66271,7012,5843,6434,7205,7695,5033,Tag0,unknown
1610201238216,200,75,1.64794921875E-5,0,0,123,158069,66271,7012,5843,6434,7205,7695,5033,Tag0,unknown
1610201238226,200,-120,-2.63671875E-5,0,0,123,158069,66271,7012,5843,6434,7205,7695,5033,Tag0,unknown
1610201238245,200,65,1.42822265625E-5,0,0,123,158069,66271,7012,5843,6434,7205,7695,5033,Tag0,unknown
1610201238255,200,-361,-7.93212890625E-5,0,0,123,158069,66271,7012,5843,6434,7205,7695,5033,Tag0,unknown
1610201238278,200,-217,-4.76806640625E-5,0,0,123,158069,66271,7012,5843,6434,7205,7695,5033,Tag0,unknown
1610201238288,200,-153,-3.3618164062500004E-5,0,0,123,158069,66271,7012,5843,6434,7205,7695,5033,Tag0,unknown
1610201238299,200,-266,-5.8447265625E-5,0,0,123,158069,66271,7012,5843,6434,7205,7695,5033,Tag0,unknown
1610201238318,200,57,1.2524414062500001E-5,0,0,123,158069,66271,7012,5843,6434,7205,7695,5033,Tag0,unknown
1610201238333,200,19,4.1748046875E-6,0,0,123,158069,66271,7012,5843,6434,7205,7695,5033,Tag0,unknown
1610201238343,200,27,5.9326171875000005E-6,0,0,123,158069,66271,7012,5843,6434,7205,7695,5033,Tag0,unknown
1610201238355,200,17,3.7353515625000003E-6,0,0,123,158069,66271,7012,5843,6434,7205,7695,5033,Tag0,unknown
1610201238366,200,9,1.9775390625E-6,0,0,123,158069,66271,7012,5843,6434,7205,7695,5033,Tag0,unknown
1610201238387,200,-349,-7.668457031250001E-5,0,0,123,158069,66271,7012,5843,6434,7205,7695,5033,Tag0,unknown
1610201238404,200,-365,-8.02001953125E-5,0,0,123,158069,66271,7012,5843,6434,7205,7695,5033,Tag0,unknown
1610201238422,200,-273,-5.998535156250001E-5,0,0,123,158069,66271,7012,5843,6434,7205,7695,5033,Tag0,unknown
1610201238433,200,-267,-5.86669921875E-5,0,0,123,158069,66271,7012,5843,6434,7205,7695,5033,Tag0,unknown
1610201238443,200,327,7.18505859375E-5,0,0,123,158069,66271,7012,5843,6434,7205,7695,5033,Tag0,unknown
1610201238458,200,308,6.767578125E-5,0,0,123,158069,66271,7012,5843,6434,7205,7695,5033,Tag0,unknown
1610201238468,200,305,6.70166015625E-5,0,0,123,158069,66271,7012,5843,6434,7205,7695,5033,Tag0,unknown
1610201238497,200,88,1.93359375E-5,0,0,123,158069,66271,7012,5843,6434,7205,7695,5033,Tag0,unknown
1610201238516,200,48,1.0546875E-5,0,0,123,158069,66271,7012,5843,6434,7205,7695,5033,Tag0,unknown
1610201238534,200,-324,-7.119140625E-5,0,0,123,158069,66271,7012,5843,6434,7205,7695,5033,Tag0,unknown
1610201238550,200,-301,-6.613769531250001E-5,0,0,123,158069,66271,7012,5843,6434,7205,7695,5033,Tag0,unknown
1610201238575,200,-341,-7.492675781250002E-5,0,0,123,158069,66271,7012,5843,6434,7205,7695,5033,Tag0,unknown
1610201238585,200,-295,-6.48193359375E-5,0,0,123,158069,66271,7012,5843,6434,7205,7695,5033,Tag0,unknown
1610201238599,200,102,2.2412109374999998E-5,0,0,123,158069,66271,7012,5843,6434,7205,7695,5033,Tag0,unknown
1610201238616,200,-59,-1.29638671875E-5,0,0,123,158069,66271,7012,5843,6434,7205,7695,5033,Tag0,unknown
1610201238633,200,101,2.2192382812500002E-5,0,0,123,158069,66271,7012,5843,6434,7205,7695,5033,Tag0,unknown
1610201238653,200,183,4.02099609375E-5,0,0,123,158069,66271,7012,5843,6434,7205,7695,5033,Tag0,unknown
1610201238666,200,328,7.207031249999999E-5,0,0,123,158069,66271,7012,5843,6434,7205,7695,5033,Tag0,unknown
1610201238687,200,-211,-4.63623046875E-5,0,0,123,158069,66271,7012,5843,6434,7205,7695,5033,Tag0,unknown
1610201238701,200,-214,-4.7021484375E-5,0,0,123,158069,66271,7012,5843,6434,7205,7695,5033,Tag0,unknown
1610201238711,200,-347,-7.62451171875E-5,0,0,123,158069,66271,7012,5843,6434,7205,7695,5033,Tag0,unknown
1610201238735,200,1,2.197265625E-7,0,0,123,158069,66271,7012,5843,6434,7205,7695,5033,Tag0,unknown
1610201238751,200,19,4.1748046875E-6,0,0,123,158069,66271,7012,5843,6434,7205,7695,5033,Tag0,unknown
1610201238802,200,-310,-6.8115234375E-5,0,0,123,158069,66271,7012,5843,6434,7205,7695,5033,Tag0,unknown
1610201238819,200,381,8.371582031250001E-5,0,0,123,158069,66271,7012,5843,6434,7205,7695,5033,Tag0,unknown
1610201238829,200,162,3.5595703125E-5,0,0,123,158069,66271,7012,5843,6434,7205,7695,5033,Tag0,unknown
1610201238839,200,353,7.75634765625E-5,0,0,123,233092,176616,16772447,30878,79932,77475,3361,20405,Tag0,unknown
1610201238849,200,189,4.15283203125E-5,0,0,123,233092,176616,16772447,30878,79932,77475,3361,20405,Tag0,unknown
1610201238873,200,261,5.73486328125E-5,0,0,123,233092,176616,16772447,30878,79932,77475,3361,20405,Tag0,unknown
1610201238883,200,262,5.7568359375E-5,0,0,123,233092,176616,16772447,30878,79932,77475,3361,20405,Tag0,unknown
1610201238902,200,-70,-1.5380859375E-5,0,0,123,233092,176616,16772447,30878,79932,77475,3361,20405,Tag0,unknown
1610201238921,200,304,6.6796875E-5,0,0,123,233092,176616,16772447,30878,79932,77475,3361,20405,Tag0,unknown
1610201238935,200,274,6.0205078124999997E-5,0,0,123,233092,176616,16772447,30878,79932,77475,3361,20405,Tag0,unknown
1610201238945,200,-43,-9.448242187500001E-6,0,0,123,233092,176616,16772447,30878,79932,77475,3361,20405,Tag0,unknown
1610201238961,200,267,5.86669921875E-5,0,0,123,233092,176616,16772447,30878,79932,77475,3361,20405,Tag0,unknown
1610201238971,200,55,1.20849609375E-5,0,0,123,233092,176616,16772447,30878,79932,77475,3361,20405,Tag0,unknown
1610201238983,200,11,2.4169921875E-6,0,0,123,233092,176616,16772447,30878,79932,77475,3361,20405,Tag0,unknown
1610201239001,200,-275,-6.04248046875E-5,0,0,123,233092,176616,16772447,30878,79932,77475,3361,20405,Tag0,unknown
1610201239017,200,101,2.2192382812500002E-5,0,0,123,233092,176616,16772447,30878,79932,77475,3361,20405,Tag0,unknown
1610201239039,200,-127,-2.79052734375E-5,0,0,123,233092,176616,16772447,30878,79932,77475,3361,20405,Tag0,unknown
1610201239050,200,-93,-2.04345703125E-5,0,0,123,233092,176616,16772447,30878,79932,77475,3361,20405,Tag0,unknown
1610201239060,200,-85,-1.86767578125E-5,0,0,123,233092,176616,16772447,30878,79932,77475,3361,20405,Tag0,unknown
1610201239070,200,-126,-2.7685546875E-5,0,0,123,233092,176616,16772447,30878,79932,77475,3361,20405,Tag0,unknown
1610201239104,200,-94,-2.0654296875000002E-5,0,0,123,233092,176616,16772447,30878,79932,77475,3361,20405,Tag0,unknown
1610201239116,200,77,1.69189453125E-5,0,0,123,233092,176616,16772447,30878,79932,77475,3361,20405,Tag0,unknown
1610201239126,200,83,1.82373046875E-5,0,0,123,233092,176616,16772447,30878,79932,77475,3361,20405,Tag0,unknown
1610201239140,200,118,2.5927734375E-5,0,0,123,233092,176616,16772447,30878,79932,77475,3361,20405,Tag0,unknown
1610201239151,200,73,1.6040039062500002E-5,0,0,123,233092,176616,16772447,30878,79932,77475,3361,20405,Tag0,unknown
1610201239161,200,-133,-2.92236328125E-5,0,0,123,233092,176616,16772447,30878,79932,77475,3361,20405,Tag0,unknown
1610201239182,200,-325,-7.14111328125E-5,0,0,123,233092,176616,16772447,30878,79932,77475,3361,20405,Tag0,unknown
1610201239199,200,-379,-8.32763671875E-5,0,0,123,233092,176616,16772447,30878,79932,77475,3361,20405,Tag0,unknown
1610201239221,200,50,1.0986328125E-5,0,0,123,233092,176616,16772447,30878,79932,77475,3361,20405,Tag0,unknown
1610201239236,200,54,1.1865234375000001E-5,0,0,123,233092,176616,16772447,30878,79932,77475,3361,20405,Tag0,unknown
1610201239254,200,-261,-5.73486328125E-5,0,0,123,233092,176616,16772447,30878,79932,77475,3361,20405,Tag0,unknown
1610201239266,200,5,1.0986328125E-6,0,0,123,233092,176616,16772447,30878,79932,77475,3361,20405,Tag0,unknown
1610201239292,200,-148,-3.251953125E-5,0,0,123,233092,176616,16772447,30878,79932,77475,3361,20405,Tag0,unknown
1610201239302,200,3,6.591796875E-7,0,0,123,233092,176616,16772447,30878,79932,77475,3361,20405,Tag0,unknown
1610201239316,200,-101,-2.2192382812500002E-5,0,0,123,233092,176616,16772447,30878,79932,77475,3361,20405,Tag0,unknown
1610201239335,200,105,2.30712890625E-5,0,0,123,233092,176616,16772447,30878,79932,77475,3361,20405,Tag0,unknown
1610201239351,200,125,2.74658203125E-5,0,0,123,233092,176616,16772447,30878,79932,77475,3361,20405,Tag0,unknown
1610201239367,200,-109,-2.39501953125E-5,0,0,123,233092,176616,16772447,30878,79932,77475,3361,20405,Tag0,unknown
1610201239420,200,-43,-9.448242187500001E-6,0,0,123,233092,176616,16772447,30878,79932,77475,3361,20405,Tag0,unknown
1610201239433,200,281,6.17431640625E-5,0,0,123,233092,176616,16772447,30878,79932,77475,3361,20405,Tag0,unknown
1610201239443,200,-275,-6.04248046875E-5,0,0,123,233092,176616,16772447,30878,79932,77475,3361,20405,Tag0,unknown
1610201239453,200,-362,-7.954101562500001E-5,0,0,123,233092,176616,16772447,30878,79932,77475,3361,20405,Tag0,unknown
1610201239474,200,-332,-7.294921875E-5,0,0,123,233092,176616,16772447,30878,79932,77475,3361,20405,Tag0,unknown
1610201239484,200,-347,-7.62451171875E-5,0,0,123,233092,176616,16772447,30878,79932,77475,3361,20405,Tag0,unknown
1610201239494,200,-347,-7.62451171875E-5,0,0,123,233092,176616,16772447,30878,79932,77475,3361,20405,Tag0,unknown
1610201239504,200,-149,-3.27392578125E-5,0,0,123,233092,176616,16772447,30878,79932,77475,3361,20405,Tag0,unknown
1610201239521,200,-150,-3.2958984375E-5,0,0,123,233092,176616,16772447,30878,79932,77475,3361,20405,Tag0,unknown
1610201239533,200,-341,-7.492675781250002E-5,0,0,123,233092,176616,16772447,30878,79932,77475,3361,20405,Tag0,unknown
1610201239555,200,-378,-8.3056640625E-5,0,0,123,233092,176616,16772447,30878,79932,77475,3361,20405,Tag0,unknown
1610201239567,200,-381,-8.371582031250001E-5,0,0,123,233092,176616,16772447,30878,79932,77475,3361,20405,Tag0,unknown
1610201239597,200,11,2.4169921875E-6,0,0,123,233092,176616,16772447,30878,79932,77475,3361,20405,Tag0,unknown
1610201239616,200,34,7.4707031250000005E-6,0,0,123,233092,176616,16772447,30878,79932,77475,3361,20405,Tag0,unknown
1610201239639,200,52,1.142578125E-5,0,0,123,233092,176616,16772447,30878,79932,77475,3361,20405,Tag0,unknown
1610201239651,200,331,7.272949218750001E-5,0,0,123,233092,176616,16772447,30878,79932,77475,3361,20405,Tag0,unknown
1610201239661,200,140,3.076171875E-5,0,0,123,233092,176616,16772447,30878,79932,77475,3361,20405,Tag0,unknown
1610201239674,200,195,4.28466796875E-5,0,0,123,233092,176616,16772447,30878,79932,77475,3361,20405,Tag0,unknown
1610201239684,200,221,4.85595703125E-5,0,0,123,233092,176616,16772447,30878,79932,77475,3361,20405,Tag0,unknown
1610201239706,200,93,2.04345703125E-5,0,0,123,233092,176616,16772447,30878,79932,77475,3361,20405,Tag0,unknown
1610201239717,200,49,1.07666015625E-5,0,0,123,233092,176616,16772447,30878,79932,77475,3361,20405,Tag0,unknown
1610201239745,200,-371,-8.151855468750001E-5,0,0,123,233092,176616,16772447,30878,79932,77475,3361,20405,Tag0,unknown
1610201239755,200,22,4.833984375E-6,0,0,123,233092,176616,16772447,30878,79932,77475,3361,20405,Tag0,unknown
1610201239767,200,-361,-7.93212890625E-5,0,0,123,233092,176616,16772447,30878,79932,77475,3361,20405,Tag0,unknown
1610201239804,200,43,9.448242187500001E-6,0,0,123,233092,176616,16772447,30878,79932,77475,3361,20405,Tag0,unknown
1610201239816,200,26,5.712890625E-6,0,0,123,233092,176616,16772447,30878,79932,77475,3361,20405,Tag0,unknown
1610201239836,200,-193,-4.2407226562500005E-5,0,0,123,1825423,16765863,22274,9710,8762,24644,17620,2666,Tag0,unknown
1610201239857,200,-347,-7.62451171875E-5,0,0,123,1825423,16765863,22274,9710,8762,24644,17620,2666,Tag0,unknown
1610201239867,200,-333,-7.316894531249999E-5,0,0,123,1825423,16765863,22274,9710,8762,24644,17620,2666,Tag0,unknown
1610201239883,200,-279,-6.13037109375E-5,0,0,123,1825423,16765863,22274,9710,8762,24644,17620,2666,Tag0,unknown
1610201239901,200,546,1.1997070312500001E-4,0,0,123,1825423,16765863,22274,9710,8762,24644,17620,2666,Tag0,unknown
1610201239923,200,53,1.1645507812500002E-5,0,0,123,1825423,16765863,22274,9710,8762,24644,17620,2666,Tag0,unknown
1610201239933,200,44,9.66796875E-6,0,0,123,1825423,16765863,22274,9710,8762,24644,17620,2666,Tag0,unknown
1610201239957,200,65,1.42822265625E-5,0,0,123,1825423,16765863,22274,9710,8762,24644,17620,2666,Tag0,unknown
1610201239967,200,22,4.833984375E-6,0,0,123,1825423,16765863,22274,9710,8762,24644,17620,2666,Tag0,unknown
1610201239998,200,69,1.51611328125E-5,0,0,123,1825423,16765863,22274,9710,8762,24644,17620,2666,Tag0,unknown
1610201240016,200,104,2.28515625E-5,0,0,123,1825423,16765863,22274,9710,8762,24644,17620,2666,Tag0,unknown
1610201240026,200,97,2.13134765625E-5,0,0,123,1825423,16765863,22274,9710,8762,24644,17620,2666,Tag0,unknown
1610201240050,200,37,8.1298828125E-6,0,0,123,1825423,16765863,22274,9710,8762,24644,17620,2666,Tag0,unknown
1610201240078,200,-93,-2.04345703125E-5,0,0,123,1825423,16765863,22274,9710,8762,24644,17620,2666,Tag0,unknown
1610201240088,200,-9,-1.9775390625E-6,0,0,123,1825423,16765863,22274,9710,8762,24644,17620,2666,Tag0,unknown
1610201240100,200,-89,-1.95556640625E-5,0,0,123,1825423,16765863,22274,9710,8762,24644,17620,2666,Tag0,unknown
1610201240118,200,274,6.0205078124999997E-5,0,0,123,1825423,16765863,22274,9710,8762,24644,17620,2666,Tag0,unknown
1610201240143,200,-282,-6.1962890625E-5,0,0,123,1825423,16765863,22274,9710,8762,24644,17620,2666,Tag0,unknown
1610201240153,200,8,1.7578125E-6,0,0,123,1825423,16765863,22274,9710,8762,24644,17620,2666,Tag0,unknown
1610201240176,200,-293,-6.43798828125E-5,0,0,123,1825423,16765863,22274,9710,8762,24644,17620,2666,Tag0,unknown
1610201240186,200,-327,-7.18505859375E-5,0,0,123,1825423,16765863,22274,9710,8762,24644,17620,2666,Tag0,unknown
1610201240200,200,-139,-3.0541992187500004E-5,0,0,123,1825423,16765863,22274,9710,8762,24644,17620,2666,Tag0,unknown
1610201240226,200,-134,-2.9443359375000003E-5,0,0,123,1825423,16765863,22274,9710,8762,24644,17620,2666,Tag0,unknown
1610201240236,200,-293,-6.43798828125E-5,0,0,123,1825423,16765863,22274,9710,8762,24644,17620,2666,Tag0,unknown
1610201240249,200,-213,-4.68017578125E-5,0,0,123,1825423,16765863,22274,9710,8762,24644,17620,2666,Tag0,unknown
1610201240271,200,10,2.197265625E-6,0,0,123,1825423,16765863,22274,9710,8762,24644,17620,2666,Tag0,unknown
1610201240283,200,103,2.26318359375E-5,0,0,123,1825423,16765863,22274,9710,8762,24644,17620,2666,Tag0,unknown
1610201240299,200,621,1.364501953125E-4,0,0,123,1825423,16765863,22274,9710,8762,24644,17620,2666,Tag0,unknown
1610201240316,200,715,1.571044921875E-4,0,0,123,1825423,16765863,22274,9710,8762,24644,17620,2666,Tag0,unknown
1610201240341,200,521,1.1447753906250001E-4,0,0,123,1825423,16765863,22274,9710,8762,24644,17620,2666,Tag0,unknown
1610201240351,200,379,8.32763671875E-5,0,0,123,1825423,16765863,22274,9710,8762,24644,17620,2666,Tag0,unknown
1610201240369,200,-1060,-2.3291015625E-4,0,0,123,1825423,16765863,22274,9710,8762,24644,17620,2666,Tag0,unknown
1610201240385,200,-1545,-3.394775390625E-4,0,0,123,1825423,16765863,22274,9710,8762,24644,17620,2666,Tag0,unknown
1610201240405,200,-1393,-3.060791015625E-4,0,0,123,1825423,16765863,22274,9710,8762,24644,17620,2666,Tag0,unknown
1610201240417,200,-1339,-2.942138671875E-4,0,0,123,1825423,16765863,22274,9710,8762,24644,17620,2666,Tag0,unknown
1610201240447,200,-968,-2.1269531250000002E-4,0,0,123,1825423,16765863,22274,9710,8762,24644,17620,2666,Tag0,unknown
1610201240467,200,-1141,-2.5070800781250004E-4,0,0,123,1825423,16765863,22274,9710,8762,24644,17620,2666,Tag0,unknown
1610201240477,200,-133,-2.92236328125E-5,0,0,123,1825423,16765863,22274,9710,8762,24644,17620,2666,Tag0,unknown
1610201240488,200,123,2.70263671875E-5,0,0,123,1825423,16765863,22274,9710,8762,24644,17620,2666,Tag0,unknown
1610201240500,200,407,8.94287109375E-5,0,0,123,1825423,16765863,22274,9710,8762,24644,17620,2666,Tag0,unknown
1610201240516,200,1791,3.935302734375E-4,0,0,123,1825423,16765863,22274,9710,8762,24644,17620,2666,Tag0,unknown
1610201240549,200,1916,4.2099609375000004E-4,0,0,123,1825423,16765863,22274,9710,8762,24644,17620,2666,Tag0,unknown
1610201240567,200,1879,4.128662109375E-4,0,0,123,1825423,16765863,22274,9710,8762,24644,17620,2666,Tag0,unknown
1610201240598,200,313,6.87744140625E-5,0,0,123,1825423,16765863,22274,9710,8762,24644,17620,2666,Tag0,unknown
1610201240616,200,-89,-1.95556640625E-5,0,0,123,1825423,16765863,22274,9710,8762,24644,17620,2666,Tag0,unknown
1610201240626,200,73,1.6040039062500002E-5,0,0,123,1825423,16765863,22274,9710,8762,24644,17620,2666,Tag0,unknown
1610201240651,200,547,1.201904296875E-4,0,0,123,1825423,16765863,22274,9710,8762,24644,17620,2666,Tag0,unknown
1610201240661,200,-69,-1.51611328125E-5,0,0,123,1825423,16765863,22274,9710,8762,24644,17620,2666,Tag0,unknown
1610201240696,200,283,6.218261718750001E-5,0,0,123,1825423,16765863,22274,9710,8762,24644,17620,2666,Tag0,unknown
1610201240716,200,-95,-2.08740234375E-5,0,0,123,1825423,16765863,22274,9710,8762,24644,17620,2666,Tag0,unknown
1610201240747,200,-179,-3.93310546875E-5,0,0,123,1825423,16765863,22274,9710,8762,24644,17620,2666,Tag0,unknown
1610201240767,200,-373,-8.19580078125E-5,0,0,123,1825423,16765863,22274,9710,8762,24644,17620,2666,Tag0,unknown
1610201240777,200,-781,-1.716064453125E-4,0,0,123,1825423,16765863,22274,9710,8762,24644,17620,2666,Tag0,unknown
1610201240790,200,-212,-4.6582031250000006E-5,0,0,123,1825423,16765863,22274,9710,8762,24644,17620,2666,Tag0,unknown
1610201240801,200,-309,-6.78955078125E-5,0,0,123,1825423,16765863,22274,9710,8762,24644,17620,2666,Tag0,unknown
1610201240817,200,87,1.91162109375E-5,0,0,123,1825423,16765863,22274,9710,8762,24644,17620,2666,Tag0,unknown
1610201240837,200,89,1.95556640625E-5,0,0,123,685562,512465,83333,108614,113903,200602,17707,24564,Tag0,unknown
1610201240851,200,181,3.9770507812500004E-5,0,0,123,685562,512465,83333,108614,113903,200602,17707,24564,Tag0,unknown
1610201240872,200,-67,-1.4721679687500002E-5,0,0,123,685562,512465,83333,108614,113903,200602,17707,24564,Tag0,unknown
1610201240883,200,-15,-3.2958984375E-6,0,0,123,685562,512465,83333,108614,113903,200602,17707,24564,Tag0,unknown
1610201240900,200,155,3.40576171875E-5,0,0,123,685562,512465,83333,108614,113903,200602,17707,24564,Tag0,unknown
1610201240921,200,-13,-2.8564453125E-6,0,0,123,685562,512465,83333,108614,113903,200602,17707,24564,Tag0,unknown
1610201240931,200,-1339,-2.942138671875E-4,0,0,123,685562,512465,83333,108614,113903,200602,17707,24564,Tag0,unknown
1610201240941,200,-339,-7.448730468750001E-5,0,0,123,685562,512465,83333,108614,113903,200602,17707,24564,Tag0,unknown
1610201240974,200,322,7.0751953125E-5,0,0,123,685562,512465,83333,108614,113903,200602,17707,24564,Tag0,unknown
1610201240984,200,140,3.076171875E-5,0,0,123,685562,512465,83333,108614,113903,200602,17707,24564,Tag0,unknown
1610201241012,200,-305,-6.70166015625E-5,0,0,123,685562,512465,83333,108614,113903,200602,17707,24564,Tag0,unknown
1610201241033,200,-119,-2.6147460937500004E-5,0,0,123,685562,512465,83333,108614,113903,200602,17707,24564,Tag0,unknown
1610201241051,200,-54,-1.1865234375000001E-5,0,0,123,685562,512465,83333,108614,113903,200602,17707,24564,Tag0,unknown
1610201241067,200,517,1.135986328125E-4,0,0,123,685562,512465,83333,108614,113903,200602,17707,24564,Tag0,unknown
1610201241089,200,279,6.13037109375E-5,0,0,123,685562,512465,83333,108614,113903,200602,17707,24564,Tag0,unknown
1610201241100,200,-15,-3.2958984375E-6,0,0,123,685562,512465,83333,108614,113903,200602,17707,24564,Tag0,unknown
1610201241124,200,-343,-7.53662109375E-5,0,0,123,685562,512465,83333,108614,113903,200602,17707,24564,Tag0,unknown
1610201241134,200,-587,-1.2897949218750003E-4,0,0,123,685562,512465,83333,108614,113903,200602,17707,24564,Tag0,unknown
1610201241144,200,-775,-1.702880859375E-4,0,0,123,685562,512465,83333,108614,113903,200602,17707,24564,Tag0,unknown
1610201241160,200,-616,-1.353515625E-4,0,0,123,685562,512465,83333,108614,113903,200602,17707,24564,Tag0,unknown
1610201241170,200,-326,-7.163085937500001E-5,0,0,123,685562,512465,83333,108614,113903,200602,17707,24564,Tag0,unknown
1610201241198,200,-235,-5.16357421875E-5,0,0,123,685562,512465,83333,108614,113903,200602,17707,24564,Tag0,unknown
1610201241218,200,-535,-1.175537109375E-4,0,0,123,685562,512465,83333,108614,113903,200602,17707,24564,Tag0,unknown
1610201241228,200,-503,-1.105224609375E-4,0,0,123,685562,512465,83333,108614,113903,200602,17707,24564,Tag0,unknown
1610201241240,200,-633,-1.3908691406250002E-4,0,0,123,685562,512465,83333,108614,113903,200602,17707,24564,Tag0,unknown
1610201241250,200,-801,-1.760009765625E-4,0,0,123,685562,512465,83333,108614,113903,200602,17707,24564,Tag0,unknown
