timestampMs,poorSignal,eegRawValue,eegRawValueVolts,attention,meditation,blinkStrength,delta,theta,alphaLow,alphaHigh,betaLow,betaHigh,gammaLow,gammaMid,tagEvent,location
1610799531570,51,67,1.4721679687500002E-5,0,0,0,1384169,140042,16749719,16755870,16759696,16760283,84974,145681,Tag0,unknown
1610799531590,51,65,1.42822265625E-5,0,0,0,1384169,140042,16749719,16755870,16759696,16760283,84974,145681,Tag0,unknown
1610799531629,51,65,1.42822265625E-5,0,0,0,1384169,140042,16749719,16755870,16759696,16760283,84974,145681,Tag0,unknown
1610799531641,51,67,1.4721679687500002E-5,0,0,0,1384169,140042,16749719,16755870,16759696,16760283,84974,145681,Tag0,unknown
1610799531686,51,67,1.4721679687500002E-5,0,0,0,1384169,140042,16749719,16755870,16759696,16760283,84974,145681,Tag0,unknown
1610799531744,51,68,1.4941406250000001E-5,0,0,0,1384169,140042,16749719,16755870,16759696,16760283,84974,145681,Tag0,unknown
1610799531757,51,67,1.4721679687500002E-5,0,0,0,1384169,140042,16749719,16755870,16759696,16760283,84974,145681,Tag0,unknown
1610799531804,51,67,1.4721679687500002E-5,0,0,0,1384169,140042,16749719,16755870,16759696,16760283,84974,145681,Tag0,unknown
1610799531861,51,67,1.4721679687500002E-5,0,0,0,1384169,140042,16749719,16755870,16759696,16760283,84974,145681,Tag0,unknown
1610799531874,51,66,1.4501953125E-5,0,0,0,1384169,140042,16749719,16755870,16759696,16760283,84974,145681,Tag0,unknown
1610799531921,51,65,1.42822265625E-5,0,0,0,1384169,140042,16749719,16755870,16759696,16760283,84974,145681,Tag0,unknown
1610799531941,51,66,1.4501953125E-5,0,0,0,1384169,140042,16749719,16755870,16759696,16760283,84974,145681,Tag0,unknown
1610799531980,51,67,1.4721679687500002E-5,0,0,0,1384169,140042,16749719,16755870,16759696,16760283,84974,145681,Tag0,unknown
1610799531991,51,68,1.4941406250000001E-5,0,0,0,1384169,140042,16749719,16755870,16759696,16760283,84974,145681,Tag0,unknown
1610799532037,51,1791,3.935302734375E-4,0,0,0,1384169,140042,16749719,16755870,16759696,16760283,84974,145681,Tag0,unknown
1610799532058,51,1525,3.350830078125E-4,0,0,0,1384169,140042,16749719,16755870,16759696,16760283,84974,145681,Tag0,unknown
1610799532097,25,1340,2.9443359375E-4,0,0,0,284254,256621,202345,774717,1047048,582736,262512,47403,Tag0,unknown
1610799532109,25,1296,2.84765625E-4,0,0,0,284254,256621,202345,774717,1047048,582736,262512,47403,Tag0,unknown
1610799532125,25,-2048,-4.5E-4,0,0,0,284254,256621,202345,774717,1047048,582736,262512,47403,Tag0,unknown
1610799532147,25,-2048,-4.5E-4,0,0,0,284254,256621,202345,774717,1047048,582736,262512,47403,Tag0,unknown
1610799532158,25,-2048,-4.5E-4,0,0,0,284254,256621,202345,774717,1047048,582736,262512,47403,Tag0,unknown
1610799532175,25,-1670,-3.66943359375E-4,0,0,0,284254,256621,202345,774717,1047048,582736,262512,47403,Tag0,unknown
1610799532201,25,-1301,-2.858642578125E-4,0,0,0,284254,256621,202345,774717,1047048,582736,262512,47403,Tag0,unknown
1610799532211,25,-481,-1.056884765625E-4,0,0,0,284254,256621,202345,774717,1047048,582736,262512,47403,Tag0,unknown
1610799532250,25,-626,-1.37548828125E-4,0,0,0,284254,256621,202345,774717,1047048,582736,262512,47403,Tag0,unknown
1610799532260,25,-213,-4.68017578125E-5,0,0,0,284254,256621,202345,774717,1047048,582736,262512,47403,Tag0,unknown
1610799532289,25,-361,-7.93212890625E-5,0,0,0,284254,256621,202345,774717,1047048,582736,262512,47403,Tag0,unknown
1610799532322,25,-295,-6.48193359375E-5,0,0,0,284254,256621,202345,774717,1047048,582736,262512,47403,Tag0,unknown
1610799532342,25,-257,-5.64697265625E-5,0,0,0,284254,256621,202345,774717,1047048,582736,262512,47403,Tag0,unknown
1610799532360,25,24,5.2734375E-6,0,0,0,284254,256621,202345,774717,1047048,582736,262512,47403,Tag0,unknown
1610799532375,25,25,5.4931640625E-6,0,0,0,284254,256621,202345,774717,1047048,582736,262512,47403,Tag0,unknown
1610799532394,25,40,8.7890625E-6,0,0,0,284254,256621,202345,774717,1047048,582736,262512,47403,Tag0,unknown
1610799532409,25,39,8.5693359375E-6,0,0,0,284254,256621,202345,774717,1047048,582736,262512,47403,Tag0,unknown
1610799532434,25,55,1.20849609375E-5,0,0,0,284254,256621,202345,774717,1047048,582736,262512,47403,Tag0,unknown
1610799532467,25,59,1.29638671875E-5,0,0,0,284254,256621,202345,774717,1047048,582736,262512,47403,Tag0,unknown
1610799532477,25,64,1.40625E-5,0,0,0,284254,256621,202345,774717,1047048,582736,262512,47403,Tag0,unknown
1610799532509,25,61,1.34033203125E-5,0,0,0,284254,256621,202345,774717,1047048,582736,262512,47403,Tag0,unknown
1610799532525,25,65,1.42822265625E-5,0,0,0,284254,256621,202345,774717,1047048,582736,262512,47403,Tag0,unknown
1610799532542,25,65,1.42822265625E-5,0,0,0,284254,256621,202345,774717,1047048,582736,262512,47403,Tag0,unknown
1610799532559,25,65,1.42822265625E-5,0,0,0,284254,256621,202345,774717,1047048,582736,262512,47403,Tag0,unknown
1610799532581,25,65,1.42822265625E-5,0,0,0,284254,256621,202345,774717,1047048,582736,262512,47403,Tag0,unknown
1610799532592,25,66,1.4501953125E-5,0,0,0,284254,256621,202345,774717,1047048,582736,262512,47403,Tag0,unknown
1610799532615,25,66,1.4501953125E-5,0,0,0,284254,256621,202345,774717,1047048,582736,262512,47403,Tag0,unknown
1610799532626,25,66,1.4501953125E-5,0,0,0,284254,256621,202345,774717,1047048,582736,262512,47403,Tag0,unknown
1610799532652,25,66,1.4501953125E-5,0,0,0,284254,256621,202345,774717,1047048,582736,262512,47403,Tag0,unknown
1610799532686,25,66,1.4501953125E-5,0,0,0,284254,256621,202345,774717,1047048,582736,262512,47403,Tag0,unknown
1610799532709,25,65,1.42822265625E-5,0,0,0,284254,256621,202345,774717,1047048,582736,262512,47403,Tag0,unknown
1610799532726,25,66,1.4501953125E-5,0,0,0,284254,256621,202345,774717,1047048,582736,262512,47403,Tag0,unknown
1610799532743,25,66,1.4501953125E-5,0,0,0,284254,256621,202345,774717,1047048,582736,262512,47403,Tag0,unknown
1610799532760,25,67,1.4721679687500002E-5,0,0,0,284254,256621,202345,774717,1047048,582736,262512,47403,Tag0,unknown
1610799532776,25,66,1.4501953125E-5,0,0,0,284254,256621,202345,774717,1047048,582736,262512,47403,Tag0,unknown
1610799532799,25,67,1.4721679687500002E-5,0,0,0,284254,256621,202345,774717,1047048,582736,262512,47403,Tag0,unknown
1610799532809,25,66,1.4501953125E-5,0,0,0,284254,256621,202345,774717,1047048,582736,262512,47403,Tag0,unknown
1610799532835,25,66,1.4501953125E-5,0,0,0,284254,256621,202345,774717,1047048,582736,262512,47403,Tag0,unknown
1610799532845,25,1791,3.935302734375E-4,0,0,0,284254,256621,202345,774717,1047048,582736,262512,47403,Tag0,unknown
1610799532872,25,1791,3.935302734375E-4,0,0,0,284254,256621,202345,774717,1047048,582736,262512,47403,Tag0,unknown
1610799532906,25,1791,3.935302734375E-4,0,0,0,284254,256621,202345,774717,1047048,582736,262512,47403,Tag0,unknown
1610799532926,25,-2048,-4.5E-4,0,0,0,284254,256621,202345,774717,1047048,582736,262512,47403,Tag0,unknown
1610799532945,25,1791,3.935302734375E-4,0,0,0,284254,256621,202345,774717,1047048,582736,262512,47403,Tag0,unknown
1610799532959,25,1791,3.935302734375E-4,0,0,0,284254,256621,202345,774717,1047048,582736,262512,47403,Tag0,unknown
1610799532979,25,-2048,-4.5E-4,0,0,0,284254,256621,202345,774717,1047048,582736,262512,47403,Tag0,unknown
1610799532993,25,-2048,-4.5E-4,0,0,0,284254,256621,202345,774717,1047048,582736,262512,47403,Tag0,unknown
1610799533016,25,1192,2.619140625E-4,0,0,0,284254,256621,202345,774717,1047048,582736,262512,47403,Tag0,unknown
1610799533026,25,1398,3.07177734375E-4,0,0,0,284254,256621,202345,774717,1047048,582736,262512,47403,Tag0,unknown
1610799533050,25,757,1.663330078125E-4,0,0,0,284254,256621,202345,774717,1047048,582736,262512,47403,Tag0,unknown
1610799533060,25,1635,3.592529296875E-4,0,0,0,284254,256621,202345,774717,1047048,582736,262512,47403,Tag0,unknown
1610799533086,51,685,1.505126953125E-4,0,0,0,1278688,915227,310848,673065,142689,286080,83561,75626,Tag0,unknown
1610799533120,51,603,1.3249511718750002E-4,0,0,0,1278688,915227,310848,673065,142689,286080,83561,75626,Tag0,unknown
1610799533177,51,-2048,-4.5E-4,0,0,0,1278688,915227,310848,673065,142689,286080,83561,75626,Tag0,unknown
1610799533193,51,-2048,-4.5E-4,0,0,0,1278688,915227,310848,673065,142689,286080,83561,75626,Tag0,unknown
1610799533242,51,-2157,-4.739501953125E-4,0,0,0,1278688,915227,310848,673065,142689,286080,83561,75626,Tag0,unknown
1610799533260,51,-2071,-4.5505371093750003E-4,0,0,0,1278688,915227,310848,673065,142689,286080,83561,75626,Tag0,unknown
1610799533304,51,-2048,-4.5E-4,0,0,0,1278688,915227,310848,673065,142689,286080,83561,75626,Tag0,unknown
1610799533327,51,-2165,-4.757080078125E-4,0,0,0,1278688,915227,310848,673065,142689,286080,83561,75626,Tag0,unknown
1610799533364,51,-1153,-2.533447265625E-4,0,0,0,1278688,915227,310848,673065,142689,286080,83561,75626,Tag0,unknown
1610799533377,51,-1364,-2.9970703125000006E-4,0,0,0,1278688,915227,310848,673065,142689,286080,83561,75626,Tag0,unknown
1610799533416,51,-411,-9.03076171875E-5,0,0,0,1278688,915227,310848,673065,142689,286080,83561,75626,Tag0,unknown
1610799533427,51,-393,-8.63525390625E-5,0,0,0,1278688,915227,310848,673065,142689,286080,83561,75626,Tag0,unknown
1610799533454,51,-377,-8.28369140625E-5,0,0,0,1278688,915227,310848,673065,142689,286080,83561,75626,Tag0,unknown
1610799533477,51,-309,-6.78955078125E-5,0,0,0,1278688,915227,310848,673065,142689,286080,83561,75626,Tag0,unknown
1610799533495,51,-263,-5.7788085937500005E-5,0,0,0,1278688,915227,310848,673065,142689,286080,83561,75626,Tag0,unknown
1610799533511,51,-260,-5.712890625E-5,0,0,0,1278688,915227,310848,673065,142689,286080,83561,75626,Tag0,unknown
1610799533529,51,20,4.39453125E-6,0,0,0,1278688,915227,310848,673065,142689,286080,83561,75626,Tag0,unknown
1610799533544,51,22,4.833984375E-6,0,0,0,1278688,915227,310848,673065,142689,286080,83561,75626,Tag0,unknown
1610799533570,51,49,1.07666015625E-5,0,0,0,1278688,915227,310848,673065,142689,286080,83561,75626,Tag0,unknown
1610799533580,51,56,1.23046875E-5,0,0,0,1278688,915227,310848,673065,142689,286080,83561,75626,Tag0,unknown
1610799533604,51,54,1.1865234375000001E-5,0,0,0,1278688,915227,310848,673065,142689,286080,83561,75626,Tag0,unknown
1610799533614,51,61,1.34033203125E-5,0,0,0,1278688,915227,310848,673065,142689,286080,83561,75626,Tag0,unknown
1610799533641,51,60,1.318359375E-5,0,0,0,1278688,915227,310848,673065,142689,286080,83561,75626,Tag0,unknown
1610799533675,51,64,1.40625E-5,0,0,0,1278688,915227,310848,673065,142689,286080,83561,75626,Tag0,unknown
1610799533694,51,65,1.42822265625E-5,0,0,0,1278688,915227,310848,673065,142689,286080,83561,75626,Tag0,unknown
1610799533715,51,65,1.42822265625E-5,0,0,0,1278688,915227,310848,673065,142689,286080,83561,75626,Tag0,unknown
1610799533728,51,65,1.42822265625E-5,0,0,0,1278688,915227,310848,673065,142689,286080,83561,75626,Tag0,unknown
1610799533751,51,66,1.4501953125E-5,0,0,0,1278688,915227,310848,673065,142689,286080,83561,75626,Tag0,unknown
1610799533761,51,65,1.42822265625E-5,0,0,0,1278688,915227,310848,673065,142689,286080,83561,75626,Tag0,unknown
1610799533806,51,66,1.4501953125E-5,0,0,0,1278688,915227,310848,673065,142689,286080,83561,75626,Tag0,unknown
1610799533851,51,67,1.4721679687500002E-5,0,0,0,1278688,915227,310848,673065,142689,286080,83561,75626,Tag0,unknown
1610799533861,51,66,1.4501953125E-5,0,0,0,1278688,915227,310848,673065,142689,286080,83561,75626,Tag0,unknown
1610799533901,51,66,1.4501953125E-5,0,0,0,1278688,915227,310848,673065,142689,286080,83561,75626,Tag0,unknown
1610799533912,51,66,1.4501953125E-5,0,0,0,1278688,915227,310848,673065,142689,286080,83561,75626,Tag0,unknown
1610799533959,51,67,1.4721679687500002E-5,0,0,0,1278688,915227,310848,673065,142689,286080,83561,75626,Tag0,unknown
1610799533979,51,67,1.4721679687500002E-5,0,0,0,1278688,915227,310848,673065,142689,286080,83561,75626,Tag0,unknown
1610799534009,51,67,1.4721679687500002E-5,0,0,0,1278688,915227,310848,673065,142689,286080,83561,75626,Tag0,unknown
1610799534029,51,66,1.4501953125E-5,0,0,0,1278688,915227,310848,673065,142689,286080,83561,75626,Tag0,unknown
1610799534062,51,67,1.4721679687500002E-5,0,0,0,248918,16756881,5218,17759,18217,16747965,36633,16769386,Tag0,unknown
1610799534094,51,67,1.4721679687500002E-5,0,0,0,248918,16756881,5218,17759,18217,16747965,36633,16769386,Tag0,unknown
1610799534112,51,66,1.4501953125E-5,0,0,0,248918,16756881,5218,17759,18217,16747965,36633,16769386,Tag0,unknown
1610799534129,51,66,1.4501953125E-5,0,0,0,248918,16756881,5218,17759,18217,16747965,36633,16769386,Tag0,unknown
1610799534146,51,67,1.4721679687500002E-5,0,0,0,248918,16756881,5218,17759,18217,16747965,36633,16769386,Tag0,unknown
1610799534167,51,67,1.4721679687500002E-5,0,0,0,248918,16756881,5218,17759,18217,16747965,36633,16769386,Tag0,unknown
1610799534179,51,66,1.4501953125E-5,0,0,0,248918,16756881,5218,17759,18217,16747965,36633,16769386,Tag0,unknown
1610799534206,51,67,1.4721679687500002E-5,0,0,0,248918,16756881,5218,17759,18217,16747965,36633,16769386,Tag0,unknown
1610799534216,51,66,1.4501953125E-5,0,0,0,248918,16756881,5218,17759,18217,16747965,36633,16769386,Tag0,unknown
1610799534226,51,66,1.4501953125E-5,0,0,0,248918,16756881,5218,17759,18217,16747965,36633,16769386,Tag0,unknown
1610799534237,51,66,1.4501953125E-5,0,0,0,248918,16756881,5218,17759,18217,16747965,36633,16769386,Tag0,unknown
1610799534250,51,66,1.4501953125E-5,0,0,0,248918,16756881,5218,17759,18217,16747965,36633,16769386,Tag0,unknown
1610799534275,51,66,1.4501953125E-5,0,0,0,248918,16756881,5218,17759,18217,16747965,36633,16769386,Tag0,unknown
1610799534285,51,67,1.4721679687500002E-5,0,0,0,248918,16756881,5218,17759,18217,16747965,36633,16769386,Tag0,unknown
1610799534300,51,66,1.4501953125E-5,0,0,0,248918,16756881,5218,17759,18217,16747965,36633,16769386,Tag0,unknown
1610799534317,51,66,1.4501953125E-5,0,0,0,248918,16756881,5218,17759,18217,16747965,36633,16769386,Tag0,unknown
1610799534333,51,66,1.4501953125E-5,0,0,0,248918,16756881,5218,17759,18217,16747965,36633,16769386,Tag0,unknown
1610799534351,51,68,1.4941406250000001E-5,0,0,0,248918,16756881,5218,17759,18217,16747965,36633,16769386,Tag0,unknown
1610799534367,51,67,1.4721679687500002E-5,0,0,0,248918,16756881,5218,17759,18217,16747965,36633,16769386,Tag0,unknown
1610799534377,51,67,1.4721679687500002E-5,0,0,0,248918,16756881,5218,17759,18217,16747965,36633,16769386,Tag0,unknown
1610799534388,51,67,1.4721679687500002E-5,0,0,0,248918,16756881,5218,17759,18217,16747965,36633,16769386,Tag0,unknown
1610799534399,51,67,1.4721679687500002E-5,0,0,0,248918,16756881,5218,17759,18217,16747965,36633,16769386,Tag0,unknown
1610799534421,51,66,1.4501953125E-5,0,0,0,248918,16756881,5218,17759,18217,16747965,36633,16769386,Tag0,unknown
1610799534432,51,67,1.4721679687500002E-5,0,0,0,248918,16756881,5218,17759,18217,16747965,36633,16769386,Tag0,unknown
1610799534442,51,66,1.4501953125E-5,0,0,0,248918,16756881,5218,17759,18217,16747965,36633,16769386,Tag0,unknown
1610799534461,51,67,1.4721679687500002E-5,0,0,0,248918,16756881,5218,17759,18217,16747965,36633,16769386,Tag0,unknown
1610799534482,51,66,1.4501953125E-5,0,0,0,248918,16756881,5218,17759,18217,16747965,36633,16769386,Tag0,unknown
1610799534499,51,66,1.4501953125E-5,0,0,0,248918,16756881,5218,17759,18217,16747965,36633,16769386,Tag0,unknown
1610799534516,51,67,1.4721679687500002E-5,0,0,0,248918,16756881,5218,17759,18217,16747965,36633,16769386,Tag0,unknown
1610799534534,51,67,1.4721679687500002E-5,0,0,0,248918,16756881,5218,17759,18217,16747965,36633,16769386,Tag0,unknown
1610799534552,51,66,1.4501953125E-5,0,0,0,248918,16756881,5218,17759,18217,16747965,36633,16769386,Tag0,unknown
1610799534567,51,66,1.4501953125E-5,0,0,0,248918,16756881,5218,17759,18217,16747965,36633,16769386,Tag0,unknown
1610799534577,51,66,1.4501953125E-5,0,0,0,248918,16756881,5218,17759,18217,16747965,36633,16769386,Tag0,unknown
1610799534587,51,67,1.4721679687500002E-5,0,0,0,248918,16756881,5218,17759,18217,16747965,36633,16769386,Tag0,unknown
1610799534600,51,67,1.4721679687500002E-5,0,0,0,248918,16756881,5218,17759,18217,16747965,36633,16769386,Tag0,unknown
1610799534618,51,66,1.4501953125E-5,0,0,0,248918,16756881,5218,17759,18217,16747965,36633,16769386,Tag0,unknown
1610799534634,51,66,1.4501953125E-5,0,0,0,248918,16756881,5218,17759,18217,16747965,36633,16769386,Tag0,unknown
1610799534644,51,67,1.4721679687500002E-5,0,0,0,248918,16756881,5218,17759,18217,16747965,36633,16769386,Tag0,unknown
1610799534656,51,66,1.4501953125E-5,0,0,0,248918,16756881,5218,17759,18217,16747965,36633,16769386,Tag0,unknown
1610799534666,51,66,1.4501953125E-5,0,0,0,248918,16756881,5218,17759,18217,16747965,36633,16769386,Tag0,unknown
1610799534708,51,67,1.4721679687500002E-5,0,0,0,248918,16756881,5218,17759,18217,16747965,36633,16769386,Tag0,unknown
1610799534718,51,66,1.4501953125E-5,0,0,0,248918,16756881,5218,17759,18217,16747965,36633,16769386,Tag0,unknown
1610799534728,51,66,1.4501953125E-5,0,0,0,248918,16756881,5218,17759,18217,16747965,36633,16769386,Tag0,unknown
1610799534750,51,67,1.4721679687500002E-5,0,0,0,248918,16756881,5218,17759,18217,16747965,36633,16769386,Tag0,unknown
1610799534764,51,66,1.4501953125E-5,0,0,0,248918,16756881,5218,17759,18217,16747965,36633,16769386,Tag0,unknown
1610799534781,51,66,1.4501953125E-5,0,0,0,248918,16756881,5218,17759,18217,16747965,36633,16769386,Tag0,unknown
1610799534798,51,66,1.4501953125E-5,0,0,0,248918,16756881,5218,17759,18217,16747965,36633,16769386,Tag0,unknown
1610799534816,51,66,1.4501953125E-5,0,0,0,248918,16756881,5218,17759,18217,16747965,36633,16769386,Tag0,unknown
1610799534833,51,66,1.4501953125E-5,0,0,0,248918,16756881,5218,17759,18217,16747965,36633,16769386,Tag0,unknown
1610799534843,51,66,1.4501953125E-5,0,0,0,248918,16756881,5218,17759,18217,16747965,36633,16769386,Tag0,unknown
1610799534867,51,66,1.4501953125E-5,0,0,0,248918,16756881,5218,17759,18217,16747965,36633,16769386,Tag0,unknown
1610799534885,51,67,1.4721679687500002E-5,0,0,0,248918,16756881,5218,17759,18217,16747965,36633,16769386,Tag0,unknown
1610799534902,51,66,1.4501953125E-5,0,0,0,248918,16756881,5218,17759,18217,16747965,36633,16769386,Tag0,unknown
1610799534912,51,67,1.4721679687500002E-5,0,0,0,248918,16756881,5218,17759,18217,16747965,36633,16769386,Tag0,unknown
1610799534928,51,66,1.4501953125E-5,0,0,0,248918,16756881,5218,17759,18217,16747965,36633,16769386,Tag0,unknown
1610799534938,51,67,1.4721679687500002E-5,0,0,0,248918,16756881,5218,17759,18217,16747965,36633,16769386,Tag0,unknown
1610799534951,51,66,1.4501953125E-5,0,0,0,248918,16756881,5218,17759,18217,16747965,36633,16769386,Tag0,unknown
1610799534968,51,66,1.4501953125E-5,0,0,0,248918,16756881,5218,17759,18217,16747965,36633,16769386,Tag0,unknown
1610799534978,51,65,1.42822265625E-5,0,0,0,248918,16756881,5218,17759,18217,16747965,36633,16769386,Tag0,unknown
1610799534988,51,67,1.4721679687500002E-5,0,0,0,248918,16756881,5218,17759,18217,16747965,36633,16769386,Tag0,unknown
1610799535002,51,66,1.4501953125E-5,0,0,0,248918,16756881,5218,17759,18217,16747965,36633,16769386,Tag0,unknown
1610799535015,51,65,1.42822265625E-5,0,0,0,248918,16756881,5218,17759,18217,16747965,36633,16769386,Tag0,unknown
1610799535033,51,66,1.4501953125E-5,0,0,0,248918,16756881,5218,17759,18217,16747965,36633,16769386,Tag0,unknown
1610799535052,51,66,1.4501953125E-5,0,0,0,248918,16756881,5218,17759,18217,16747965,36633,16769386,Tag0,unknown
1610799535072,54,66,1.4501953125E-5,0,0,0,0,0,0,0,0,0,0,0,Tag0,unknown
1610799535082,54,68,1.4941406250000001E-5,0,0,0,0,0,0,0,0,0,0,0,Tag0,unknown
1610799535110,54,68,1.4941406250000001E-5,0,0,0,0,0,0,0,0,0,0,0,Tag0,unknown
1610799535120,54,67,1.4721679687500002E-5,0,0,0,0,0,0,0,0,0,0,0,Tag0,unknown
1610799535143,54,67,1.4721679687500002E-5,0,0,0,0,0,0,0,0,0,0,0,Tag0,unknown
1610799535153,54,67,1.4721679687500002E-5,0,0,0,0,0,0,0,0,0,0,0,Tag0,unknown
1610799535167,54,67,1.4721679687500002E-5,0,0,0,0,0,0,0,0,0,0,0,Tag0,unknown
1610799535184,54,66,1.4501953125E-5,0,0,0,0,0,0,0,0,0,0,0,Tag0,unknown
1610799535200,54,66,1.4501953125E-5,0,0,0,0,0,0,0,0,0,0,0,Tag0,unknown
1610799535217,54,68,1.4941406250000001E-5,0,0,0,0,0,0,0,0,0,0,0,Tag0,unknown
1610799535245,54,67,1.4721679687500002E-5,0,0,0,0,0,0,0,0,0,0,0,Tag0,unknown
1610799535255,54,66,1.4501953125E-5,0,0,0,0,0,0,0,0,0,0,0,Tag0,unknown
1610799535269,54,66,1.4501953125E-5,0,0,0,0,0,0,0,0,0,0,0,Tag0,unknown
1610799535283,54,66,1.4501953125E-5,0,0,0,0,0,0,0,0,0,0,0,Tag0,unknown
1610799535300,54,66,1.4501953125E-5,0,0,0,0,0,0,0,0,0,0,0,Tag0,unknown
1610799535318,54,67,1.4721679687500002E-5,0,0,0,0,0,0,0,0,0,0,0,Tag0,unknown
1610799535334,54,66,1.4501953125E-5,0,0,0,0,0,0,0,0,0,0,0,Tag0,unknown
1610799535344,54,66,1.4501953125E-5,0,0,0,0,0,0,0,0,0,0,0,Tag0,unknown
1610799535434,54,68,1.4941406250000001E-5,0,0,0,0,0,0,0,0,0,0,0,Tag0,unknown
1610799535458,54,66,1.4501953125E-5,0,0,0,0,0,0,0,0,0,0,0,Tag0,unknown
1610799535468,54,66,1.4501953125E-5,0,0,0,0,0,0,0,0,0,0,0,Tag0,unknown
1610799535500,54,66,1.4501953125E-5,0,0,0,0,0,0,0,0,0,0,0,Tag0,unknown
1610799535519,54,66,1.4501953125E-5,0,0,0,0,0,0,0,0,0,0,0,Tag0,unknown
1610799535566,54,67,1.4721679687500002E-5,0,0,0,0,0,0,0,0,0,0,0,Tag0,unknown
1610799535591,54,66,1.4501953125E-5,0,0,0,0,0,0,0,0,0,0,0,Tag0,unknown
1610799535602,54,66,1.4501953125E-5,0,0,0,0,0,0,0,0,0,0,0,Tag0,unknown
1610799535634,54,66,1.4501953125E-5,0,0,0,0,0,0,0,0,0,0,0,Tag0,unknown
1610799535652,54,67,1.4721679687500002E-5,0,0,0,0,0,0,0,0,0,0,0,Tag0,unknown
1610799535702,54,67,1.4721679687500002E-5,0,0,0,0,0,0,0,0,0,0,0,Tag0,unknown
1610799535724,54,66,1.4501953125E-5,0,0,0,0,0,0,0,0,0,0,0,Tag0,unknown
1610799535734,54,67,1.4721679687500002E-5,0,0,0,0,0,0,0,0,0,0,0,Tag0,unknown
1610799535769,54,67,1.4721679687500002E-5,0,0,0,0,0,0,0,0,0,0,0,Tag0,unknown
1610799535785,54,68,1.4941406250000001E-5,0,0,0,0,0,0,0,0,0,0,0,Tag0,unknown
1610799535805,54,66,1.4501953125E-5,0,0,0,0,0,0,0,0,0,0,0,Tag0,unknown
1610799535821,54,67,1.4721679687500002E-5,0,0,0,0,0,0,0,0,0,0,0,Tag0,unknown
1610799535831,54,68,1.4941406250000001E-5,0,0,0,0,0,0,0,0,0,0,0,Tag0,unknown
1610799535844,54,66,1.4501953125E-5,0,0,0,0,0,0,0,0,0,0,0,Tag0,unknown
1610799535854,54,67,1.4721679687500002E-5,0,0,0,0,0,0,0,0,0,0,0,Tag0,unknown
1610799535865,54,67,1.4721679687500002E-5,0,0,0,0,0,0,0,0,0,0,0,Tag0,unknown
1610799535875,54,66,1.4501953125E-5,0,0,0,0,0,0,0,0,0,0,0,Tag0,unknown
1610799535893,54,66,1.4501953125E-5,0,0,0,0,0,0,0,0,0,0,0,Tag0,unknown
1610799535903,54,66,1.4501953125E-5,0,0,0,0,0,0,0,0,0,0,0,Tag0,unknown
1610799535927,54,67,1.4721679687500002E-5,0,0,0,0,0,0,0,0,0,0,0,Tag0,unknown
1610799535937,54,67,1.4721679687500002E-5,0,0,0,0,0,0,0,0,0,0,0,Tag0,unknown
1610799535988,54,66,1.4501953125E-5,0,0,0,0,0,0,0,0,0,0,0,Tag0,unknown
1610799536007,54,66,1.4501953125E-5,0,0,0,0,0,0,0,0,0,0,0,Tag0,unknown
1610799536017,54,67,1.4721679687500002E-5,0,0,0,0,0,0,0,0,0,0,0,Tag0,unknown
1610799536032,54,66,1.4501953125E-5,0,0,0,0,0,0,0,0,0,0,0,Tag0,unknown
1610799536042,54,66,1.4501953125E-5,0,0,0,0,0,0,0,0,0,0,0,Tag0,unknown
1610799536053,54,66,1.4501953125E-5,0,0,0,0,0,0,0,0,0,0,0,Tag0,unknown
1610799536070,54,66,1.4501953125E-5,0,0,0,0,0,0,0,0,0,0,0,Tag0,unknown
1610799536084,54,67,1.4721679687500002E-5,0,0,0,0,0,0,0,0,0,0,0,Tag0,unknown
1610799536101,54,67,1.4721679687500002E-5,0,0,0,0,0,0,0,0,0,0,0,Tag0,unknown
1610799536118,54,66,1.4501953125E-5,0,0,0,0,0,0,0,0,0,0,0,Tag0,unknown
1610799536136,54,65,1.42822265625E-5,0,0,0,0,0,0,0,0,0,0,0,Tag0,unknown
1610799536154,54,66,1.4501953125E-5,0,0,0,0,0,0,0,0,0,0,0,Tag0,unknown
1610799536164,54,65,1.42822265625E-5,0,0,0,0,0,0,0,0,0,0,0,Tag0,unknown
1610799536174,54,67,1.4721679687500002E-5,0,0,0,0,0,0,0,0,0,0,0,Tag0,unknown
1610799536186,54,67,1.4721679687500002E-5,0,0,0,0,0,0,0,0,0,0,0,Tag0,unknown
1610799536210,54,67,1.4721679687500002E-5,0,0,0,0,0,0,0,0,0,0,0,Tag0,unknown
1610799536221,54,67,1.4721679687500002E-5,0,0,0,0,0,0,0,0,0,0,0,Tag0,unknown
1610799536231,54,65,1.42822265625E-5,0,0,0,0,0,0,0,0,0,0,0,Tag0,unknown
1610799536241,54,67,1.4721679687500002E-5,0,0,0,0,0,0,0,0,0,0,0,Tag0,unknown
1610799536252,54,65,1.42822265625E-5,0,0,0,0,0,0,0,0,0,0,0,Tag0,unknown
1610799536268,54,67,1.4721679687500002E-5,0,0,0,0,0,0,0,0,0,0,0,Tag0,unknown
1610799536285,54,67,1.4721679687500002E-5,0,0,0,0,0,0,0,0,0,0,0,Tag0,unknown
1610799536304,54,65,1.42822265625E-5,0,0,0,0,0,0,0,0,0,0,0,Tag0,unknown
1610799536314,54,66,1.4501953125E-5,0,0,0,0,0,0,0,0,0,0,0,Tag0,unknown
1610799536327,54,67,1.4721679687500002E-5,0,0,0,0,0,0,0,0,0,0,0,Tag0,unknown
1610799536354,54,67,1.4721679687500002E-5,0,0,0,0,0,0,0,0,0,0,0,Tag0,unknown
1610799536370,54,66,1.4501953125E-5,0,0,0,0,0,0,0,0,0,0,0,Tag0,unknown
1610799536380,54,67,1.4721679687500002E-5,0,0,0,0,0,0,0,0,0,0,0,Tag0,unknown
1610799536393,54,67,1.4721679687500002E-5,0,0,0,0,0,0,0,0,0,0,0,Tag0,unknown
1610799536404,54,66,1.4501953125E-5,0,0,0,0,0,0,0,0,0,0,0,Tag0,unknown
1610799536426,54,66,1.4501953125E-5,0,0,0,0,0,0,0,0,0,0,0,Tag0,unknown
1610799536437,54,66,1.4501953125E-5,0,0,0,0,0,0,0,0,0,0,0,Tag0,unknown
1610799536447,54,66,1.4501953125E-5,0,0,0,0,0,0,0,0,0,0,0,Tag0,unknown
1610799536463,54,66,1.4501953125E-5,0,0,0,0,0,0,0,0,0,0,0,Tag0,unknown
1610799536485,54,67,1.4721679687500002E-5,0,0,0,0,0,0,0,0,0,0,0,Tag0,unknown
1610799536502,54,65,1.42822265625E-5,0,0,0,0,0,0,0,0,0,0,0,Tag0,unknown
1610799536520,54,66,1.4501953125E-5,0,0,0,0,0,0,0,0,0,0,0,Tag0,unknown
1610799536530,54,67,1.4721679687500002E-5,0,0,0,0,0,0,0,0,0,0,0,Tag0,unknown
1610799536542,54,66,1.4501953125E-5,0,0,0,0,0,0,0,0,0,0,0,Tag0,unknown
1610799536554,54,67,1.4721679687500002E-5,0,0,0,0,0,0,0,0,0,0,0,Tag0,unknown
1610799536579,54,66,1.4501953125E-5,0,0,0,0,0,0,0,0,0,0,0,Tag0,unknown
1610799536589,54,68,1.4941406250000001E-5,0,0,0,0,0,0,0,0,0,0,0,Tag0,unknown
1610799536603,54,66,1.4501953125E-5,0,0,0,0,0,0,0,0,0,0,0,Tag0,unknown
1610799536613,54,66,1.4501953125E-5,0,0,0,0,0,0,0,0,0,0,0,Tag0,unknown
1610799536624,54,66,1.4501953125E-5,0,0,0,0,0,0,0,0,0,0,0,Tag0,unknown
1610799536647,54,67,1.4721679687500002E-5,0,0,0,0,0,0,0,0,0,0,0,Tag0,unknown
1610799536669,54,66,1.4501953125E-5,0,0,0,0,0,0,0,0,0,0,0,Tag0,unknown
1610799536685,54,66,1.4501953125E-5,0,0,0,0,0,0,0,0,0,0,0,Tag0,unknown
1610799536705,54,66,1.4501953125E-5,0,0,0,0,0,0,0,0,0,0,0,Tag0,unknown
1610799536722,54,66,1.4501953125E-5,0,0,0,0,0,0,0,0,0,0,0,Tag0,unknown
1610799536739,54,67,1.4721679687500002E-5,0,0,0,0,0,0,0,0,0,0,0,Tag0,unknown
1610799536749,54,67,1.4721679687500002E-5,0,0,0,0,0,0,0,0,0,0,0,Tag0,unknown
1610799536771,54,66,1.4501953125E-5,0,0,0,0,0,0,0,0,0,0,0,Tag0,unknown
1610799536790,54,67,1.4721679687500002E-5,0,0,0,0,0,0,0,0,0,0,0,Tag0,unknown
1610799536804,54,67,1.4721679687500002E-5,0,0,0,0,0,0,0,0,0,0,0,Tag0,unknown
1610799536814,54,67,1.4721679687500002E-5,0,0,0,0,0,0,0,0,0,0,0,Tag0,unknown
1610799536830,54,67,1.4721679687500002E-5,0,0,0,0,0,0,0,0,0,0,0,Tag0,unknown
1610799536840,54,67,1.4721679687500002E-5,0,0,0,0,0,0,0,0,0,0,0,Tag0,unknown
1610799536869,54,66,1.4501953125E-5,0,0,0,0,0,0,0,0,0,0,0,Tag0,unknown
1610799536889,54,66,1.4501953125E-5,0,0,0,0,0,0,0,0,0,0,0,Tag0,unknown
1610799536899,54,65,1.42822265625E-5,0,0,0,0,0,0,0,0,0,0,0,Tag0,unknown
1610799536911,54,66,1.4501953125E-5,0,0,0,0,0,0,0,0,0,0,0,Tag0,unknown
1610799536921,54,67,1.4721679687500002E-5,0,0,0,0,0,0,0,0,0,0,0,Tag0,unknown
1610799536939,54,67,1.4721679687500002E-5,0,0,0,0,0,0,0,0,0,0,0,Tag0,unknown
1610799536955,54,67,1.4721679687500002E-5,0,0,0,0,0,0,0,0,0,0,0,Tag0,unknown
1610799536965,54,66,1.4501953125E-5,0,0,0,0,0,0,0,0,0,0,0,Tag0,unknown
1610799536978,54,67,1.4721679687500002E-5,0,0,0,0,0,0,0,0,0,0,0,Tag0,unknown
1610799536988,54,66,1.4501953125E-5,0,0,0,0,0,0,0,0,0,0,0,Tag0,unknown
1610799537012,54,66,1.4501953125E-5,0,0,0,0,0,0,0,0,0,0,0,Tag0,unknown
1610799537022,54,66,1.4501953125E-5,0,0,0,0,0,0,0,0,0,0,0,Tag0,unknown
1610799537032,54,67,1.4721679687500002E-5,0,0,0,0,0,0,0,0,0,0,0,Tag0,unknown
1610799537057,54,66,1.4501953125E-5,0,0,0,0,0,0,0,0,0,0,0,Tag0,unknown
1610799537070,54,67,1.4721679687500002E-5,0,0,0,0,0,0,0,0,0,0,0,Tag0,unknown
1610799537089,54,70,1.5380859375E-5,0,0,0,0,0,0,0,0,0,0,0,Tag0,unknown
1610799537103,54,67,1.4721679687500002E-5,0,0,0,0,0,0,0,0,0,0,0,Tag0,unknown
1610799537123,54,66,1.4501953125E-5,0,0,0,0,0,0,0,0,0,0,0,Tag0,unknown
1610799537138,54,67,1.4721679687500002E-5,0,0,0,0,0,0,0,0,0,0,0,Tag0,unknown
1610799537148,54,65,1.42822265625E-5,0,0,0,0,0,0,0,0,0,0,0,Tag0,unknown
1610799537162,54,66,1.4501953125E-5,0,0,0,0,0,0,0,0,0,0,0,Tag0,unknown
1610799537173,54,66,1.4501953125E-5,0,0,0,0,0,0,0,0,0,0,0,Tag0,unknown
1610799537189,54,66,1.4501953125E-5,0,0,0,0,0,0,0,0,0,0,0,Tag0,unknown
1610799537205,54,67,1.4721679687500002E-5,0,0,0,0,0,0,0,0,0,0,0,Tag0,unknown
1610799537222,54,66,1.4501953125E-5,0,0,0,0,0,0,0,0,0,0,0,Tag0,unknown
1610799537239,54,65,1.42822265625E-5,0,0,0,0,0,0,0,0,0,0,0,Tag0,unknown
1610799537255,54,68,1.4941406250000001E-5,0,0,0,0,0,0,0,0,0,0,0,Tag0,unknown
1610799537272,54,66,1.4501953125E-5,0,0,0,0,0,0,0,0,0,0,0,Tag0,unknown
1610799537289,54,66,1.4501953125E-5,0,0,0,0,0,0,0,0,0,0,0,Tag0,unknown
1610799537304,54,67,1.4721679687500002E-5,0,0,0,0,0,0,0,0,0,0,0,Tag0,unknown
1610799537320,54,67,1.4721679687500002E-5,0,0,0,0,0,0,0,0,0,0,0,Tag0,unknown
1610799537337,54,65,1.42822265625E-5,0,0,0,0,0,0,0,0,0,0,0,Tag0,unknown
1610799537354,54,66,1.4501953125E-5,0,0,0,0,0,0,0,0,0,0,0,Tag0,unknown
1610799537375,54,66,1.4501953125E-5,0,0,0,0,0,0,0,0,0,0,0,Tag0,unknown
1610799537392,54,66,1.4501953125E-5,0,0,0,0,0,0,0,0,0,0,0,Tag0,unknown
1610799537402,54,66,1.4501953125E-5,0,0,0,0,0,0,0,0,0,0,0,Tag0,unknown
1610799537412,54,67,1.4721679687500002E-5,0,0,0,0,0,0,0,0,0,0,0,Tag0,unknown
1610799537442,54,67,1.4721679687500002E-5,0,0,0,0,0,0,0,0,0,0,0,Tag0,unknown
1610799537454,54,67,1.4721679687500002E-5,0,0,0,0,0,0,0,0,0,0,0,Tag0,unknown
1610799537478,54,66,1.4501953125E-5,0,0,0,0,0,0,0,0,0,0,0,Tag0,unknown
1610799537488,54,66,1.4501953125E-5,0,0,0,0,0,0,0,0,0,0,0,Tag0,unknown
1610799537498,54,68,1.4941406250000001E-5,0,0,0,0,0,0,0,0,0,0,0,Tag0,unknown
1610799537515,54,67,1.4721679687500002E-5,0,0,0,0,0,0,0,0,0,0,0,Tag0,unknown
1610799537525,54,67,1.4721679687500002E-5,0,0,0,0,0,0,0,0,0,0,0,Tag0,unknown
1610799537540,54,67,1.4721679687500002E-5,0,0,0,0,0,0,0,0,0,0,0,Tag0,unknown
1610799537556,54,66,1.4501953125E-5,0,0,0,0,0,0,0,0,0,0,0,Tag0,unknown
1610799537572,54,67,1.4721679687500002E-5,0,0,0,0,0,0,0,0,0,0,0,Tag0,unknown
1610799537592,54,67,1.4721679687500002E-5,0,0,0,0,0,0,0,0,0,0,0,Tag0,unknown
1610799537607,54,68,1.4941406250000001E-5,0,0,0,0,0,0,0,0,0,0,0,Tag0,unknown
1610799537617,54,67,1.4721679687500002E-5,0,0,0,0,0,0,0,0,0,0,0,Tag0,unknown
1610799537629,54,68,1.4941406250000001E-5,0,0,0,0,0,0,0,0,0,0,0,Tag0,unknown
1610799537639,54,66,1.4501953125E-5,0,0,0,0,0,0,0,0,0,0,0,Tag0,unknown
1610799537660,54,67,1.4721679687500002E-5,0,0,0,0,0,0,0,0,0,0,0,Tag0,unknown
1610799537671,54,67,1.4721679687500002E-5,0,0,0,0,0,0,0,0,0,0,0,Tag0,unknown
1610799537699,54,67,1.4721679687500002E-5,0,0,0,0,0,0,0,0,0,0,0,Tag0,unknown
1610799537709,54,66,1.4501953125E-5,0,0,0,0,0,0,0,0,0,0,0,Tag0,unknown
1610799537733,54,68,1.4941406250000001E-5,0,0,0,0,0,0,0,0,0,0,0,Tag0,unknown
1610799537743,54,66,1.4501953125E-5,0,0,0,0,0,0,0,0,0,0,0,Tag0,unknown
1610799537756,54,68,1.4941406250000001E-5,0,0,0,0,0,0,0,0,0,0,0,Tag0,unknown
1610799537780,54,67,1.4721679687500002E-5,0,0,0,0,0,0,0,0,0,0,0,Tag0,unknown
1610799537790,54,66,1.4501953125E-5,0,0,0,0,0,0,0,0,0,0,0,Tag0,unknown
1610799537806,54,67,1.4721679687500002E-5,0,0,0,0,0,0,0,0,0,0,0,Tag0,unknown
1610799537823,54,65,1.42822265625E-5,0,0,0,0,0,0,0,0,0,0,0,Tag0,unknown
1610799537840,54,66,1.4501953125E-5,0,0,0,0,0,0,0,0,0,0,0,Tag0,unknown
1610799537857,54,66,1.4501953125E-5,0,0,0,0,0,0,0,0,0,0,0,Tag0,unknown
1610799537874,54,66,1.4501953125E-5,0,0,0,0,0,0,0,0,0,0,0,Tag0,unknown
1610799537884,54,66,1.4501953125E-5,0,0,0,0,0,0,0,0,0,0,0,Tag0,unknown
1610799537895,54,65,1.42822265625E-5,0,0,0,0,0,0,0,0,0,0,0,Tag0,unknown
1610799537907,54,67,1.4721679687500002E-5,0,0,0,0,0,0,0,0,0,0,0,Tag0,unknown
1610799537929,54,65,1.42822265625E-5,0,0,0,0,0,0,0,0,0,0,0,Tag0,unknown
1610799537940,54,67,1.4721679687500002E-5,0,0,0,0,0,0,0,0,0,0,0,Tag0,unknown
1610799537950,54,66,1.4501953125E-5,0,0,0,0,0,0,0,0,0,0,0,Tag0,unknown
1610799537969,54,67,1.4721679687500002E-5,0,0,0,0,0,0,0,0,0,0,0,Tag0,unknown
1610799537989,54,67,1.4721679687500002E-5,0,0,0,0,0,0,0,0,0,0,0,Tag0,unknown
1610799538008,54,67,1.4721679687500002E-5,0,0,0,0,0,0,0,0,0,0,0,Tag0,unknown
1610799538024,54,66,1.4501953125E-5,0,0,0,0,0,0,0,0,0,0,0,Tag0,unknown
1610799538034,54,65,1.42822265625E-5,0,0,0,0,0,0,0,0,0,0,0,Tag0,unknown
1610799538048,54,66,1.4501953125E-5,0,0,0,0,0,0,0,0,0,0,0,Tag0,unknown
1610799538058,54,66,1.4501953125E-5,0,0,0,0,0,0,0,0,0,0,0,Tag0,unknown
1610799538068,54,66,1.4501953125E-5,0,0,0,0,0,0,0,0,0,0,0,Tag0,unknown
1610799538078,54,66,1.4501953125E-5,0,0,0,0,0,0,0,0,0,0,0,Tag0,unknown
1610799538090,54,66,1.4501953125E-5,0,0,0,0,0,0,0,0,0,0,0,Tag0,unknown
1610799538105,54,67,1.4721679687500002E-5,0,0,0,0,0,0,0,0,0,0,0,Tag0,unknown
1610799538129,54,67,1.4721679687500002E-5,0,0,0,0,0,0,0,0,0,0,0,Tag0,unknown
1610799538139,54,66,1.4501953125E-5,0,0,0,0,0,0,0,0,0,0,0,Tag0,unknown
1610799538163,54,67,1.4721679687500002E-5,0,0,0,0,0,0,0,0,0,0,0,Tag0,unknown
1610799538174,54,66,1.4501953125E-5,0,0,0,0,0,0,0,0,0,0,0,Tag0,unknown
1610799538184,54,66,1.4501953125E-5,0,0,0,0,0,0,0,0,0,0,0,Tag0,unknown
1610799538194,54,67,1.4721679687500002E-5,0,0,0,0,0,0,0,0,0,0,0,Tag0,unknown
1610799538207,54,67,1.4721679687500002E-5,0,0,0,0,0,0,0,0,0,0,0,Tag0,unknown
1610799538237,54,67,1.4721679687500002E-5,0,0,0,0,0,0,0,0,0,0,0,Tag0,unknown
1610799538256,54,67,1.4721679687500002E-5,0,0,0,0,0,0,0,0,0,0,0,Tag0,unknown
1610799538266,54,66,1.4501953125E-5,0,0,0,0,0,0,0,0,0,0,0,Tag0,unknown
1610799538278,54,67,1.4721679687500002E-5,0,0,0,0,0,0,0,0,0,0,0,Tag0,unknown
1610799538291,54,66,1.4501953125E-5,0,0,0,0,0,0,0,0,0,0,0,Tag0,unknown
1610799538307,54,67,1.4721679687500002E-5,0,0,0,0,0,0,0,0,0,0,0,Tag0,unknown
1610799538324,54,67,1.4721679687500002E-5,0,0,0,0,0,0,0,0,0,0,0,Tag0,unknown
1610799538343,54,67,1.4721679687500002E-5,0,0,0,0,0,0,0,0,0,0,0,Tag0,unknown
1610799538355,54,67,1.4721679687500002E-5,0,0,0,0,0,0,0,0,0,0,0,Tag0,unknown
1610799538380,54,67,1.4721679687500002E-5,0,0,0,0,0,0,0,0,0,0,0,Tag0,unknown
1610799538391,54,67,1.4721679687500002E-5,0,0,0,0,0,0,0,0,0,0,0,Tag0,unknown
1610799538406,54,67,1.4721679687500002E-5,0,0,0,0,0,0,0,0,0,0,0,Tag0,unknown
1610799538425,54,66,1.4501953125E-5,0,0,0,0,0,0,0,0,0,0,0,Tag0,unknown
1610799538442,54,67,1.4721679687500002E-5,0,0,0,0,0,0,0,0,0,0,0,Tag0,unknown
1610799538452,54,66,1.4501953125E-5,0,0,0,0,0,0,0,0,0,0,0,Tag0,unknown
1610799538462,54,68,1.4941406250000001E-5,0,0,0,0,0,0,0,0,0,0,0,Tag0,unknown
1610799538474,54,67,1.4721679687500002E-5,0,0,0,0,0,0,0,0,0,0,0,Tag0,unknown
1610799538494,54,67,1.4721679687500002E-5,0,0,0,0,0,0,0,0,0,0,0,Tag0,unknown
1610799538507,54,67,1.4721679687500002E-5,0,0,0,0,0,0,0,0,0,0,0,Tag0,unknown
1610799538549,54,67,1.4721679687500002E-5,0,0,0,0,0,0,0,0,0,0,0,Tag0,unknown
1610799538559,54,67,1.4721679687500002E-5,0,0,0,0,0,0,0,0,0,0,0,Tag0,unknown
1610799538570,54,67,1.4721679687500002E-5,0,0,0,0,0,0,0,0,0,0,0,Tag0,unknown
1610799538580,54,67,1.4721679687500002E-5,0,0,0,0,0,0,0,0,0,0,0,Tag0,unknown
1610799538590,54,67,1.4721679687500002E-5,0,0,0,0,0,0,0,0,0,0,0,Tag0,unknown
1610799538600,54,67,1.4721679687500002E-5,0,0,0,0,0,0,0,0,0,0,0,Tag0,unknown
1610799538645,54,67,1.4721679687500002E-5,0,0,0,0,0,0,0,0,0,0,0,Tag0,unknown
1610799538662,54,68,1.4941406250000001E-5,0,0,0,0,0,0,0,0,0,0,0,Tag0,unknown
1610799538672,54,67,1.4721679687500002E-5,0,0,0,0,0,0,0,0,0,0,0,Tag0,unknown
1610799538683,54,67,1.4721679687500002E-5,0,0,0,0,0,0,0,0,0,0,0,Tag0,unknown
1610799538693,54,67,1.4721679687500002E-5,0,0,0,0,0,0,0,0,0,0,0,Tag0,unknown
1610799538707,54,67,1.4721679687500002E-5,0,0,0,0,0,0,0,0,0,0,0,Tag0,unknown
1610799538724,54,68,1.4941406250000001E-5,0,0,0,0,0,0,0,0,0,0,0,Tag0,unknown
1610799538734,54,68,1.4941406250000001E-5,0,0,0,0,0,0,0,0,0,0,0,Tag0,unknown
1610799538763,54,67,1.4721679687500002E-5,0,0,0,0,0,0,0,0,0,0,0,Tag0,unknown
1610799538774,54,67,1.4721679687500002E-5,0,0,0,0,0,0,0,0,0,0,0,Tag0,unknown
1610799538784,54,68,1.4941406250000001E-5,0,0,0,0,0,0,0,0,0,0,0,Tag0,unknown
1610799538794,54,67,1.4721679687500002E-5,0,0,0,0,0,0,0,0,0,0,0,Tag0,unknown
1610799538808,54,67,1.4721679687500002E-5,0,0,0,0,0,0,0,0,0,0,0,Tag0,unknown
1610799538823,54,68,1.4941406250000001E-5,0,0,0,0,0,0,0,0,0,0,0,Tag0,unknown
1610799538842,54,67,1.4721679687500002E-5,0,0,0,0,0,0,0,0,0,0,0,Tag0,unknown
1610799538856,54,69,1.51611328125E-5,0,0,0,0,0,0,0,0,0,0,0,Tag0,unknown
1610799538915,54,68,1.4941406250000001E-5,0,0,0,0,0,0,0,0,0,0,0,Tag0,unknown
1610799538925,54,67,1.4721679687500002E-5,0,0,0,0,0,0,0,0,0,0,0,Tag0,unknown
1610799538935,54,68,1.4941406250000001E-5,0,0,0,0,0,0,0,0,0,0,0,Tag0,unknown
1610799538945,54,68,1.4941406250000001E-5,0,0,0,0,0,0,0,0,0,0,0,Tag0,unknown
1610799538972,54,69,1.51611328125E-5,0,0,0,0,0,0,0,0,0,0,0,Tag0,unknown
1610799538990,54,68,1.4941406250000001E-5,0,0,0,0,0,0,0,0,0,0,0,Tag0,unknown
1610799539000,54,67,1.4721679687500002E-5,0,0,0,0,0,0,0,0,0,0,0,Tag0,unknown
1610799539025,54,68,1.4941406250000001E-5,0,0,0,0,0,0,0,0,0,0,0,Tag0,unknown
1610799539035,54,71,1.56005859375E-5,0,0,0,0,0,0,0,0,0,0,0,Tag0,unknown
1610799539047,200,70,1.5380859375E-5,0,0,0,13,1,0,1,0,1,0,0,Tag0,unknown
1610799539057,200,74,1.6259765625E-5,0,0,0,13,1,0,1,0,1,0,0,Tag0,unknown
1610799539073,200,74,1.6259765625E-5,0,0,0,13,1,0,1,0,1,0,0,Tag0,unknown
1610799539090,200,73,1.6040039062500002E-5,0,0,0,13,1,0,1,0,1,0,0,Tag0,unknown
1610799539106,200,75,1.64794921875E-5,0,0,0,13,1,0,1,0,1,0,0,Tag0,unknown
1610799539133,200,71,1.56005859375E-5,0,0,0,13,1,0,1,0,1,0,0,Tag0,unknown
1610799539143,200,71,1.56005859375E-5,0,0,0,13,1,0,1,0,1,0,0,Tag0,unknown
1610799539153,200,71,1.56005859375E-5,0,0,0,13,1,0,1,0,1,0,0,Tag0,unknown
1610799539163,200,74,1.6259765625E-5,0,0,0,13,1,0,1,0,1,0,0,Tag0,unknown
1610799539175,200,73,1.6040039062500002E-5,0,0,0,13,1,0,1,0,1,0,0,Tag0,unknown
1610799539191,200,66,1.4501953125E-5,0,0,0,13,1,0,1,0,1,0,0,Tag0,unknown
1610799539214,200,60,1.318359375E-5,0,0,0,13,1,0,1,0,1,0,0,Tag0,unknown
1610799539224,200,60,1.318359375E-5,0,0,0,13,1,0,1,0,1,0,0,Tag0,unknown
1610799539250,200,67,1.4721679687500002E-5,0,0,0,13,1,0,1,0,1,0,0,Tag0,unknown
1610799539260,200,67,1.4721679687500002E-5,0,0,0,13,1,0,1,0,1,0,0,Tag0,unknown
1610799539270,200,66,1.4501953125E-5,0,0,0,13,1,0,1,0,1,0,0,Tag0,unknown
1610799539280,200,71,1.56005859375E-5,0,0,0,13,1,0,1,0,1,0,0,Tag0,unknown
1610799539290,200,68,1.4941406250000001E-5,0,0,0,13,1,0,1,0,1,0,0,Tag0,unknown
1610799539300,200,70,1.5380859375E-5,0,0,0,13,1,0,1,0,1,0,0,Tag0,unknown
1610799539319,200,65,1.42822265625E-5,0,0,0,13,1,0,1,0,1,0,0,Tag0,unknown
1610799539329,200,69,1.51611328125E-5,0,0,0,13,1,0,1,0,1,0,0,Tag0,unknown
1610799539340,200,65,1.42822265625E-5,0,0,0,13,1,0,1,0,1,0,0,Tag0,unknown
1610799539361,200,69,1.51611328125E-5,0,0,0,13,1,0,1,0,1,0,0,Tag0,unknown
1610799539374,200,75,1.64794921875E-5,0,0,0,13,1,0,1,0,1,0,0,Tag0,unknown
1610799539395,200,86,1.8896484375000003E-5,0,0,0,13,1,0,1,0,1,0,0,Tag0,unknown
1610799539411,200,87,1.91162109375E-5,0,0,0,13,1,0,1,0,1,0,0,Tag0,unknown
1610799539421,200,105,2.30712890625E-5,0,0,0,13,1,0,1,0,1,0,0,Tag0,unknown
1610799539434,200,97,2.13134765625E-5,0,0,0,13,1,0,1,0,1,0,0,Tag0,unknown
1610799539445,200,99,2.1752929687500003E-5,0,0,0,13,1,0,1,0,1,0,0,Tag0,unknown
1610799539468,200,100,2.197265625E-5,0,0,0,13,1,0,1,0,1,0,0,Tag0,unknown
1610799539478,200,115,2.52685546875E-5,0,0,0,13,1,0,1,0,1,0,0,Tag0,unknown
1610799539495,200,-121,-2.6586914062500003E-5,0,0,0,13,1,0,1,0,1,0,0,Tag0,unknown
1610799539513,200,114,2.5048828125000003E-5,0,0,0,13,1,0,1,0,1,0,0,Tag0,unknown
1610799539541,200,109,2.39501953125E-5,0,0,0,13,1,0,1,0,1,0,0,Tag0,unknown
1610799539558,200,108,2.3730468750000002E-5,0,0,0,13,1,0,1,0,1,0,0,Tag0,unknown
1610799539568,200,96,2.109375E-5,0,0,0,13,1,0,1,0,1,0,0,Tag0,unknown
1610799539580,200,65,1.42822265625E-5,0,0,0,13,1,0,1,0,1,0,0,Tag0,unknown
1610799539593,200,64,1.40625E-5,0,0,0,13,1,0,1,0,1,0,0,Tag0,unknown
1610799539614,200,83,1.82373046875E-5,0,0,0,13,1,0,1,0,1,0,0,Tag0,unknown
1610799539627,200,82,1.8017578124999998E-5,0,0,0,13,1,0,1,0,1,0,0,Tag0,unknown
1610799539637,200,70,1.5380859375E-5,0,0,0,13,1,0,1,0,1,0,0,Tag0,unknown
1610799539650,200,59,1.29638671875E-5,0,0,0,13,1,0,1,0,1,0,0,Tag0,unknown
1610799539660,200,59,1.29638671875E-5,0,0,0,13,1,0,1,0,1,0,0,Tag0,unknown
1610799539683,200,37,8.1298828125E-6,0,0,0,13,1,0,1,0,1,0,0,Tag0,unknown
1610799539693,200,82,1.8017578124999998E-5,0,0,0,13,1,0,1,0,1,0,0,Tag0,unknown
1610799539708,200,71,1.56005859375E-5,0,0,0,13,1,0,1,0,1,0,0,Tag0,unknown
1610799539728,200,97,2.13134765625E-5,0,0,0,13,1,0,1,0,1,0,0,Tag0,unknown
1610799539744,200,99,2.1752929687500003E-5,0,0,0,13,1,0,1,0,1,0,0,Tag0,unknown
1610799539754,200,114,2.5048828125000003E-5,0,0,0,13,1,0,1,0,1,0,0,Tag0,unknown
1610799539764,200,109,2.39501953125E-5,0,0,0,13,1,0,1,0,1,0,0,Tag0,unknown
1610799539774,200,-123,-2.70263671875E-5,0,0,0,13,1,0,1,0,1,0,0,Tag0,unknown
1610799539798,200,-90,-1.9775390625E-5,0,0,0,13,1,0,1,0,1,0,0,Tag0,unknown
1610799539810,200,-83,-1.82373046875E-5,0,0,0,13,1,0,1,0,1,0,0,Tag0,unknown
1610799539829,200,-100,-2.197265625E-5,0,0,0,13,1,0,1,0,1,0,0,Tag0,unknown
1610799539844,200,-76,-1.669921875E-5,0,0,0,13,1,0,1,0,1,0,0,Tag0,unknown
1610799539854,200,-61,-1.34033203125E-5,0,0,0,13,1,0,1,0,1,0,0,Tag0,unknown
1610799539864,200,-80,-1.7578125E-5,0,0,0,13,1,0,1,0,1,0,0,Tag0,unknown
1610799539876,200,-16,-3.515625E-6,0,0,0,13,1,0,1,0,1,0,0,Tag0,unknown
1610799539893,200,-7,-1.5380859375E-6,0,0,0,13,1,0,1,0,1,0,0,Tag0,unknown
1610799539908,200,151,3.31787109375E-5,0,0,0,13,1,0,1,0,1,0,0,Tag0,unknown
1610799539924,200,129,2.8344726562500002E-5,0,0,0,13,1,0,1,0,1,0,0,Tag0,unknown
1610799539941,200,277,6.0864257812500005E-5,0,0,0,13,1,0,1,0,1,0,0,Tag0,unknown
1610799539958,200,-11,-2.4169921875E-6,0,0,0,13,1,0,1,0,1,0,0,Tag0,unknown
1610799539975,200,-355,-7.80029296875E-5,0,0,0,13,1,0,1,0,1,0,0,Tag0,unknown
1610799539994,200,-353,-7.75634765625E-5,0,0,0,13,1,0,1,0,1,0,0,Tag0,unknown
1610799540004,200,-171,-3.75732421875E-5,0,0,0,13,1,0,1,0,1,0,0,Tag0,unknown
1610799540022,200,-132,-2.900390625E-5,0,0,0,13,1,0,1,0,1,0,0,Tag0,unknown
1610799540037,200,-334,-7.338867187500001E-5,0,0,0,13,1,0,1,0,1,0,0,Tag0,unknown
1610799540047,200,27,5.9326171875000005E-6,0,0,0,64277,20847,11763,3839,9531,2539,560,1813,Tag0,unknown
1610799540061,200,43,9.448242187500001E-6,0,0,0,64277,20847,11763,3839,9531,2539,560,1813,Tag0,unknown
1610799540075,200,101,2.2192382812500002E-5,0,0,0,64277,20847,11763,3839,9531,2539,560,1813,Tag0,unknown
1610799540092,200,122,2.6806640625E-5,0,0,0,64277,20847,11763,3839,9531,2539,560,1813,Tag0,unknown
1610799540108,200,121,2.6586914062500003E-5,0,0,0,64277,20847,11763,3839,9531,2539,560,1813,Tag0,unknown
1610799540118,200,123,2.70263671875E-5,0,0,0,64277,20847,11763,3839,9531,2539,560,1813,Tag0,unknown
1610799540131,200,-63,-1.38427734375E-5,0,0,0,64277,20847,11763,3839,9531,2539,560,1813,Tag0,unknown
1610799540145,200,-79,-1.7358398437500003E-5,0,0,0,64277,20847,11763,3839,9531,2539,560,1813,Tag0,unknown
1610799540158,200,-269,-5.9106445312499996E-5,0,0,0,64277,20847,11763,3839,9531,2539,560,1813,Tag0,unknown
1610799540174,200,20,4.39453125E-6,0,0,0,64277,20847,11763,3839,9531,2539,560,1813,Tag0,unknown
1610799540200,200,-118,-2.5927734375E-5,0,0,0,64277,20847,11763,3839,9531,2539,560,1813,Tag0,unknown
1610799540210,200,-10,-2.197265625E-6,0,0,0,64277,20847,11763,3839,9531,2539,560,1813,Tag0,unknown
1610799540274,200,-39,-8.5693359375E-6,0,0,0,64277,20847,11763,3839,9531,2539,560,1813,Tag0,unknown
1610799540294,200,-75,-1.64794921875E-5,0,0,0,64277,20847,11763,3839,9531,2539,560,1813,Tag0,unknown
1610799540344,200,45,9.8876953125E-6,0,0,0,64277,20847,11763,3839,9531,2539,560,1813,Tag0,unknown
1610799540364,200,52,1.142578125E-5,0,0,0,64277,20847,11763,3839,9531,2539,560,1813,Tag0,unknown
1610799540376,200,17,3.7353515625000003E-6,0,0,0,64277,20847,11763,3839,9531,2539,560,1813,Tag0,unknown
1610799540412,200,-298,-6.5478515625E-5,0,0,0,64277,20847,11763,3839,9531,2539,560,1813,Tag0,unknown
1610799540427,200,-298,-6.5478515625E-5,0,0,0,64277,20847,11763,3839,9531,2539,560,1813,Tag0,unknown
1610799540481,200,-355,-7.80029296875E-5,0,0,0,64277,20847,11763,3839,9531,2539,560,1813,Tag0,unknown
1610799540498,200,-354,-7.778320312500001E-5,0,0,0,64277,20847,11763,3839,9531,2539,560,1813,Tag0,unknown
1610799540510,200,-377,-8.28369140625E-5,0,0,0,64277,20847,11763,3839,9531,2539,560,1813,Tag0,unknown
1610799540547,200,-142,-3.1201171875E-5,0,0,0,64277,20847,11763,3839,9531,2539,560,1813,Tag0,unknown
1610799540561,200,-137,-3.0102539062499998E-5,0,0,0,64277,20847,11763,3839,9531,2539,560,1813,Tag0,unknown
1610799540616,200,-364,-7.998046875E-5,0,0,0,64277,20847,11763,3839,9531,2539,560,1813,Tag0,unknown
1610799540631,200,-369,-8.10791015625E-5,0,0,0,64277,20847,11763,3839,9531,2539,560,1813,Tag0,unknown
1610799540642,200,-343,-7.53662109375E-5,0,0,0,64277,20847,11763,3839,9531,2539,560,1813,Tag0,unknown
1610799540682,200,-308,-6.767578125E-5,0,0,0,64277,20847,11763,3839,9531,2539,560,1813,Tag0,unknown
1610799540694,200,-299,-6.56982421875E-5,0,0,0,64277,20847,11763,3839,9531,2539,560,1813,Tag0,unknown
1610799540705,200,86,1.8896484375000003E-5,0,0,0,64277,20847,11763,3839,9531,2539,560,1813,Tag0,unknown
1610799540749,200,-58,-1.2744140625E-5,0,0,0,64277,20847,11763,3839,9531,2539,560,1813,Tag0,unknown
1610799540761,200,-52,-1.142578125E-5,0,0,0,64277,20847,11763,3839,9531,2539,560,1813,Tag0,unknown
1610799540779,200,-55,-1.20849609375E-5,0,0,0,64277,20847,11763,3839,9531,2539,560,1813,Tag0,unknown
1610799540789,200,48,1.0546875E-5,0,0,0,64277,20847,11763,3839,9531,2539,560,1813,Tag0,unknown
1610799540801,200,-106,-2.3291015625000003E-5,0,0,0,64277,20847,11763,3839,9531,2539,560,1813,Tag0,unknown
1610799540811,200,242,5.3173828125000005E-5,0,0,0,64277,20847,11763,3839,9531,2539,560,1813,Tag0,unknown
1610799540822,200,229,5.03173828125E-5,0,0,0,64277,20847,11763,3839,9531,2539,560,1813,Tag0,unknown
1610799540832,200,-120,-2.63671875E-5,0,0,0,64277,20847,11763,3839,9531,2539,560,1813,Tag0,unknown
1610799540842,200,945,2.076416015625E-4,0,0,0,64277,20847,11763,3839,9531,2539,560,1813,Tag0,unknown
1610799540871,200,-757,-1.663330078125E-4,0,0,0,64277,20847,11763,3839,9531,2539,560,1813,Tag0,unknown
1610799540892,200,-2048,-4.5E-4,0,0,0,64277,20847,11763,3839,9531,2539,560,1813,Tag0,unknown
1610799540911,200,-2067,-4.541748046875E-4,0,0,0,64277,20847,11763,3839,9531,2539,560,1813,Tag0,unknown
1610799540926,200,-1735,-3.812255859375E-4,0,0,0,64277,20847,11763,3839,9531,2539,560,1813,Tag0,unknown
1610799540947,200,-925,-2.032470703125E-4,0,0,0,64277,20847,11763,3839,9531,2539,560,1813,Tag0,unknown
1610799540961,200,-1116,-2.4521484375E-4,0,0,0,64277,20847,11763,3839,9531,2539,560,1813,Tag0,unknown
1610799540971,200,-619,-1.360107421875E-4,0,0,0,64277,20847,11763,3839,9531,2539,560,1813,Tag0,unknown
1610799540981,200,-643,-1.412841796875E-4,0,0,0,64277,20847,11763,3839,9531,2539,560,1813,Tag0,unknown
1610799540991,200,-1046,-2.29833984375E-4,0,0,0,64277,20847,11763,3839,9531,2539,560,1813,Tag0,unknown
1610799541019,200,-202,-4.4384765625000004E-5,0,0,0,64277,20847,11763,3839,9531,2539,560,1813,Tag0,unknown
1610799541029,200,538,1.1821289062499999E-4,0,0,0,64277,20847,11763,3839,9531,2539,560,1813,Tag0,unknown
1610799541051,200,1791,3.935302734375E-4,0,0,0,487512,93827,9425,22427,16753169,16769211,4770,6066,Tag0,unknown
1610799541065,200,1791,3.935302734375E-4,0,0,0,487512,93827,9425,22427,16753169,16769211,4770,6066,Tag0,unknown
1610799541076,200,1843,4.049560546875E-4,0,0,0,487512,93827,9425,22427,16753169,16769211,4770,6066,Tag0,unknown
1610799541103,200,1339,2.942138671875E-4,0,0,0,487512,93827,9425,22427,16753169,16769211,4770,6066,Tag0,unknown
1610799541113,200,1049,2.304931640625E-4,0,0,0,487512,93827,9425,22427,16753169,16769211,4770,6066,Tag0,unknown
1610799541143,200,-923,-2.028076171875E-4,0,0,0,487512,93827,9425,22427,16753169,16769211,4770,6066,Tag0,unknown
1610799541162,200,-1397,-3.0695800781249997E-4,0,0,0,487512,93827,9425,22427,16753169,16769211,4770,6066,Tag0,unknown
1610799541172,200,-1923,-4.2253417968750003E-4,0,0,0,487512,93827,9425,22427,16753169,16769211,4770,6066,Tag0,unknown
1610799541183,200,-2153,-4.730712890625E-4,0,0,0,487512,93827,9425,22427,16753169,16769211,4770,6066,Tag0,unknown
1610799541193,200,-1235,-2.713623046875E-4,0,0,0,487512,93827,9425,22427,16753169,16769211,4770,6066,Tag0,unknown
1610799541203,200,-617,-1.355712890625E-4,0,0,0,487512,93827,9425,22427,16753169,16769211,4770,6066,Tag0,unknown
1610799541215,200,892,1.9599609375000002E-4,0,0,0,487512,93827,9425,22427,16753169,16769211,4770,6066,Tag0,unknown
1610799541228,200,1065,2.340087890625E-4,0,0,0,487512,93827,9425,22427,16753169,16769211,4770,6066,Tag0,unknown
1610799541249,200,1444,3.1728515625E-4,0,0,0,487512,93827,9425,22427,16753169,16769211,4770,6066,Tag0,unknown
1610799541260,200,1651,3.627685546875E-4,0,0,0,487512,93827,9425,22427,16753169,16769211,4770,6066,Tag0,unknown
1610799541282,200,480,1.0546875E-4,0,0,0,487512,93827,9425,22427,16753169,16769211,4770,6066,Tag0,unknown
1610799541296,200,573,1.259033203125E-4,0,0,0,487512,93827,9425,22427,16753169,16769211,4770,6066,Tag0,unknown
1610799541306,200,-1587,-3.487060546875E-4,0,0,0,487512,93827,9425,22427,16753169,16769211,4770,6066,Tag0,unknown
1610799541318,200,-2048,-4.5E-4,0,0,0,487512,93827,9425,22427,16753169,16769211,4770,6066,Tag0,unknown
1610799541331,200,-2071,-4.5505371093750003E-4,0,0,0,487512,93827,9425,22427,16753169,16769211,4770,6066,Tag0,unknown
1610799541345,200,-1788,-3.9287109375E-4,0,0,0,487512,93827,9425,22427,16753169,16769211,4770,6066,Tag0,unknown
1610799541368,200,-1449,-3.183837890625E-4,0,0,0,487512,93827,9425,22427,16753169,16769211,4770,6066,Tag0,unknown
1610799541378,200,-1210,-2.65869140625E-4,0,0,0,487512,93827,9425,22427,16753169,16769211,4770,6066,Tag0,unknown
1610799541393,200,-755,-1.658935546875E-4,0,0,0,487512,93827,9425,22427,16753169,16769211,4770,6066,Tag0,unknown
1610799541412,200,-551,-1.210693359375E-4,0,0,0,487512,93827,9425,22427,16753169,16769211,4770,6066,Tag0,unknown
1610799541439,200,-307,-6.74560546875E-5,0,0,0,487512,93827,9425,22427,16753169,16769211,4770,6066,Tag0,unknown
1610799541449,200,-267,-5.86669921875E-5,0,0,0,487512,93827,9425,22427,16753169,16769211,4770,6066,Tag0,unknown
1610799541462,200,-89,-1.95556640625E-5,0,0,0,487512,93827,9425,22427,16753169,16769211,4770,6066,Tag0,unknown
1610799541479,200,-70,-1.5380859375E-5,0,0,0,487512,93827,9425,22427,16753169,16769211,4770,6066,Tag0,unknown
1610799541497,200,385,8.45947265625E-5,0,0,0,487512,93827,9425,22427,16753169,16769211,4770,6066,Tag0,unknown
1610799541507,200,375,8.23974609375E-5,0,0,0,487512,93827,9425,22427,16753169,16769211,4770,6066,Tag0,unknown
1610799541517,200,321,7.053222656250001E-5,0,0,0,487512,93827,9425,22427,16753169,16769211,4770,6066,Tag0,unknown
1610799541542,200,52,1.142578125E-5,0,0,0,487512,93827,9425,22427,16753169,16769211,4770,6066,Tag0,unknown
1610799541560,200,71,1.56005859375E-5,0,0,0,487512,93827,9425,22427,16753169,16769211,4770,6066,Tag0,unknown
1610799541582,200,81,1.77978515625E-5,0,0,0,487512,93827,9425,22427,16753169,16769211,4770,6066,Tag0,unknown
1610799541600,200,96,2.109375E-5,0,0,0,487512,93827,9425,22427,16753169,16769211,4770,6066,Tag0,unknown
1610799541617,200,-121,-2.6586914062500003E-5,0,0,0,487512,93827,9425,22427,16753169,16769211,4770,6066,Tag0,unknown
1610799541630,200,117,2.5708007812499998E-5,0,0,0,487512,93827,9425,22427,16753169,16769211,4770,6066,Tag0,unknown
1610799541645,200,276,6.064453125E-5,0,0,0,487512,93827,9425,22427,16753169,16769211,4770,6066,Tag0,unknown
1610799541662,200,181,3.9770507812500004E-5,0,0,0,487512,93827,9425,22427,16753169,16769211,4770,6066,Tag0,unknown
1610799541689,200,-80,-1.7578125E-5,0,0,0,487512,93827,9425,22427,16753169,16769211,4770,6066,Tag0,unknown
1610799541699,200,-9,-1.9775390625E-6,0,0,0,487512,93827,9425,22427,16753169,16769211,4770,6066,Tag0,unknown
1610799541712,200,309,6.78955078125E-5,0,0,0,487512,93827,9425,22427,16753169,16769211,4770,6066,Tag0,unknown
1610799541735,200,-77,-1.69189453125E-5,0,0,0,487512,93827,9425,22427,16753169,16769211,4770,6066,Tag0,unknown
1610799541745,200,-69,-1.51611328125E-5,0,0,0,487512,93827,9425,22427,16753169,16769211,4770,6066,Tag0,unknown
1610799541760,200,294,6.4599609375E-5,0,0,0,487512,93827,9425,22427,16753169,16769211,4770,6066,Tag0,unknown
1610799541777,200,554,1.2172851562500001E-4,0,0,0,487512,93827,9425,22427,16753169,16769211,4770,6066,Tag0,unknown
1610799541794,200,613,1.3469238281250002E-4,0,0,0,487512,93827,9425,22427,16753169,16769211,4770,6066,Tag0,unknown
1610799541819,200,242,5.3173828125000005E-5,0,0,0,487512,93827,9425,22427,16753169,16769211,4770,6066,Tag0,unknown
1610799541830,200,382,8.3935546875E-5,0,0,0,487512,93827,9425,22427,16753169,16769211,4770,6066,Tag0,unknown
1610799541840,200,130,2.8564453125E-5,0,0,0,487512,93827,9425,22427,16753169,16769211,4770,6066,Tag0,unknown
1610799541850,200,354,7.778320312500001E-5,0,0,0,487512,93827,9425,22427,16753169,16769211,4770,6066,Tag0,unknown
1610799541862,200,220,4.833984375E-5,0,0,0,487512,93827,9425,22427,16753169,16769211,4770,6066,Tag0,unknown
1610799541883,200,315,6.92138671875E-5,0,0,0,487512,93827,9425,22427,16753169,16769211,4770,6066,Tag0,unknown
1610799541894,200,321,7.053222656250001E-5,0,0,0,487512,93827,9425,22427,16753169,16769211,4770,6066,Tag0,unknown
1610799541925,200,279,6.13037109375E-5,0,0,0,487512,93827,9425,22427,16753169,16769211,4770,6066,Tag0,unknown
1610799541947,200,297,6.525878906250001E-5,0,0,0,487512,93827,9425,22427,16753169,16769211,4770,6066,Tag0,unknown
1610799541957,200,262,5.7568359375E-5,0,0,0,487512,93827,9425,22427,16753169,16769211,4770,6066,Tag0,unknown
1610799541973,200,268,5.8886718750000006E-5,0,0,0,487512,93827,9425,22427,16753169,16769211,4770,6066,Tag0,unknown
1610799541983,200,-16,-3.515625E-6,0,0,0,487512,93827,9425,22427,16753169,16769211,4770,6066,Tag0,unknown
1610799541993,200,-13,-2.8564453125E-6,0,0,0,487512,93827,9425,22427,16753169,16769211,4770,6066,Tag0,unknown
1610799542005,200,374,8.2177734375E-5,0,0,0,487512,93827,9425,22427,16753169,16769211,4770,6066,Tag0,unknown
1610799542015,200,77,1.69189453125E-5,0,0,0,487512,93827,9425,22427,16753169,16769211,4770,6066,Tag0,unknown
1610799542041,200,116,2.548828125E-5,0,0,0,715058,79320,18508,19147,16758568,16750423,14843,12562,Tag0,unknown
1610799542061,200,117,2.5708007812499998E-5,0,0,0,715058,79320,18508,19147,16758568,16750423,14843,12562,Tag0,unknown
1610799542083,200,-355,-7.80029296875E-5,0,0,0,715058,79320,18508,19147,16758568,16750423,14843,12562,Tag0,unknown
1610799542095,200,-345,-7.58056640625E-5,0,0,0,715058,79320,18508,19147,16758568,16750423,14843,12562,Tag0,unknown
1610799542105,200,5,1.0986328125E-6,0,0,0,715058,79320,18508,19147,16758568,16750423,14843,12562,Tag0,unknown
1610799542117,200,3,6.591796875E-7,0,0,0,715058,79320,18508,19147,16758568,16750423,14843,12562,Tag0,unknown
1610799542131,200,3,6.591796875E-7,0,0,0,715058,79320,18508,19147,16758568,16750423,14843,12562,Tag0,unknown
1610799542141,200,-285,-6.26220703125E-5,0,0,0,715058,79320,18508,19147,16758568,16750423,14843,12562,Tag0,unknown
1610799542151,200,40,8.7890625E-6,0,0,0,715058,79320,18508,19147,16758568,16750423,14843,12562,Tag0,unknown
1610799542163,200,-104,-2.28515625E-5,0,0,0,715058,79320,18508,19147,16758568,16750423,14843,12562,Tag0,unknown
1610799542179,200,117,2.5708007812499998E-5,0,0,0,715058,79320,18508,19147,16758568,16750423,14843,12562,Tag0,unknown
1610799542197,200,17,3.7353515625000003E-6,0,0,0,715058,79320,18508,19147,16758568,16750423,14843,12562,Tag0,unknown
1610799542213,200,-289,-6.35009765625E-5,0,0,0,715058,79320,18508,19147,16758568,16750423,14843,12562,Tag0,unknown
1610799542223,200,6,1.318359375E-6,0,0,0,715058,79320,18508,19147,16758568,16750423,14843,12562,Tag0,unknown
1610799542246,200,40,8.7890625E-6,0,0,0,715058,79320,18508,19147,16758568,16750423,14843,12562,Tag0,unknown
1610799542264,200,49,1.07666015625E-5,0,0,0,715058,79320,18508,19147,16758568,16750423,14843,12562,Tag0,unknown
1610799542279,200,61,1.34033203125E-5,0,0,0,715058,79320,18508,19147,16758568,16750423,14843,12562,Tag0,unknown
1610799542289,200,-127,-2.79052734375E-5,0,0,0,715058,79320,18508,19147,16758568,16750423,14843,12562,Tag0,unknown
1610799542302,200,329,7.229003906250001E-5,0,0,0,715058,79320,18508,19147,16758568,16750423,14843,12562,Tag0,unknown
1610799542313,200,345,7.58056640625E-5,0,0,0,715058,79320,18508,19147,16758568,16750423,14843,12562,Tag0,unknown
1610799542338,200,145,3.18603515625E-5,0,0,0,715058,79320,18508,19147,16758568,16750423,14843,12562,Tag0,unknown
1610799542348,200,306,6.723632812500001E-5,0,0,0,715058,79320,18508,19147,16758568,16750423,14843,12562,Tag0,unknown
1610799542364,200,-51,-1.1206054687499999E-5,0,0,0,715058,79320,18508,19147,16758568,16750423,14843,12562,Tag0,unknown
1610799542384,200,117,2.5708007812499998E-5,0,0,0,715058,79320,18508,19147,16758568,16750423,14843,12562,Tag0,unknown
1610799542397,200,-105,-2.30712890625E-5,0,0,0,715058,79320,18508,19147,16758568,16750423,14843,12562,Tag0,unknown
1610799542407,200,-77,-1.69189453125E-5,0,0,0,715058,79320,18508,19147,16758568,16750423,14843,12562,Tag0,unknown
1610799542418,200,-289,-6.35009765625E-5,0,0,0,715058,79320,18508,19147,16758568,16750423,14843,12562,Tag0,unknown
1610799542428,200,-373,-8.19580078125E-5,0,0,0,715058,79320,18508,19147,16758568,16750423,14843,12562,Tag0,unknown
1610799542458,200,93,2.04345703125E-5,0,0,0,715058,79320,18508,19147,16758568,16750423,14843,12562,Tag0,unknown
1610799542482,200,-369,-8.10791015625E-5,0,0,0,715058,79320,18508,19147,16758568,16750423,14843,12562,Tag0,unknown
1610799542492,200,-329,-7.229003906250001E-5,0,0,0,715058,79320,18508,19147,16758568,16750423,14843,12562,Tag0,unknown
1610799542504,200,-326,-7.163085937500001E-5,0,0,0,715058,79320,18508,19147,16758568,16750423,14843,12562,Tag0,unknown
1610799542530,200,34,7.4707031250000005E-6,0,0,0,715058,79320,18508,19147,16758568,16750423,14843,12562,Tag0,unknown
1610799542545,200,11,2.4169921875E-6,0,0,0,715058,79320,18508,19147,16758568,16750423,14843,12562,Tag0,unknown
1610799542571,200,-128,-2.8125E-5,0,0,0,715058,79320,18508,19147,16758568,16750423,14843,12562,Tag0,unknown
1610799542581,200,-122,-2.6806640625E-5,0,0,0,715058,79320,18508,19147,16758568,16750423,14843,12562,Tag0,unknown
1610799542591,200,115,2.52685546875E-5,0,0,0,715058,79320,18508,19147,16758568,16750423,14843,12562,Tag0,unknown
1610799542601,200,-126,-2.7685546875E-5,0,0,0,715058,79320,18508,19147,16758568,16750423,14843,12562,Tag0,unknown
1610799542616,200,-47,-1.0327148437500001E-5,0,0,0,715058,79320,18508,19147,16758568,16750423,14843,12562,Tag0,unknown
1610799542632,200,-115,-2.52685546875E-5,0,0,0,715058,79320,18508,19147,16758568,16750423,14843,12562,Tag0,unknown
1610799542642,200,-72,-1.58203125E-5,0,0,0,715058,79320,18508,19147,16758568,16750423,14843,12562,Tag0,unknown
1610799542652,200,-7,-1.5380859375E-6,0,0,0,715058,79320,18508,19147,16758568,16750423,14843,12562,Tag0,unknown
1610799542676,200,-103,-2.26318359375E-5,0,0,0,715058,79320,18508,19147,16758568,16750423,14843,12562,Tag0,unknown
1610799542695,200,105,2.30712890625E-5,0,0,0,715058,79320,18508,19147,16758568,16750423,14843,12562,Tag0,unknown
1610799542718,200,27,5.9326171875000005E-6,0,0,0,715058,79320,18508,19147,16758568,16750423,14843,12562,Tag0,unknown
1610799542732,200,7,1.5380859375E-6,0,0,0,715058,79320,18508,19147,16758568,16750423,14843,12562,Tag0,unknown
1610799542742,200,69,1.51611328125E-5,0,0,0,715058,79320,18508,19147,16758568,16750423,14843,12562,Tag0,unknown
1610799542757,200,49,1.07666015625E-5,0,0,0,715058,79320,18508,19147,16758568,16750423,14843,12562,Tag0,unknown
1610799542768,200,65,1.42822265625E-5,0,0,0,715058,79320,18508,19147,16758568,16750423,14843,12562,Tag0,unknown
1610799542782,200,281,6.17431640625E-5,0,0,0,715058,79320,18508,19147,16758568,16750423,14843,12562,Tag0,unknown
1610799542798,200,529,1.162353515625E-4,0,0,0,715058,79320,18508,19147,16758568,16750423,14843,12562,Tag0,unknown
1610799542814,200,250,5.4931640625E-5,0,0,0,715058,79320,18508,19147,16758568,16750423,14843,12562,Tag0,unknown
1610799542832,200,217,4.76806640625E-5,0,0,0,715058,79320,18508,19147,16758568,16750423,14843,12562,Tag0,unknown
1610799542848,200,373,8.19580078125E-5,0,0,0,715058,79320,18508,19147,16758568,16750423,14843,12562,Tag0,unknown
1610799542858,200,-16,-3.515625E-6,0,0,0,715058,79320,18508,19147,16758568,16750423,14843,12562,Tag0,unknown
1610799542873,200,282,6.1962890625E-5,0,0,0,715058,79320,18508,19147,16758568,16750423,14843,12562,Tag0,unknown
1610799542883,200,321,7.053222656250001E-5,0,0,0,715058,79320,18508,19147,16758568,16750423,14843,12562,Tag0,unknown
1610799542893,200,161,3.53759765625E-5,0,0,0,715058,79320,18508,19147,16758568,16750423,14843,12562,Tag0,unknown
1610799542903,200,359,7.88818359375E-5,0,0,0,715058,79320,18508,19147,16758568,16750423,14843,12562,Tag0,unknown
1610799542915,200,535,1.175537109375E-4,0,0,0,715058,79320,18508,19147,16758568,16750423,14843,12562,Tag0,unknown
1610799542931,200,597,1.3117675781250003E-4,0,0,0,715058,79320,18508,19147,16758568,16750423,14843,12562,Tag0,unknown
1610799542949,200,283,6.218261718750001E-5,0,0,0,715058,79320,18508,19147,16758568,16750423,14843,12562,Tag0,unknown
1610799542963,200,20,4.39453125E-6,0,0,0,715058,79320,18508,19147,16758568,16750423,14843,12562,Tag0,unknown
1610799542983,200,1299,2.854248046875E-4,0,0,0,715058,79320,18508,19147,16758568,16750423,14843,12562,Tag0,unknown
1610799543000,200,985,2.164306640625E-4,0,0,0,715058,79320,18508,19147,16758568,16750423,14843,12562,Tag0,unknown
1610799543017,200,833,1.830322265625E-4,0,0,0,715058,79320,18508,19147,16758568,16750423,14843,12562,Tag0,unknown
1610799543033,200,811,1.781982421875E-4,0,0,0,715058,79320,18508,19147,16758568,16750423,14843,12562,Tag0,unknown
1610799543044,200,515,1.131591796875E-4,0,0,0,311782,90874,16747455,16752533,23099,11323,9462,5988,Tag0,unknown
1610799543062,200,-76,-1.669921875E-5,0,0,0,311782,90874,16747455,16752533,23099,11323,9462,5988,Tag0,unknown
1610799543086,200,-605,-1.329345703125E-4,0,0,0,311782,90874,16747455,16752533,23099,11323,9462,5988,Tag0,unknown
1610799543096,200,-395,-8.67919921875E-5,0,0,0,311782,90874,16747455,16752533,23099,11323,9462,5988,Tag0,unknown
1610799543113,200,-621,-1.364501953125E-4,0,0,0,311782,90874,16747455,16752533,23099,11323,9462,5988,Tag0,unknown
1610799543132,200,-572,-1.2568359375E-4,0,0,0,311782,90874,16747455,16752533,23099,11323,9462,5988,Tag0,unknown
1610799543147,200,533,1.171142578125E-4,0,0,0,311782,90874,16747455,16752533,23099,11323,9462,5988,Tag0,unknown
1610799543166,200,244,5.361328125E-5,0,0,0,311782,90874,16747455,16752533,23099,11323,9462,5988,Tag0,unknown
1610799543176,200,-810,-1.77978515625E-4,0,0,0,311782,90874,16747455,16752533,23099,11323,9462,5988,Tag0,unknown
1610799543186,200,-1879,-4.128662109375E-4,0,0,0,311782,90874,16747455,16752533,23099,11323,9462,5988,Tag0,unknown
1610799543199,200,-2027,-4.453857421875E-4,0,0,0,311782,90874,16747455,16752533,23099,11323,9462,5988,Tag0,unknown
1610799543215,200,-1993,-4.379150390625E-4,0,0,0,311782,90874,16747455,16752533,23099,11323,9462,5988,Tag0,unknown
1610799543232,200,-2048,-4.5E-4,0,0,0,311782,90874,16747455,16752533,23099,11323,9462,5988,Tag0,unknown
1610799543249,200,-2048,-4.5E-4,0,0,0,311782,90874,16747455,16752533,23099,11323,9462,5988,Tag0,unknown
1610799543259,200,-1451,-3.188232421875E-4,0,0,0,311782,90874,16747455,16752533,23099,11323,9462,5988,Tag0,unknown
1610799543271,200,-1177,-2.586181640625E-4,0,0,0,311782,90874,16747455,16752533,23099,11323,9462,5988,Tag0,unknown
1610799543282,200,-961,-2.111572265625E-4,0,0,0,311782,90874,16747455,16752533,23099,11323,9462,5988,Tag0,unknown
1610799543297,200,-920,-2.021484375E-4,0,0,0,311782,90874,16747455,16752533,23099,11323,9462,5988,Tag0,unknown
1610799543316,200,-653,-1.434814453125E-4,0,0,0,311782,90874,16747455,16752533,23099,11323,9462,5988,Tag0,unknown
1610799543331,200,-883,-1.9401855468750002E-4,0,0,0,311782,90874,16747455,16752533,23099,11323,9462,5988,Tag0,unknown
1610799543353,200,86,1.8896484375000003E-5,0,0,0,311782,90874,16747455,16752533,23099,11323,9462,5988,Tag0,unknown
1610799543366,200,333,7.316894531249999E-5,0,0,0,311782,90874,16747455,16752533,23099,11323,9462,5988,Tag0,unknown
1610799543376,200,1791,3.935302734375E-4,0,0,0,311782,90874,16747455,16752533,23099,11323,9462,5988,Tag0,unknown
1610799543390,200,1356,2.9794921875000004E-4,0,0,0,311782,90874,16747455,16752533,23099,11323,9462,5988,Tag0,unknown
1610799543402,200,644,1.4150390625E-4,0,0,0,311782,90874,16747455,16752533,23099,11323,9462,5988,Tag0,unknown
1610799543423,200,-2149,-4.7219238281250004E-4,0,0,0,311782,90874,16747455,16752533,23099,11323,9462,5988,Tag0,unknown
1610799543433,200,-1754,-3.8540039062500005E-4,0,0,0,311782,90874,16747455,16752533,23099,11323,9462,5988,Tag0,unknown
1610799543443,200,277,6.0864257812500005E-5,0,0,0,311782,90874,16747455,16752533,23099,11323,9462,5988,Tag0,unknown
1610799543453,200,-75,-1.64794921875E-5,0,0,0,311782,90874,16747455,16752533,23099,11323,9462,5988,Tag0,unknown
1610799543464,200,153,3.3618164062500004E-5,0,0,0,311782,90874,16747455,16752533,23099,11323,9462,5988,Tag0,unknown
1610799543480,200,441,9.689941406250001E-5,0,0,0,311782,90874,16747455,16752533,23099,11323,9462,5988,Tag0,unknown
1610799543497,200,236,5.185546875E-5,0,0,0,311782,90874,16747455,16752533,23099,11323,9462,5988,Tag0,unknown
1610799543513,200,265,5.82275390625E-5,0,0,0,311782,90874,16747455,16752533,23099,11323,9462,5988,Tag0,unknown
1610799543534,200,-293,-6.43798828125E-5,0,0,0,311782,90874,16747455,16752533,23099,11323,9462,5988,Tag0,unknown
1610799543548,200,17,3.7353515625000003E-6,0,0,0,311782,90874,16747455,16752533,23099,11323,9462,5988,Tag0,unknown
1610799543571,200,450,9.8876953125E-5,0,0,0,311782,90874,16747455,16752533,23099,11323,9462,5988,Tag0,unknown
1610799543584,200,444,9.755859375E-5,0,0,0,311782,90874,16747455,16752533,23099,11323,9462,5988,Tag0,unknown
1610799543594,200,627,1.377685546875E-4,0,0,0,311782,90874,16747455,16752533,23099,11323,9462,5988,Tag0,unknown
1610799543605,200,630,1.38427734375E-4,0,0,0,311782,90874,16747455,16752533,23099,11323,9462,5988,Tag0,unknown
1610799543618,200,613,1.3469238281250002E-4,0,0,0,311782,90874,16747455,16752533,23099,11323,9462,5988,Tag0,unknown
1610799543633,200,401,8.811035156250001E-5,0,0,0,311782,90874,16747455,16752533,23099,11323,9462,5988,Tag0,unknown
1610799543643,200,235,5.16357421875E-5,0,0,0,311782,90874,16747455,16752533,23099,11323,9462,5988,Tag0,unknown
1610799543664,200,27,5.9326171875000005E-6,0,0,0,311782,90874,16747455,16752533,23099,11323,9462,5988,Tag0,unknown
1610799543682,200,11,2.4169921875E-6,0,0,0,311782,90874,16747455,16752533,23099,11323,9462,5988,Tag0,unknown
1610799543692,200,98,2.1533203125E-5,0,0,0,311782,90874,16747455,16752533,23099,11323,9462,5988,Tag0,unknown
1610799543714,200,165,3.62548828125E-5,0,0,0,311782,90874,16747455,16752533,23099,11323,9462,5988,Tag0,unknown
1610799543732,200,195,4.28466796875E-5,0,0,0,311782,90874,16747455,16752533,23099,11323,9462,5988,Tag0,unknown
1610799543742,200,-45,-9.8876953125E-6,0,0,0,311782,90874,16747455,16752533,23099,11323,9462,5988,Tag0,unknown
1610799543757,200,-69,-1.51611328125E-5,0,0,0,311782,90874,16747455,16752533,23099,11323,9462,5988,Tag0,unknown
1610799543767,200,81,1.77978515625E-5,0,0,0,311782,90874,16747455,16752533,23099,11323,9462,5988,Tag0,unknown
1610799543793,200,-99,-2.1752929687500003E-5,0,0,0,311782,90874,16747455,16752533,23099,11323,9462,5988,Tag0,unknown
1610799543803,200,-100,-2.197265625E-5,0,0,0,311782,90874,16747455,16752533,23099,11323,9462,5988,Tag0,unknown
1610799543815,200,125,2.74658203125E-5,0,0,0,311782,90874,16747455,16752533,23099,11323,9462,5988,Tag0,unknown
1610799543832,200,292,6.416015625000001E-5,0,0,0,311782,90874,16747455,16752533,23099,11323,9462,5988,Tag0,unknown
1610799543847,200,297,6.525878906250001E-5,0,0,0,311782,90874,16747455,16752533,23099,11323,9462,5988,Tag0,unknown
1610799543866,200,-299,-6.56982421875E-5,0,0,0,311782,90874,16747455,16752533,23099,11323,9462,5988,Tag0,unknown
1610799543880,200,-168,-3.691406250000001E-5,0,0,0,311782,90874,16747455,16752533,23099,11323,9462,5988,Tag0,unknown
1610799543901,200,372,8.173828125E-5,0,0,0,311782,90874,16747455,16752533,23099,11323,9462,5988,Tag0,unknown
1610799543915,200,359,7.88818359375E-5,0,0,0,311782,90874,16747455,16752533,23099,11323,9462,5988,Tag0,unknown
1610799543934,200,56,1.23046875E-5,0,0,0,311782,90874,16747455,16752533,23099,11323,9462,5988,Tag0,unknown
1610799543949,200,59,1.29638671875E-5,0,0,0,311782,90874,16747455,16752533,23099,11323,9462,5988,Tag0,unknown
1610799543959,200,-155,-3.40576171875E-5,0,0,0,311782,90874,16747455,16752533,23099,11323,9462,5988,Tag0,unknown
1610799543972,200,21,4.614257812500001E-6,0,0,0,311782,90874,16747455,16752533,23099,11323,9462,5988,Tag0,unknown
1610799543982,200,9,1.9775390625E-6,0,0,0,311782,90874,16747455,16752533,23099,11323,9462,5988,Tag0,unknown
1610799544005,200,-300,-6.591796875E-5,0,0,0,311782,90874,16747455,16752533,23099,11323,9462,5988,Tag0,unknown
1610799544015,200,16,3.515625E-6,0,0,0,311782,90874,16747455,16752533,23099,11323,9462,5988,Tag0,unknown
1610799544025,200,520,1.142578125E-4,0,0,0,1397262,53537,60855,140597,40825,16766938,9163,7986,Tag0,unknown
1610799544042,200,584,1.2832031250000002E-4,0,0,0,1397262,53537,60855,140597,40825,16766938,9163,7986,Tag0,unknown
1610799544052,200,129,2.8344726562500002E-5,0,0,0,1397262,53537,60855,140597,40825,16766938,9163,7986,Tag0,unknown
1610799544066,200,315,6.92138671875E-5,0,0,0,1397262,53537,60855,140597,40825,16766938,9163,7986,Tag0,unknown
1610799544084,200,314,6.8994140625E-5,0,0,0,1397262,53537,60855,140597,40825,16766938,9163,7986,Tag0,unknown
1610799544100,200,-74,-1.6259765625E-5,0,0,0,1397262,53537,60855,140597,40825,16766938,9163,7986,Tag0,unknown
1610799544114,200,-12,-2.63671875E-6,0,0,0,1397262,53537,60855,140597,40825,16766938,9163,7986,Tag0,unknown
1610799544131,200,-102,-2.2412109374999998E-5,0,0,0,1397262,53537,60855,140597,40825,16766938,9163,7986,Tag0,unknown
1610799544148,200,115,2.52685546875E-5,0,0,0,1397262,53537,60855,140597,40825,16766938,9163,7986,Tag0,unknown
1610799544165,200,84,1.8457031250000004E-5,0,0,0,1397262,53537,60855,140597,40825,16766938,9163,7986,Tag0,unknown
1610799544175,200,-276,-6.064453125E-5,0,0,0,1397262,53537,60855,140597,40825,16766938,9163,7986,Tag0,unknown
1610799544185,200,-13,-2.8564453125E-6,0,0,0,1397262,53537,60855,140597,40825,16766938,9163,7986,Tag0,unknown
1610799544201,200,-89,-1.95556640625E-5,0,0,0,1397262,53537,60855,140597,40825,16766938,9163,7986,Tag0,unknown
1610799544218,200,106,2.3291015625000003E-5,0,0,0,1397262,53537,60855,140597,40825,16766938,9163,7986,Tag0,unknown
1610799544234,200,288,6.328125E-5,0,0,0,1397262,53537,60855,140597,40825,16766938,9163,7986,Tag0,unknown
1610799544244,200,-80,-1.7578125E-5,0,0,0,1397262,53537,60855,140597,40825,16766938,9163,7986,Tag0,unknown
1610799544257,200,-129,-2.8344726562500002E-5,0,0,0,1397262,53537,60855,140597,40825,16766938,9163,7986,Tag0,unknown
1610799544269,200,-148,-3.251953125E-5,0,0,0,1397262,53537,60855,140597,40825,16766938,9163,7986,Tag0,unknown
1610799544296,200,-1473,-3.236572265625E-4,0,0,0,1397262,53537,60855,140597,40825,16766938,9163,7986,Tag0,unknown
1610799544318,200,-1428,-3.1376953125000003E-4,0,0,0,1397262,53537,60855,140597,40825,16766938,9163,7986,Tag0,unknown
1610799544328,200,-1449,-3.183837890625E-4,0,0,0,1397262,53537,60855,140597,40825,16766938,9163,7986,Tag0,unknown
1610799544338,200,-27,-5.9326171875000005E-6,0,0,0,1397262,53537,60855,140597,40825,16766938,9163,7986,Tag0,unknown
1610799544351,200,-178,-3.9111328125E-5,0,0,0,1397262,53537,60855,140597,40825,16766938,9163,7986,Tag0,unknown
1610799544361,200,-1041,-2.287353515625E-4,0,0,0,1397262,53537,60855,140597,40825,16766938,9163,7986,Tag0,unknown
1610799544381,200,229,5.03173828125E-5,0,0,0,1397262,53537,60855,140597,40825,16766938,9163,7986,Tag0,unknown
1610799544404,200,341,7.492675781250002E-5,0,0,0,1397262,53537,60855,140597,40825,16766938,9163,7986,Tag0,unknown
1610799544414,200,297,6.525878906250001E-5,0,0,0,1397262,53537,60855,140597,40825,16766938,9163,7986,Tag0,unknown
1610799544439,200,-281,-6.17431640625E-5,0,0,0,1397262,53537,60855,140597,40825,16766938,9163,7986,Tag0,unknown
1610799544451,200,-259,-5.69091796875E-5,0,0,0,1397262,53537,60855,140597,40825,16766938,9163,7986,Tag0,unknown
1610799544461,200,140,3.076171875E-5,0,0,0,1397262,53537,60855,140597,40825,16766938,9163,7986,Tag0,unknown
1610799544474,200,103,2.26318359375E-5,0,0,0,1397262,53537,60855,140597,40825,16766938,9163,7986,Tag0,unknown
1610799544484,200,113,2.48291015625E-5,0,0,0,1397262,53537,60855,140597,40825,16766938,9163,7986,Tag0,unknown
1610799544508,200,-259,-5.69091796875E-5,0,0,0,1397262,53537,60855,140597,40825,16766938,9163,7986,Tag0,unknown
1610799544518,200,91,1.99951171875E-5,0,0,0,1397262,53537,60855,140597,40825,16766938,9163,7986,Tag0,unknown
1610799544533,200,-311,-6.833496093750001E-5,0,0,0,1397262,53537,60855,140597,40825,16766938,9163,7986,Tag0,unknown
1610799544548,200,-23,-5.0537109375E-6,0,0,0,1397262,53537,60855,140597,40825,16766938,9163,7986,Tag0,unknown
1610799544564,200,321,7.053222656250001E-5,0,0,0,1397262,53537,60855,140597,40825,16766938,9163,7986,Tag0,unknown
1610799544582,200,514,1.12939453125E-4,0,0,0,1397262,53537,60855,140597,40825,16766938,9163,7986,Tag0,unknown
1610799544600,200,187,4.10888671875E-5,0,0,0,1397262,53537,60855,140597,40825,16766938,9163,7986,Tag0,unknown
1610799544610,200,369,8.10791015625E-5,0,0,0,1397262,53537,60855,140597,40825,16766938,9163,7986,Tag0,unknown
1610799544623,200,306,6.723632812500001E-5,0,0,0,1397262,53537,60855,140597,40825,16766938,9163,7986,Tag0,unknown
1610799544634,200,162,3.5595703125E-5,0,0,0,1397262,53537,60855,140597,40825,16766938,9163,7986,Tag0,unknown
1610799544654,200,553,1.215087890625E-4,0,0,0,1397262,53537,60855,140597,40825,16766938,9163,7986,Tag0,unknown
1610799544666,200,585,1.285400390625E-4,0,0,0,1397262,53537,60855,140597,40825,16766938,9163,7986,Tag0,unknown
1610799544676,200,483,1.061279296875E-4,0,0,0,1397262,53537,60855,140597,40825,16766938,9163,7986,Tag0,unknown
1610799544691,200,407,8.94287109375E-5,0,0,0,1397262,53537,60855,140597,40825,16766938,9163,7986,Tag0,unknown
1610799544701,200,272,5.9765625000000004E-5,0,0,0,1397262,53537,60855,140597,40825,16766938,9163,7986,Tag0,unknown
1610799544725,200,-237,-5.2075195312500004E-5,0,0,0,1397262,53537,60855,140597,40825,16766938,9163,7986,Tag0,unknown
1610799544735,200,-565,-1.241455078125E-4,0,0,0,1397262,53537,60855,140597,40825,16766938,9163,7986,Tag0,unknown
1610799544751,200,-802,-1.7622070312500003E-4,0,0,0,1397262,53537,60855,140597,40825,16766938,9163,7986,Tag0,unknown
1610799544767,200,-409,-8.986816406250001E-5,0,0,0,1397262,53537,60855,140597,40825,16766938,9163,7986,Tag0,unknown
1610799544784,200,-390,-8.5693359375E-5,0,0,0,1397262,53537,60855,140597,40825,16766938,9163,7986,Tag0,unknown
1610799544804,200,-567,-1.245849609375E-4,0,0,0,1397262,53537,60855,140597,40825,16766938,9163,7986,Tag0,unknown
1610799544817,200,-547,-1.201904296875E-4,0,0,0,1397262,53537,60855,140597,40825,16766938,9163,7986,Tag0,unknown
1610799544827,200,-337,-7.40478515625E-5,0,0,0,1397262,53537,60855,140597,40825,16766938,9163,7986,Tag0,unknown
1610799544855,200,-536,-1.1777343750000001E-4,0,0,0,1397262,53537,60855,140597,40825,16766938,9163,7986,Tag0,unknown
1610799544866,200,-539,-1.1843261718750001E-4,0,0,0,1397262,53537,60855,140597,40825,16766938,9163,7986,Tag0,unknown
1610799544876,200,-291,-6.39404296875E-5,0,0,0,1397262,53537,60855,140597,40825,16766938,9163,7986,Tag0,unknown
1610799544891,200,-345,-7.58056640625E-5,0,0,0,1397262,53537,60855,140597,40825,16766938,9163,7986,Tag0,unknown
1610799544902,200,-135,-2.96630859375E-5,0,0,0,1397262,53537,60855,140597,40825,16766938,9163,7986,Tag0,unknown
1610799544944,200,-262,-5.7568359375E-5,0,0,0,1397262,53537,60855,140597,40825,16766938,9163,7986,Tag0,unknown
1610799544954,200,25,5.4931640625E-6,0,0,0,1397262,53537,60855,140597,40825,16766938,9163,7986,Tag0,unknown
1610799544968,200,72,1.58203125E-5,0,0,0,1397262,53537,60855,140597,40825,16766938,9163,7986,Tag0,unknown
1610799544978,200,-43,-9.448242187500001E-6,0,0,0,1397262,53537,60855,140597,40825,16766938,9163,7986,Tag0,unknown
1610799544998,200,-8,-1.7578125E-6,0,0,0,1397262,53537,60855,140597,40825,16766938,9163,7986,Tag0,unknown
1610799545027,200,517,1.135986328125E-4,0,0,0,490657,68997,16756731,21931,15222,9048,5699,5777,Tag0,unknown
1610799545064,200,192,4.21875E-5,0,0,0,490657,68997,16756731,21931,15222,9048,5699,5777,Tag0,unknown
1610799545084,200,377,8.28369140625E-5,0,0,0,490657,68997,16756731,21931,15222,9048,5699,5777,Tag0,unknown
1610799545094,200,344,7.558593750000001E-5,0,0,0,490657,68997,16756731,21931,15222,9048,5699,5777,Tag0,unknown
1610799545104,200,260,5.712890625E-5,0,0,0,490657,68997,16756731,21931,15222,9048,5699,5777,Tag0,unknown
1610799545114,200,80,1.7578125E-5,0,0,0,490657,68997,16756731,21931,15222,9048,5699,5777,Tag0,unknown
1610799545134,200,52,1.142578125E-5,0,0,0,490657,68997,16756731,21931,15222,9048,5699,5777,Tag0,unknown
1610799545152,200,-289,-6.35009765625E-5,0,0,0,490657,68997,16756731,21931,15222,9048,5699,5777,Tag0,unknown
1610799545162,200,-309,-6.78955078125E-5,0,0,0,490657,68997,16756731,21931,15222,9048,5699,5777,Tag0,unknown
1610799545175,200,88,1.93359375E-5,0,0,0,490657,68997,16756731,21931,15222,9048,5699,5777,Tag0,unknown
1610799545190,200,327,7.18505859375E-5,0,0,0,490657,68997,16756731,21931,15222,9048,5699,5777,Tag0,unknown
1610799545204,200,336,7.382812500000001E-5,0,0,0,490657,68997,16756731,21931,15222,9048,5699,5777,Tag0,unknown
1610799545218,200,315,6.92138671875E-5,0,0,0,490657,68997,16756731,21931,15222,9048,5699,5777,Tag0,unknown
1610799545228,200,-313,-6.87744140625E-5,0,0,0,490657,68997,16756731,21931,15222,9048,5699,5777,Tag0,unknown
1610799545284,200,-211,-4.63623046875E-5,0,0,0,490657,68997,16756731,21931,15222,9048,5699,5777,Tag0,unknown
1610799545311,200,-150,-3.2958984375E-5,0,0,0,490657,68997,16756731,21931,15222,9048,5699,5777,Tag0,unknown
1610799545321,200,-139,-3.0541992187500004E-5,0,0,0,490657,68997,16756731,21931,15222,9048,5699,5777,Tag0,unknown
1610799545351,200,-231,-5.07568359375E-5,0,0,0,490657,68997,16756731,21931,15222,9048,5699,5777,Tag0,unknown
1610799545368,200,-237,-5.2075195312500004E-5,0,0,0,490657,68997,16756731,21931,15222,9048,5699,5777,Tag0,unknown
1610799545418,200,-237,-5.2075195312500004E-5,0,0,0,490657,68997,16756731,21931,15222,9048,5699,5777,Tag0,unknown
1610799545444,200,-228,-5.0097656250000005E-5,0,0,0,490657,68997,16756731,21931,15222,9048,5699,5777,Tag0,unknown
1610799545454,200,-179,-3.93310546875E-5,0,0,0,490657,68997,16756731,21931,15222,9048,5699,5777,Tag0,unknown
1610799545558,200,-189,-4.15283203125E-5,0,0,0,490657,68997,16756731,21931,15222,9048,5699,5777,Tag0,unknown
1610799545572,200,-142,-3.1201171875E-5,0,0,0,490657,68997,16756731,21931,15222,9048,5699,5777,Tag0,unknown
1610799545582,200,-167,-3.6694335937500004E-5,0,0,0,490657,68997,16756731,21931,15222,9048,5699,5777,Tag0,unknown
1610799545594,200,-305,-6.70166015625E-5,0,0,0,490657,68997,16756731,21931,15222,9048,5699,5777,Tag0,unknown
1610799545625,200,-283,-6.218261718750001E-5,0,0,0,490657,68997,16756731,21931,15222,9048,5699,5777,Tag0,unknown
1610799545639,200,-264,-5.80078125E-5,0,0,0,490657,68997,16756731,21931,15222,9048,5699,5777,Tag0,unknown
1610799545649,200,33,7.2509765625E-6,0,0,0,490657,68997,16756731,21931,15222,9048,5699,5777,Tag0,unknown
1610799545696,200,107,2.35107421875E-5,0,0,0,490657,68997,16756731,21931,15222,9048,5699,5777,Tag0,unknown
1610799545729,200,-117,-2.5708007812499998E-5,0,0,0,490657,68997,16756731,21931,15222,9048,5699,5777,Tag0,unknown
1610799545739,200,82,1.8017578124999998E-5,0,0,0,490657,68997,16756731,21931,15222,9048,5699,5777,Tag0,unknown
1610799545749,200,72,1.58203125E-5,0,0,0,490657,68997,16756731,21931,15222,9048,5699,5777,Tag0,unknown
1610799545766,200,76,1.669921875E-5,0,0,0,490657,68997,16756731,21931,15222,9048,5699,5777,Tag0,unknown
1610799545785,200,55,1.20849609375E-5,0,0,0,490657,68997,16756731,21931,15222,9048,5699,5777,Tag0,unknown
1610799545795,200,115,2.52685546875E-5,0,0,0,490657,68997,16756731,21931,15222,9048,5699,5777,Tag0,unknown
1610799545805,200,84,1.8457031250000004E-5,0,0,0,490657,68997,16756731,21931,15222,9048,5699,5777,Tag0,unknown
1610799545815,200,-56,-1.23046875E-5,0,0,0,490657,68997,16756731,21931,15222,9048,5699,5777,Tag0,unknown
1610799545825,200,-58,-1.2744140625E-5,0,0,0,490657,68997,16756731,21931,15222,9048,5699,5777,Tag0,unknown
1610799545835,200,101,2.2192382812500002E-5,0,0,0,490657,68997,16756731,21931,15222,9048,5699,5777,Tag0,unknown
1610799545845,200,-158,-3.4716796875000005E-5,0,0,0,490657,68997,16756731,21931,15222,9048,5699,5777,Tag0,unknown
1610799545855,200,71,1.56005859375E-5,0,0,0,490657,68997,16756731,21931,15222,9048,5699,5777,Tag0,unknown
1610799545877,200,-55,-1.20849609375E-5,0,0,0,490657,68997,16756731,21931,15222,9048,5699,5777,Tag0,unknown
1610799545915,200,268,5.8886718750000006E-5,0,0,0,490657,68997,16756731,21931,15222,9048,5699,5777,Tag0,unknown
1610799545939,200,257,5.64697265625E-5,0,0,0,490657,68997,16756731,21931,15222,9048,5699,5777,Tag0,unknown
1610799545949,200,374,8.2177734375E-5,0,0,0,490657,68997,16756731,21931,15222,9048,5699,5777,Tag0,unknown
1610799545960,200,298,6.5478515625E-5,0,0,0,490657,68997,16756731,21931,15222,9048,5699,5777,Tag0,unknown
1610799545970,200,-14,-3.076171875E-6,0,0,0,490657,68997,16756731,21931,15222,9048,5699,5777,Tag0,unknown
1610799545980,200,-111,-2.43896484375E-5,0,0,0,490657,68997,16756731,21931,15222,9048,5699,5777,Tag0,unknown
1610799545992,200,57,1.2524414062500001E-5,0,0,0,490657,68997,16756731,21931,15222,9048,5699,5777,Tag0,unknown
1610799546005,200,37,8.1298828125E-6,0,0,0,490657,68997,16756731,21931,15222,9048,5699,5777,Tag0,unknown
1610799546021,200,-316,-6.943359375000001E-5,0,0,0,873521,71468,9347,5031,4722,2628,1415,2128,Tag0,unknown
1610799546034,200,-281,-6.17431640625E-5,0,0,0,873521,71468,9347,5031,4722,2628,1415,2128,Tag0,unknown
1610799546055,200,-621,-1.364501953125E-4,0,0,0,873521,71468,9347,5031,4722,2628,1415,2128,Tag0,unknown
1610799546068,200,-620,-1.3623046875E-4,0,0,0,873521,71468,9347,5031,4722,2628,1415,2128,Tag0,unknown
1610799546092,200,69,1.51611328125E-5,0,0,0,873521,71468,9347,5031,4722,2628,1415,2128,Tag0,unknown
1610799546103,200,65,1.42822265625E-5,0,0,0,873521,71468,9347,5031,4722,2628,1415,2128,Tag0,unknown
1610799546130,200,80,1.7578125E-5,0,0,0,873521,71468,9347,5031,4722,2628,1415,2128,Tag0,unknown
1610799546140,200,-11,-2.4169921875E-6,0,0,0,873521,71468,9347,5031,4722,2628,1415,2128,Tag0,unknown
1610799546152,200,217,4.76806640625E-5,0,0,0,873521,71468,9347,5031,4722,2628,1415,2128,Tag0,unknown
1610799546170,200,-69,-1.51611328125E-5,0,0,0,873521,71468,9347,5031,4722,2628,1415,2128,Tag0,unknown
1610799546199,200,-699,-1.535888671875E-4,0,0,0,873521,71468,9347,5031,4722,2628,1415,2128,Tag0,unknown
1610799546217,200,-741,-1.6281738281249998E-4,0,0,0,873521,71468,9347,5031,4722,2628,1415,2128,Tag0,unknown
1610799546234,200,-405,-8.89892578125E-5,0,0,0,873521,71468,9347,5031,4722,2628,1415,2128,Tag0,unknown
1610799546261,200,-629,-1.382080078125E-4,0,0,0,873521,71468,9347,5031,4722,2628,1415,2128,Tag0,unknown
1610799546271,200,-402,-8.8330078125E-5,0,0,0,873521,71468,9347,5031,4722,2628,1415,2128,Tag0,unknown
1610799546294,200,-25,-5.4931640625E-6,0,0,0,873521,71468,9347,5031,4722,2628,1415,2128,Tag0,unknown
1610799546304,200,309,6.78955078125E-5,0,0,0,873521,71468,9347,5031,4722,2628,1415,2128,Tag0,unknown
1610799546314,200,123,2.70263671875E-5,0,0,0,873521,71468,9347,5031,4722,2628,1415,2128,Tag0,unknown
1610799546324,200,248,5.44921875E-5,0,0,0,873521,71468,9347,5031,4722,2628,1415,2128,Tag0,unknown
1610799546338,200,409,8.986816406250001E-5,0,0,0,873521,71468,9347,5031,4722,2628,1415,2128,Tag0,unknown
1610799546353,200,536,1.1777343750000001E-4,0,0,0,873521,71468,9347,5031,4722,2628,1415,2128,Tag0,unknown
1610799546370,200,307,6.74560546875E-5,0,0,0,873521,71468,9347,5031,4722,2628,1415,2128,Tag0,unknown
1610799546387,200,85,1.86767578125E-5,0,0,0,873521,71468,9347,5031,4722,2628,1415,2128,Tag0,unknown
1610799546397,200,-393,-8.63525390625E-5,0,0,0,873521,71468,9347,5031,4722,2628,1415,2128,Tag0,unknown
1610799546407,200,-213,-4.68017578125E-5,0,0,0,873521,71468,9347,5031,4722,2628,1415,2128,Tag0,unknown
1610799546420,200,163,3.5815429687500006E-5,0,0,0,873521,71468,9347,5031,4722,2628,1415,2128,Tag0,unknown
1610799546443,200,477,1.048095703125E-4,0,0,0,873521,71468,9347,5031,4722,2628,1415,2128,Tag0,unknown
1610799546454,200,449,9.86572265625E-5,0,0,0,873521,71468,9347,5031,4722,2628,1415,2128,Tag0,unknown
1610799546464,200,-35,-7.6904296875E-6,0,0,0,873521,71468,9347,5031,4722,2628,1415,2128,Tag0,unknown
1610799546474,200,-235,-5.16357421875E-5,0,0,0,873521,71468,9347,5031,4722,2628,1415,2128,Tag0,unknown
1610799546486,200,-446,-9.799804687500001E-5,0,0,0,873521,71468,9347,5031,4722,2628,1415,2128,Tag0,unknown
1610799546513,200,-69,-1.51611328125E-5,0,0,0,873521,71468,9347,5031,4722,2628,1415,2128,Tag0,unknown
1610799546535,200,738,1.62158203125E-4,0,0,0,873521,71468,9347,5031,4722,2628,1415,2128,Tag0,unknown
1610799546552,200,-227,-4.98779296875E-5,0,0,0,873521,71468,9347,5031,4722,2628,1415,2128,Tag0,unknown
1610799546569,200,-173,-3.80126953125E-5,0,0,0,873521,71468,9347,5031,4722,2628,1415,2128,Tag0,unknown
1610799546589,200,-248,-5.44921875E-5,0,0,0,873521,71468,9347,5031,4722,2628,1415,2128,Tag0,unknown
1610799546604,200,-152,-3.33984375E-5,0,0,0,873521,71468,9347,5031,4722,2628,1415,2128,Tag0,unknown
1610799546614,200,358,7.8662109375E-5,0,0,0,873521,71468,9347,5031,4722,2628,1415,2128,Tag0,unknown
1610799546627,200,265,5.82275390625E-5,0,0,0,873521,71468,9347,5031,4722,2628,1415,2128,Tag0,unknown
1610799546637,200,291,6.39404296875E-5,0,0,0,873521,71468,9347,5031,4722,2628,1415,2128,Tag0,unknown
1610799546661,200,-355,-7.80029296875E-5,0,0,0,873521,71468,9347,5031,4722,2628,1415,2128,Tag0,unknown
1610799546671,200,-333,-7.316894531249999E-5,0,0,0,873521,71468,9347,5031,4722,2628,1415,2128,Tag0,unknown
1610799546681,200,-619,-1.360107421875E-4,0,0,0,873521,71468,9347,5031,4722,2628,1415,2128,Tag0,unknown
1610799546701,200,-380,-8.349609375E-5,0,0,0,873521,71468,9347,5031,4722,2628,1415,2128,Tag0,unknown
1610799546718,200,-94,-2.0654296875000002E-5,0,0,0,873521,71468,9347,5031,4722,2628,1415,2128,Tag0,unknown
1610799546735,200,-95,-2.08740234375E-5,0,0,0,873521,71468,9347,5031,4722,2628,1415,2128,Tag0,unknown
1610799546753,200,-261,-5.73486328125E-5,0,0,0,873521,71468,9347,5031,4722,2628,1415,2128,Tag0,unknown
1610799546763,200,-125,-2.74658203125E-5,0,0,0,873521,71468,9347,5031,4722,2628,1415,2128,Tag0,unknown
1610799546773,200,265,5.82275390625E-5,0,0,0,873521,71468,9347,5031,4722,2628,1415,2128,Tag0,unknown
1610799546787,200,320,7.03125E-5,0,0,0,873521,71468,9347,5031,4722,2628,1415,2128,Tag0,unknown
1610799546804,200,187,4.10888671875E-5,0,0,0,873521,71468,9347,5031,4722,2628,1415,2128,Tag0,unknown
1610799546821,200,512,1.125E-4,0,0,0,873521,71468,9347,5031,4722,2628,1415,2128,Tag0,unknown
1610799546832,200,443,9.73388671875E-5,0,0,0,873521,71468,9347,5031,4722,2628,1415,2128,Tag0,unknown
1610799546846,200,151,3.31787109375E-5,0,0,0,873521,71468,9347,5031,4722,2628,1415,2128,Tag0,unknown
1610799546856,200,348,7.646484375E-5,0,0,0,873521,71468,9347,5031,4722,2628,1415,2128,Tag0,unknown
1610799546880,200,-103,-2.26318359375E-5,0,0,0,873521,71468,9347,5031,4722,2628,1415,2128,Tag0,unknown
1610799546902,200,-121,-2.6586914062500003E-5,0,0,0,873521,71468,9347,5031,4722,2628,1415,2128,Tag0,unknown
1610799546919,200,-127,-2.79052734375E-5,0,0,0,873521,71468,9347,5031,4722,2628,1415,2128,Tag0,unknown
1610799546936,200,-282,-6.1962890625E-5,0,0,0,873521,71468,9347,5031,4722,2628,1415,2128,Tag0,unknown
1610799546959,200,19,4.1748046875E-6,0,0,0,873521,71468,9347,5031,4722,2628,1415,2128,Tag0,unknown
1610799546971,200,16,3.515625E-6,0,0,0,873521,71468,9347,5031,4722,2628,1415,2128,Tag0,unknown
1610799546981,200,-317,-6.96533203125E-5,0,0,0,873521,71468,9347,5031,4722,2628,1415,2128,Tag0,unknown
1610799546991,200,-268,-5.8886718750000006E-5,0,0,0,873521,71468,9347,5031,4722,2628,1415,2128,Tag0,unknown
1610799547004,200,-309,-6.78955078125E-5,0,0,0,873521,71468,9347,5031,4722,2628,1415,2128,Tag0,unknown
1610799547024,200,-153,-3.3618164062500004E-5,0,0,0,598052,30956,19657,18780,16747558,16745791,4697,3785,Tag0,unknown
1610799547038,200,-532,-1.1689453125E-4,0,0,0,598052,30956,19657,18780,16747558,16745791,4697,3785,Tag0,unknown
1610799547064,200,-569,-1.250244140625E-4,0,0,0,598052,30956,19657,18780,16747558,16745791,4697,3785,Tag0,unknown
1610799547086,200,-196,-4.306640625E-5,0,0,0,598052,30956,19657,18780,16747558,16745791,4697,3785,Tag0,unknown
1610799547113,200,-305,-6.70166015625E-5,0,0,0,598052,30956,19657,18780,16747558,16745791,4697,3785,Tag0,unknown
1610799547123,200,-290,-6.3720703125E-5,0,0,0,598052,30956,19657,18780,16747558,16745791,4697,3785,Tag0,unknown
1610799547138,200,-62,-1.3623046875E-5,0,0,0,598052,30956,19657,18780,16747558,16745791,4697,3785,Tag0,unknown
1610799547153,200,-8,-1.7578125E-6,0,0,0,598052,30956,19657,18780,16747558,16745791,4697,3785,Tag0,unknown
1610799547170,200,-47,-1.0327148437500001E-5,0,0,0,598052,30956,19657,18780,16747558,16745791,4697,3785,Tag0,unknown
1610799547187,200,125,2.74658203125E-5,0,0,0,598052,30956,19657,18780,16747558,16745791,4697,3785,Tag0,unknown
1610799547203,200,107,2.35107421875E-5,0,0,0,598052,30956,19657,18780,16747558,16745791,4697,3785,Tag0,unknown
1610799547213,200,-64,-1.40625E-5,0,0,0,598052,30956,19657,18780,16747558,16745791,4697,3785,Tag0,unknown
1610799547225,200,-53,-1.1645507812500002E-5,0,0,0,598052,30956,19657,18780,16747558,16745791,4697,3785,Tag0,unknown
1610799547237,200,-70,-1.5380859375E-5,0,0,0,598052,30956,19657,18780,16747558,16745791,4697,3785,Tag0,unknown
1610799547262,200,85,1.86767578125E-5,0,0,0,598052,30956,19657,18780,16747558,16745791,4697,3785,Tag0,unknown
1610799547272,200,88,1.93359375E-5,0,0,0,598052,30956,19657,18780,16747558,16745791,4697,3785,Tag0,unknown
1610799547282,200,-267,-5.86669921875E-5,0,0,0,598052,30956,19657,18780,16747558,16745791,4697,3785,Tag0,unknown
1610799547305,200,40,8.7890625E-6,0,0,0,598052,30956,19657,18780,16747558,16745791,4697,3785,Tag0,unknown
1610799547332,200,66,1.4501953125E-5,0,0,0,598052,30956,19657,18780,16747558,16745791,4697,3785,Tag0,unknown
1610799547342,200,26,5.712890625E-6,0,0,0,598052,30956,19657,18780,16747558,16745791,4697,3785,Tag0,unknown
1610799547355,200,87,1.91162109375E-5,0,0,0,598052,30956,19657,18780,16747558,16745791,4697,3785,Tag0,unknown
1610799547365,200,-260,-5.712890625E-5,0,0,0,598052,30956,19657,18780,16747558,16745791,4697,3785,Tag0,unknown
1610799547389,200,39,8.5693359375E-6,0,0,0,598052,30956,19657,18780,16747558,16745791,4697,3785,Tag0,unknown
1610799547405,200,83,1.82373046875E-5,0,0,0,598052,30956,19657,18780,16747558,16745791,4697,3785,Tag0,unknown
1610799547422,200,75,1.64794921875E-5,0,0,0,598052,30956,19657,18780,16747558,16745791,4697,3785,Tag0,unknown
1610799547432,200,-379,-8.32763671875E-5,0,0,0,598052,30956,19657,18780,16747558,16745791,4697,3785,Tag0,unknown
1610799547449,200,-359,-7.88818359375E-5,0,0,0,598052,30956,19657,18780,16747558,16745791,4697,3785,Tag0,unknown
1610799547459,200,-291,-6.39404296875E-5,0,0,0,598052,30956,19657,18780,16747558,16745791,4697,3785,Tag0,unknown
1610799547471,200,-313,-6.87744140625E-5,0,0,0,598052,30956,19657,18780,16747558,16745791,4697,3785,Tag0,unknown
1610799547502,200,33,7.2509765625E-6,0,0,0,598052,30956,19657,18780,16747558,16745791,4697,3785,Tag0,unknown
1610799547520,200,97,2.13134765625E-5,0,0,0,598052,30956,19657,18780,16747558,16745791,4697,3785,Tag0,unknown
1610799547539,200,-96,-2.109375E-5,0,0,0,598052,30956,19657,18780,16747558,16745791,4697,3785,Tag0,unknown
1610799547554,200,-116,-2.548828125E-5,0,0,0,598052,30956,19657,18780,16747558,16745791,4697,3785,Tag0,unknown
1610799547576,200,-77,-1.69189453125E-5,0,0,0,598052,30956,19657,18780,16747558,16745791,4697,3785,Tag0,unknown
1610799547589,200,-93,-2.04345703125E-5,0,0,0,598052,30956,19657,18780,16747558,16745791,4697,3785,Tag0,unknown
1610799547599,200,118,2.5927734375E-5,0,0,0,598052,30956,19657,18780,16747558,16745791,4697,3785,Tag0,unknown
1610799547609,200,-94,-2.0654296875000002E-5,0,0,0,598052,30956,19657,18780,16747558,16745791,4697,3785,Tag0,unknown
1610799547621,200,268,5.8886718750000006E-5,0,0,0,598052,30956,19657,18780,16747558,16745791,4697,3785,Tag0,unknown
1610799547646,200,-45,-9.8876953125E-6,0,0,0,598052,30956,19657,18780,16747558,16745791,4697,3785,Tag0,unknown
1610799547656,200,-73,-1.6040039062500002E-5,0,0,0,598052,30956,19657,18780,16747558,16745791,4697,3785,Tag0,unknown
1610799547671,200,103,2.26318359375E-5,0,0,0,598052,30956,19657,18780,16747558,16745791,4697,3785,Tag0,unknown
1610799547687,200,113,2.48291015625E-5,0,0,0,598052,30956,19657,18780,16747558,16745791,4697,3785,Tag0,unknown
1610799547703,200,-114,-2.5048828125000003E-5,0,0,0,598052,30956,19657,18780,16747558,16745791,4697,3785,Tag0,unknown
1610799547721,200,27,5.9326171875000005E-6,0,0,0,598052,30956,19657,18780,16747558,16745791,4697,3785,Tag0,unknown
1610799547741,200,39,8.5693359375E-6,0,0,0,598052,30956,19657,18780,16747558,16745791,4697,3785,Tag0,unknown
1610799547751,200,18,3.955078125E-6,0,0,0,598052,30956,19657,18780,16747558,16745791,4697,3785,Tag0,unknown
1610799547764,200,-322,-7.0751953125E-5,0,0,0,598052,30956,19657,18780,16747558,16745791,4697,3785,Tag0,unknown
1610799547792,200,6,1.318359375E-6,0,0,0,598052,30956,19657,18780,16747558,16745791,4697,3785,Tag0,unknown
1610799547806,200,-274,-6.0205078124999997E-5,0,0,0,598052,30956,19657,18780,16747558,16745791,4697,3785,Tag0,unknown
1610799547816,200,98,2.1533203125E-5,0,0,0,598052,30956,19657,18780,16747558,16745791,4697,3785,Tag0,unknown
1610799547830,200,11,2.4169921875E-6,0,0,0,598052,30956,19657,18780,16747558,16745791,4697,3785,Tag0,unknown
1610799547840,200,17,3.7353515625000003E-6,0,0,0,598052,30956,19657,18780,16747558,16745791,4697,3785,Tag0,unknown
1610799547864,200,34,7.4707031250000005E-6,0,0,0,598052,30956,19657,18780,16747558,16745791,4697,3785,Tag0,unknown
1610799547874,200,-333,-7.316894531249999E-5,0,0,0,598052,30956,19657,18780,16747558,16745791,4697,3785,Tag0,unknown
1610799547889,200,-331,-7.272949218750001E-5,0,0,0,598052,30956,19657,18780,16747558,16745791,4697,3785,Tag0,unknown
1610799547906,200,115,2.52685546875E-5,0,0,0,598052,30956,19657,18780,16747558,16745791,4697,3785,Tag0,unknown
1610799547920,200,66,1.4501953125E-5,0,0,0,598052,30956,19657,18780,16747558,16745791,4697,3785,Tag0,unknown
1610799547940,200,44,9.66796875E-6,0,0,0,598052,30956,19657,18780,16747558,16745791,4697,3785,Tag0,unknown
1610799547955,200,56,1.23046875E-5,0,0,0,598052,30956,19657,18780,16747558,16745791,4697,3785,Tag0,unknown
1610799547965,200,-87,-1.91162109375E-5,0,0,0,598052,30956,19657,18780,16747558,16745791,4697,3785,Tag0,unknown
1610799547979,200,89,1.95556640625E-5,0,0,0,598052,30956,19657,18780,16747558,16745791,4697,3785,Tag0,unknown
1610799547989,200,82,1.8017578124999998E-5,0,0,0,598052,30956,19657,18780,16747558,16745791,4697,3785,Tag0,unknown
1610799548005,200,88,1.93359375E-5,0,0,0,598052,30956,19657,18780,16747558,16745791,4697,3785,Tag0,unknown
1610799548026,200,-121,-2.6586914062500003E-5,0,0,0,63772,16755928,1628,3307,2668,2384,1028,1145,Tag0,unknown
1610799548042,200,80,1.7578125E-5,0,0,0,63772,16755928,1628,3307,2668,2384,1028,1145,Tag0,unknown
1610799548052,200,105,2.30712890625E-5,0,0,0,63772,16755928,1628,3307,2668,2384,1028,1145,Tag0,unknown
1610799548069,200,-55,-1.20849609375E-5,0,0,0,63772,16755928,1628,3307,2668,2384,1028,1145,Tag0,unknown
1610799548087,200,-22,-4.833984375E-6,0,0,0,63772,16755928,1628,3307,2668,2384,1028,1145,Tag0,unknown
1610799548117,200,-109,-2.39501953125E-5,0,0,0,63772,16755928,1628,3307,2668,2384,1028,1145,Tag0,unknown
1610799548127,200,-128,-2.8125E-5,0,0,0,63772,16755928,1628,3307,2668,2384,1028,1145,Tag0,unknown
1610799548140,200,-95,-2.08740234375E-5,0,0,0,63772,16755928,1628,3307,2668,2384,1028,1145,Tag0,unknown
1610799548157,200,-26,-5.712890625E-6,0,0,0,63772,16755928,1628,3307,2668,2384,1028,1145,Tag0,unknown
1610799548173,200,-266,-5.8447265625E-5,0,0,0,63772,16755928,1628,3307,2668,2384,1028,1145,Tag0,unknown
1610799548189,200,45,9.8876953125E-6,0,0,0,63772,16755928,1628,3307,2668,2384,1028,1145,Tag0,unknown
1610799548206,200,-259,-5.69091796875E-5,0,0,0,63772,16755928,1628,3307,2668,2384,1028,1145,Tag0,unknown
1610799548223,200,-315,-6.92138671875E-5,0,0,0,63772,16755928,1628,3307,2668,2384,1028,1145,Tag0,unknown
1610799548240,200,-301,-6.613769531250001E-5,0,0,0,63772,16755928,1628,3307,2668,2384,1028,1145,Tag0,unknown
1610799548250,200,27,5.9326171875000005E-6,0,0,0,63772,16755928,1628,3307,2668,2384,1028,1145,Tag0,unknown
1610799548260,200,66,1.4501953125E-5,0,0,0,63772,16755928,1628,3307,2668,2384,1028,1145,Tag0,unknown
1610799548272,200,97,2.13134765625E-5,0,0,0,63772,16755928,1628,3307,2668,2384,1028,1145,Tag0,unknown
1610799548299,200,8,1.7578125E-6,0,0,0,63772,16755928,1628,3307,2668,2384,1028,1145,Tag0,unknown
1610799548309,200,85,1.86767578125E-5,0,0,0,63772,16755928,1628,3307,2668,2384,1028,1145,Tag0,unknown
1610799548323,200,57,1.2524414062500001E-5,0,0,0,63772,16755928,1628,3307,2668,2384,1028,1145,Tag0,unknown
1610799548338,200,125,2.74658203125E-5,0,0,0,63772,16755928,1628,3307,2668,2384,1028,1145,Tag0,unknown
1610799548355,200,102,2.2412109374999998E-5,0,0,0,63772,16755928,1628,3307,2668,2384,1028,1145,Tag0,unknown
1610799548371,200,44,9.66796875E-6,0,0,0,63772,16755928,1628,3307,2668,2384,1028,1145,Tag0,unknown
1610799548388,200,26,5.712890625E-6,0,0,0,63772,16755928,1628,3307,2668,2384,1028,1145,Tag0,unknown
1610799548409,200,-292,-6.416015625000001E-5,0,0,0,63772,16755928,1628,3307,2668,2384,1028,1145,Tag0,unknown
1610799548426,200,-276,-6.064453125E-5,0,0,0,63772,16755928,1628,3307,2668,2384,1028,1145,Tag0,unknown
1610799548436,200,-273,-5.998535156250001E-5,0,0,0,63772,16755928,1628,3307,2668,2384,1028,1145,Tag0,unknown
1610799548457,200,-289,-6.35009765625E-5,0,0,0,63772,16755928,1628,3307,2668,2384,1028,1145,Tag0,unknown
1610799548467,200,92,2.021484375E-5,0,0,0,63772,16755928,1628,3307,2668,2384,1028,1145,Tag0,unknown
1610799548477,200,61,1.34033203125E-5,0,0,0,63772,16755928,1628,3307,2668,2384,1028,1145,Tag0,unknown
1610799548489,200,-106,-2.3291015625000003E-5,0,0,0,63772,16755928,1628,3307,2668,2384,1028,1145,Tag0,unknown
1610799548506,200,-45,-9.8876953125E-6,0,0,0,63772,16755928,1628,3307,2668,2384,1028,1145,Tag0,unknown
1610799548523,200,112,2.4609375E-5,0,0,0,63772,16755928,1628,3307,2668,2384,1028,1145,Tag0,unknown
1610799548541,200,97,2.13134765625E-5,0,0,0,63772,16755928,1628,3307,2668,2384,1028,1145,Tag0,unknown
1610799548556,200,88,1.93359375E-5,0,0,0,63772,16755928,1628,3307,2668,2384,1028,1145,Tag0,unknown
1610799548566,200,-306,-6.723632812500001E-5,0,0,0,63772,16755928,1628,3307,2668,2384,1028,1145,Tag0,unknown
1610799548578,200,61,1.34033203125E-5,0,0,0,63772,16755928,1628,3307,2668,2384,1028,1145,Tag0,unknown
1610799548588,200,91,1.99951171875E-5,0,0,0,63772,16755928,1628,3307,2668,2384,1028,1145,Tag0,unknown
1610799548614,200,44,9.66796875E-6,0,0,0,63772,16755928,1628,3307,2668,2384,1028,1145,Tag0,unknown
1610799548624,200,9,1.9775390625E-6,0,0,0,63772,16755928,1628,3307,2668,2384,1028,1145,Tag0,unknown
1610799548638,200,69,1.51611328125E-5,0,0,0,63772,16755928,1628,3307,2668,2384,1028,1145,Tag0,unknown
1610799548657,200,48,1.0546875E-5,0,0,0,63772,16755928,1628,3307,2668,2384,1028,1145,Tag0,unknown
1610799548684,200,-316,-6.943359375000001E-5,0,0,0,63772,16755928,1628,3307,2668,2384,1028,1145,Tag0,unknown
1610799548694,200,-282,-6.1962890625E-5,0,0,0,63772,16755928,1628,3307,2668,2384,1028,1145,Tag0,unknown
1610799548707,200,125,2.74658203125E-5,0,0,0,63772,16755928,1628,3307,2668,2384,1028,1145,Tag0,unknown
1610799548725,200,-317,-6.96533203125E-5,0,0,0,63772,16755928,1628,3307,2668,2384,1028,1145,Tag0,unknown
1610799548741,200,-298,-6.5478515625E-5,0,0,0,63772,16755928,1628,3307,2668,2384,1028,1145,Tag0,unknown
1610799548758,200,51,1.1206054687499999E-5,0,0,0,63772,16755928,1628,3307,2668,2384,1028,1145,Tag0,unknown
1610799548774,200,126,2.7685546875E-5,0,0,0,63772,16755928,1628,3307,2668,2384,1028,1145,Tag0,unknown
1610799548791,200,-105,-2.30712890625E-5,0,0,0,63772,16755928,1628,3307,2668,2384,1028,1145,Tag0,unknown
1610799548801,200,-95,-2.08740234375E-5,0,0,0,63772,16755928,1628,3307,2668,2384,1028,1145,Tag0,unknown
1610799548811,200,278,6.108398437500001E-5,0,0,0,63772,16755928,1628,3307,2668,2384,1028,1145,Tag0,unknown
1610799548823,200,98,2.1533203125E-5,0,0,0,63772,16755928,1628,3307,2668,2384,1028,1145,Tag0,unknown
1610799548839,200,107,2.35107421875E-5,0,0,0,63772,16755928,1628,3307,2668,2384,1028,1145,Tag0,unknown
1610799548855,200,-261,-5.73486328125E-5,0,0,0,63772,16755928,1628,3307,2668,2384,1028,1145,Tag0,unknown
1610799548872,200,53,1.1645507812500002E-5,0,0,0,63772,16755928,1628,3307,2668,2384,1028,1145,Tag0,unknown
1610799548895,200,-299,-6.56982421875E-5,0,0,0,63772,16755928,1628,3307,2668,2384,1028,1145,Tag0,unknown
1610799548908,200,-341,-7.492675781250002E-5,0,0,0,63772,16755928,1628,3307,2668,2384,1028,1145,Tag0,unknown
1610799548928,200,8,1.7578125E-6,0,0,0,63772,16755928,1628,3307,2668,2384,1028,1145,Tag0,unknown
1610799548942,200,7,1.5380859375E-6,0,0,0,63772,16755928,1628,3307,2668,2384,1028,1145,Tag0,unknown
1610799548952,200,61,1.34033203125E-5,0,0,0,63772,16755928,1628,3307,2668,2384,1028,1145,Tag0,unknown
1610799548962,200,-123,-2.70263671875E-5,0,0,0,63772,16755928,1628,3307,2668,2384,1028,1145,Tag0,unknown
1610799548974,200,123,2.70263671875E-5,0,0,0,63772,16755928,1628,3307,2668,2384,1028,1145,Tag0,unknown
1610799549000,200,37,8.1298828125E-6,0,0,0,63772,16755928,1628,3307,2668,2384,1028,1145,Tag0,unknown
1610799549010,200,53,1.1645507812500002E-5,0,0,0,63772,16755928,1628,3307,2668,2384,1028,1145,Tag0,unknown
1610799549028,200,-122,-2.6806640625E-5,0,0,0,16772143,7690,4636,1713,1266,3641,985,1392,Tag0,unknown
1610799549039,200,-75,-1.64794921875E-5,0,0,0,16772143,7690,4636,1713,1266,3641,985,1392,Tag0,unknown
1610799549056,200,-76,-1.669921875E-5,0,0,0,16772143,7690,4636,1713,1266,3641,985,1392,Tag0,unknown
1610799549078,200,85,1.86767578125E-5,0,0,0,16772143,7690,4636,1713,1266,3641,985,1392,Tag0,unknown
1610799549089,200,96,2.109375E-5,0,0,0,16772143,7690,4636,1713,1266,3641,985,1392,Tag0,unknown
1610799549112,200,-269,-5.9106445312499996E-5,0,0,0,16772143,7690,4636,1713,1266,3641,985,1392,Tag0,unknown
1610799549125,200,-317,-6.96533203125E-5,0,0,0,16772143,7690,4636,1713,1266,3641,985,1392,Tag0,unknown
1610799549135,200,11,2.4169921875E-6,0,0,0,16772143,7690,4636,1713,1266,3641,985,1392,Tag0,unknown
1610799549145,200,-295,-6.48193359375E-5,0,0,0,16772143,7690,4636,1713,1266,3641,985,1392,Tag0,unknown
1610799549158,200,57,1.2524414062500001E-5,0,0,0,16772143,7690,4636,1713,1266,3641,985,1392,Tag0,unknown
1610799549185,200,-87,-1.91162109375E-5,0,0,0,16772143,7690,4636,1713,1266,3641,985,1392,Tag0,unknown
1610799549195,200,125,2.74658203125E-5,0,0,0,16772143,7690,4636,1713,1266,3641,985,1392,Tag0,unknown
1610799549207,200,112,2.4609375E-5,0,0,0,16772143,7690,4636,1713,1266,3641,985,1392,Tag0,unknown
1610799549217,200,-83,-1.82373046875E-5,0,0,0,16772143,7690,4636,1713,1266,3641,985,1392,Tag0,unknown
1610799549241,200,-43,-9.448242187500001E-6,0,0,0,16772143,7690,4636,1713,1266,3641,985,1392,Tag0,unknown
1610799549258,200,56,1.23046875E-5,0,0,0,16772143,7690,4636,1713,1266,3641,985,1392,Tag0,unknown
1610799549274,200,49,1.07666015625E-5,0,0,0,16772143,7690,4636,1713,1266,3641,985,1392,Tag0,unknown
1610799549284,200,-333,-7.316894531249999E-5,0,0,0,16772143,7690,4636,1713,1266,3641,985,1392,Tag0,unknown
1610799549298,200,-277,-6.0864257812500005E-5,0,0,0,16772143,7690,4636,1713,1266,3641,985,1392,Tag0,unknown
1610799549308,200,102,2.2412109374999998E-5,0,0,0,16772143,7690,4636,1713,1266,3641,985,1392,Tag0,unknown
1610799549331,200,120,2.63671875E-5,0,0,0,16772143,7690,4636,1713,1266,3641,985,1392,Tag0,unknown
1610799549341,200,114,2.5048828125000003E-5,0,0,0,16772143,7690,4636,1713,1266,3641,985,1392,Tag0,unknown
1610799549357,200,-91,-1.99951171875E-5,0,0,0,16772143,7690,4636,1713,1266,3641,985,1392,Tag0,unknown
1610799549376,200,51,1.1206054687499999E-5,0,0,0,16772143,7690,4636,1713,1266,3641,985,1392,Tag0,unknown
1610799549392,200,32,7.03125E-6,0,0,0,16772143,7690,4636,1713,1266,3641,985,1392,Tag0,unknown
1610799549409,200,4,8.7890625E-7,0,0,0,16772143,7690,4636,1713,1266,3641,985,1392,Tag0,unknown
1610799549425,200,-85,-1.86767578125E-5,0,0,0,16772143,7690,4636,1713,1266,3641,985,1392,Tag0,unknown
1610799549435,200,9,1.9775390625E-6,0,0,0,16772143,7690,4636,1713,1266,3641,985,1392,Tag0,unknown
1610799549448,200,-276,-6.064453125E-5,0,0,0,16772143,7690,4636,1713,1266,3641,985,1392,Tag0,unknown
1610799549458,200,-315,-6.92138671875E-5,0,0,0,16772143,7690,4636,1713,1266,3641,985,1392,Tag0,unknown
1610799549482,200,37,8.1298828125E-6,0,0,0,16772143,7690,4636,1713,1266,3641,985,1392,Tag0,unknown
1610799549492,200,105,2.30712890625E-5,0,0,0,16772143,7690,4636,1713,1266,3641,985,1392,Tag0,unknown
1610799549502,200,115,2.52685546875E-5,0,0,0,16772143,7690,4636,1713,1266,3641,985,1392,Tag0,unknown
1610799549512,200,52,1.142578125E-5,0,0,0,16772143,7690,4636,1713,1266,3641,985,1392,Tag0,unknown
1610799549524,200,57,1.2524414062500001E-5,0,0,0,16772143,7690,4636,1713,1266,3641,985,1392,Tag0,unknown
1610799549539,200,120,2.63671875E-5,0,0,0,16772143,7690,4636,1713,1266,3641,985,1392,Tag0,unknown
1610799549556,200,29,6.3720703125E-6,0,0,0,16772143,7690,4636,1713,1266,3641,985,1392,Tag0,unknown
1610799549573,200,-295,-6.48193359375E-5,0,0,0,16772143,7690,4636,1713,1266,3641,985,1392,Tag0,unknown
1610799549593,200,-278,-6.108398437500001E-5,0,0,0,16772143,7690,4636,1713,1266,3641,985,1392,Tag0,unknown
1610799549609,200,-264,-5.80078125E-5,0,0,0,16772143,7690,4636,1713,1266,3641,985,1392,Tag0,unknown
1610799549627,200,52,1.142578125E-5,0,0,0,16772143,7690,4636,1713,1266,3641,985,1392,Tag0,unknown
1610799549642,200,60,1.318359375E-5,0,0,0,16772143,7690,4636,1713,1266,3641,985,1392,Tag0,unknown
1610799549652,200,263,5.7788085937500005E-5,0,0,0,16772143,7690,4636,1713,1266,3641,985,1392,Tag0,unknown
1610799549664,200,2,4.39453125E-7,0,0,0,16772143,7690,4636,1713,1266,3641,985,1392,Tag0,unknown
1610799549675,200,56,1.23046875E-5,0,0,0,16772143,7690,4636,1713,1266,3641,985,1392,Tag0,unknown
1610799549698,200,5,1.0986328125E-6,0,0,0,16772143,7690,4636,1713,1266,3641,985,1392,Tag0,unknown
1610799549709,200,-302,-6.6357421875E-5,0,0,0,16772143,7690,4636,1713,1266,3641,985,1392,Tag0,unknown
1610799549719,200,103,2.26318359375E-5,0,0,0,16772143,7690,4636,1713,1266,3641,985,1392,Tag0,unknown
1610799549736,200,97,2.13134765625E-5,0,0,0,16772143,7690,4636,1713,1266,3641,985,1392,Tag0,unknown
1610799549746,200,1,2.197265625E-7,0,0,0,16772143,7690,4636,1713,1266,3641,985,1392,Tag0,unknown
1610799549770,200,54,1.1865234375000001E-5,0,0,0,16772143,7690,4636,1713,1266,3641,985,1392,Tag0,unknown
1610799549790,200,118,2.5927734375E-5,0,0,0,16772143,7690,4636,1713,1266,3641,985,1392,Tag0,unknown
1610799549810,200,-91,-1.99951171875E-5,0,0,0,16772143,7690,4636,1713,1266,3641,985,1392,Tag0,unknown
1610799549825,200,-37,-8.1298828125E-6,0,0,0,16772143,7690,4636,1713,1266,3641,985,1392,Tag0,unknown
1610799549844,200,53,1.1645507812500002E-5,0,0,0,16772143,7690,4636,1713,1266,3641,985,1392,Tag0,unknown
1610799549860,200,76,1.669921875E-5,0,0,0,16772143,7690,4636,1713,1266,3641,985,1392,Tag0,unknown
1610799549870,200,-269,-5.9106445312499996E-5,0,0,0,16772143,7690,4636,1713,1266,3641,985,1392,Tag0,unknown
1610799549885,200,-354,-7.778320312500001E-5,0,0,0,16772143,7690,4636,1713,1266,3641,985,1392,Tag0,unknown
1610799549895,200,-348,-7.646484375E-5,0,0,0,16772143,7690,4636,1713,1266,3641,985,1392,Tag0,unknown
1610799549919,200,-381,-8.371582031250001E-5,0,0,0,16772143,7690,4636,1713,1266,3641,985,1392,Tag0,unknown
1610799549929,200,-291,-6.39404296875E-5,0,0,0,16772143,7690,4636,1713,1266,3641,985,1392,Tag0,unknown
1610799549943,200,6,1.318359375E-6,0,0,0,16772143,7690,4636,1713,1266,3641,985,1392,Tag0,unknown
1610799549960,200,92,2.021484375E-5,0,0,0,16772143,7690,4636,1713,1266,3641,985,1392,Tag0,unknown
1610799549978,200,102,2.2412109374999998E-5,0,0,0,16772143,7690,4636,1713,1266,3641,985,1392,Tag0,unknown
1610799549994,200,-73,-1.6040039062500002E-5,0,0,0,16772143,7690,4636,1713,1266,3641,985,1392,Tag0,unknown
1610799550008,200,-93,-2.04345703125E-5,0,0,0,16772143,7690,4636,1713,1266,3641,985,1392,Tag0,unknown
1610799550027,200,123,2.70263671875E-5,0,0,0,1951050,275928,26715,71396,16769616,29180,23191,10080,Tag0,unknown
1610799550041,200,117,2.5708007812499998E-5,0,0,0,1951050,275928,26715,71396,16769616,29180,23191,10080,Tag0,unknown
1610799550057,200,71,1.56005859375E-5,0,0,0,1951050,275928,26715,71396,16769616,29180,23191,10080,Tag0,unknown
1610799550074,200,72,1.58203125E-5,0,0,0,1951050,275928,26715,71396,16769616,29180,23191,10080,Tag0,unknown
1610799550099,200,-319,-7.00927734375E-5,0,0,0,1951050,275928,26715,71396,16769616,29180,23191,10080,Tag0,unknown
1610799550113,200,-260,-5.712890625E-5,0,0,0,1951050,275928,26715,71396,16769616,29180,23191,10080,Tag0,unknown
1610799550124,200,-261,-5.73486328125E-5,0,0,0,1951050,275928,26715,71396,16769616,29180,23191,10080,Tag0,unknown
1610799550134,200,-269,-5.9106445312499996E-5,0,0,0,1951050,275928,26715,71396,16769616,29180,23191,10080,Tag0,unknown
1610799550146,200,55,1.20849609375E-5,0,0,0,1951050,275928,26715,71396,16769616,29180,23191,10080,Tag0,unknown
1610799550156,200,-285,-6.26220703125E-5,0,0,0,1951050,275928,26715,71396,16769616,29180,23191,10080,Tag0,unknown
1610799550166,200,-284,-6.240234375E-5,0,0,0,1951050,275928,26715,71396,16769616,29180,23191,10080,Tag0,unknown
1610799550178,200,-122,-2.6806640625E-5,0,0,0,1951050,275928,26715,71396,16769616,29180,23191,10080,Tag0,unknown
1610799550200,200,-123,-2.70263671875E-5,0,0,0,1951050,275928,26715,71396,16769616,29180,23191,10080,Tag0,unknown
1610799550210,200,-95,-2.08740234375E-5,0,0,0,1951050,275928,26715,71396,16769616,29180,23191,10080,Tag0,unknown
1610799550224,200,68,1.4941406250000001E-5,0,0,0,1951050,275928,26715,71396,16769616,29180,23191,10080,Tag0,unknown
1610799550283,200,76,1.669921875E-5,0,0,0,1951050,275928,26715,71396,16769616,29180,23191,10080,Tag0,unknown
1610799550293,200,57,1.2524414062500001E-5,0,0,0,1951050,275928,26715,71396,16769616,29180,23191,10080,Tag0,unknown
1610799550353,200,-67,-1.4721679687500002E-5,0,0,0,1951050,275928,26715,71396,16769616,29180,23191,10080,Tag0,unknown
1610799550364,200,-90,-1.9775390625E-5,0,0,0,1951050,275928,26715,71396,16769616,29180,23191,10080,Tag0,unknown
1610799550374,200,-96,-2.109375E-5,0,0,0,1951050,275928,26715,71396,16769616,29180,23191,10080,Tag0,unknown
1610799550392,200,-86,-1.8896484375000003E-5,0,0,0,1951050,275928,26715,71396,16769616,29180,23191,10080,Tag0,unknown
1610799550419,200,-88,-1.93359375E-5,0,0,0,1951050,275928,26715,71396,16769616,29180,23191,10080,Tag0,unknown
1610799550429,200,-102,-2.2412109374999998E-5,0,0,0,1951050,275928,26715,71396,16769616,29180,23191,10080,Tag0,unknown
1610799550486,200,-369,-8.10791015625E-5,0,0,0,1951050,275928,26715,71396,16769616,29180,23191,10080,Tag0,unknown
1610799550496,200,-338,-7.426757812499999E-5,0,0,0,1951050,275928,26715,71396,16769616,29180,23191,10080,Tag0,unknown
1610799550553,200,21,4.614257812500001E-6,0,0,0,1951050,275928,26715,71396,16769616,29180,23191,10080,Tag0,unknown
1610799550563,200,43,9.448242187500001E-6,0,0,0,1951050,275928,26715,71396,16769616,29180,23191,10080,Tag0,unknown
1610799550582,200,88,1.93359375E-5,0,0,0,1951050,275928,26715,71396,16769616,29180,23191,10080,Tag0,unknown
1610799550621,200,75,1.64794921875E-5,0,0,0,1951050,275928,26715,71396,16769616,29180,23191,10080,Tag0,unknown
1610799550644,200,65,1.42822265625E-5,0,0,0,1951050,275928,26715,71396,16769616,29180,23191,10080,Tag0,unknown
1610799550763,200,-269,-5.9106445312499996E-5,0,0,0,1951050,275928,26715,71396,16769616,29180,23191,10080,Tag0,unknown
1610799550783,200,17,3.7353515625000003E-6,0,0,0,1951050,275928,26715,71396,16769616,29180,23191,10080,Tag0,unknown
1610799550793,200,-99,-2.1752929687500003E-5,0,0,0,1951050,275928,26715,71396,16769616,29180,23191,10080,Tag0,unknown
1610799550803,200,87,1.91162109375E-5,0,0,0,1951050,275928,26715,71396,16769616,29180,23191,10080,Tag0,unknown
1610799550813,200,101,2.2192382812500002E-5,0,0,0,1951050,275928,26715,71396,16769616,29180,23191,10080,Tag0,unknown
1610799550826,200,13,2.8564453125E-6,0,0,0,1951050,275928,26715,71396,16769616,29180,23191,10080,Tag0,unknown
1610799550836,200,49,1.07666015625E-5,0,0,0,1951050,275928,26715,71396,16769616,29180,23191,10080,Tag0,unknown
1610799550846,200,64,1.40625E-5,0,0,0,1951050,275928,26715,71396,16769616,29180,23191,10080,Tag0,unknown
1610799550856,200,122,2.6806640625E-5,0,0,0,1951050,275928,26715,71396,16769616,29180,23191,10080,Tag0,unknown
1610799550866,200,14,3.076171875E-6,0,0,0,1951050,275928,26715,71396,16769616,29180,23191,10080,Tag0,unknown
1610799550876,200,-293,-6.43798828125E-5,0,0,0,1951050,275928,26715,71396,16769616,29180,23191,10080,Tag0,unknown
1610799550907,200,-275,-6.04248046875E-5,0,0,0,1951050,275928,26715,71396,16769616,29180,23191,10080,Tag0,unknown
1610799550926,200,-271,-5.95458984375E-5,0,0,0,1951050,275928,26715,71396,16769616,29180,23191,10080,Tag0,unknown
1610799550936,200,-109,-2.39501953125E-5,0,0,0,1951050,275928,26715,71396,16769616,29180,23191,10080,Tag0,unknown
1610799550946,200,-103,-2.26318359375E-5,0,0,0,1951050,275928,26715,71396,16769616,29180,23191,10080,Tag0,unknown
1610799550957,200,-127,-2.79052734375E-5,0,0,0,1951050,275928,26715,71396,16769616,29180,23191,10080,Tag0,unknown
1610799550983,200,-117,-2.5708007812499998E-5,0,0,0,1951050,275928,26715,71396,16769616,29180,23191,10080,Tag0,unknown
1610799550993,200,124,2.724609375E-5,0,0,0,1951050,275928,26715,71396,16769616,29180,23191,10080,Tag0,unknown
1610799551003,200,113,2.48291015625E-5,0,0,0,16772484,6141,872,1111,2807,1212,1291,312,Tag0,unknown
1610799551019,200,102,2.2412109374999998E-5,0,0,0,16772484,6141,872,1111,2807,1212,1291,312,Tag0,unknown
1610799551029,200,35,7.6904296875E-6,0,0,0,16772484,6141,872,1111,2807,1212,1291,312,Tag0,unknown
1610799551043,200,68,1.4941406250000001E-5,0,0,0,16772484,6141,872,1111,2807,1212,1291,312,Tag0,unknown
1610799551060,200,-123,-2.70263671875E-5,0,0,0,16772484,6141,872,1111,2807,1212,1291,312,Tag0,unknown
1610799551078,200,39,8.5693359375E-6,0,0,0,16772484,6141,872,1111,2807,1212,1291,312,Tag0,unknown
1610799551095,200,109,2.39501953125E-5,0,0,0,16772484,6141,872,1111,2807,1212,1291,312,Tag0,unknown
1610799551112,200,99,2.1752929687500003E-5,0,0,0,16772484,6141,872,1111,2807,1212,1291,312,Tag0,unknown
1610799551122,200,312,6.85546875E-5,0,0,0,16772484,6141,872,1111,2807,1212,1291,312,Tag0,unknown
1610799551135,200,21,4.614257812500001E-6,0,0,0,16772484,6141,872,1111,2807,1212,1291,312,Tag0,unknown
1610799551145,200,10,2.197265625E-6,0,0,0,16772484,6141,872,1111,2807,1212,1291,312,Tag0,unknown
1610799551161,200,-281,-6.17431640625E-5,0,0,0,16772484,6141,872,1111,2807,1212,1291,312,Tag0,unknown
1610799551179,200,-290,-6.3720703125E-5,0,0,0,16772484,6141,872,1111,2807,1212,1291,312,Tag0,unknown
1610799551189,200,-359,-7.88818359375E-5,0,0,0,16772484,6141,872,1111,2807,1212,1291,312,Tag0,unknown
1610799551199,200,-323,-7.09716796875E-5,0,0,0,16772484,6141,872,1111,2807,1212,1291,312,Tag0,unknown
1610799551209,200,-323,-7.09716796875E-5,0,0,0,16772484,6141,872,1111,2807,1212,1291,312,Tag0,unknown
1610799551226,200,118,2.5927734375E-5,0,0,0,16772484,6141,872,1111,2807,1212,1291,312,Tag0,unknown
1610799551243,200,73,1.6040039062500002E-5,0,0,0,16772484,6141,872,1111,2807,1212,1291,312,Tag0,unknown
1610799551262,200,49,1.07666015625E-5,0,0,0,16772484,6141,872,1111,2807,1212,1291,312,Tag0,unknown
1610799551272,200,-23,-5.0537109375E-6,0,0,0,16772484,6141,872,1111,2807,1212,1291,312,Tag0,unknown
1610799551282,200,37,8.1298828125E-6,0,0,0,16772484,6141,872,1111,2807,1212,1291,312,Tag0,unknown
1610799551292,200,34,7.4707031250000005E-6,0,0,0,16772484,6141,872,1111,2807,1212,1291,312,Tag0,unknown
1610799551313,200,-261,-5.73486328125E-5,0,0,0,16772484,6141,872,1111,2807,1212,1291,312,Tag0,unknown
1610799551327,200,-301,-6.613769531250001E-5,0,0,0,16772484,6141,872,1111,2807,1212,1291,312,Tag0,unknown
1610799551337,200,-103,-2.26318359375E-5,0,0,0,16772484,6141,872,1111,2807,1212,1291,312,Tag0,unknown
1610799551351,200,-19,-4.1748046875E-6,0,0,0,16772484,6141,872,1111,2807,1212,1291,312,Tag0,unknown
1610799551361,200,310,6.8115234375E-5,0,0,0,16772484,6141,872,1111,2807,1212,1291,312,Tag0,unknown
1610799551384,200,17,3.7353515625000003E-6,0,0,0,16772484,6141,872,1111,2807,1212,1291,312,Tag0,unknown
1610799551394,200,64,1.40625E-5,0,0,0,16772484,6141,872,1111,2807,1212,1291,312,Tag0,unknown
1610799551404,200,66,1.4501953125E-5,0,0,0,16772484,6141,872,1111,2807,1212,1291,312,Tag0,unknown
1610799551414,200,49,1.07666015625E-5,0,0,0,16772484,6141,872,1111,2807,1212,1291,312,Tag0,unknown
1610799551429,200,42,9.228515625000002E-6,0,0,0,16772484,6141,872,1111,2807,1212,1291,312,Tag0,unknown
1610799551445,200,43,9.448242187500001E-6,0,0,0,16772484,6141,872,1111,2807,1212,1291,312,Tag0,unknown
1610799551462,200,-264,-5.80078125E-5,0,0,0,16772484,6141,872,1111,2807,1212,1291,312,Tag0,unknown
1610799551479,200,9,1.9775390625E-6,0,0,0,16772484,6141,872,1111,2807,1212,1291,312,Tag0,unknown
1610799551489,200,-124,-2.724609375E-5,0,0,0,16772484,6141,872,1111,2807,1212,1291,312,Tag0,unknown
1610799551499,200,75,1.64794921875E-5,0,0,0,16772484,6141,872,1111,2807,1212,1291,312,Tag0,unknown
1610799551517,200,49,1.07666015625E-5,0,0,0,16772484,6141,872,1111,2807,1212,1291,312,Tag0,unknown
1610799551532,200,-95,-2.08740234375E-5,0,0,0,16772484,6141,872,1111,2807,1212,1291,312,Tag0,unknown
1610799551543,200,120,2.63671875E-5,0,0,0,16772484,6141,872,1111,2807,1212,1291,312,Tag0,unknown
1610799551571,200,0,0.0,0,0,0,16772484,6141,872,1111,2807,1212,1291,312,Tag0,unknown
1610799551607,200,-294,-6.4599609375E-5,0,0,0,16772484,6141,872,1111,2807,1212,1291,312,Tag0,unknown
1610799551618,200,9,1.9775390625E-6,0,0,0,16772484,6141,872,1111,2807,1212,1291,312,Tag0,unknown
1610799551631,200,-285,-6.26220703125E-5,0,0,0,16772484,6141,872,1111,2807,1212,1291,312,Tag0,unknown
1610799551647,200,-333,-7.316894531249999E-5,0,0,0,16772484,6141,872,1111,2807,1212,1291,312,Tag0,unknown
1610799551660,200,99,2.1752929687500003E-5,0,0,0,16772484,6141,872,1111,2807,1212,1291,312,Tag0,unknown
1610799551670,200,43,9.448242187500001E-6,0,0,0,16772484,6141,872,1111,2807,1212,1291,312,Tag0,unknown
1610799551680,200,40,8.7890625E-6,0,0,0,16772484,6141,872,1111,2807,1212,1291,312,Tag0,unknown
1610799551694,200,69,1.51611328125E-5,0,0,0,16772484,6141,872,1111,2807,1212,1291,312,Tag0,unknown
1610799551716,200,125,2.74658203125E-5,0,0,0,16772484,6141,872,1111,2807,1212,1291,312,Tag0,unknown
1610799551727,200,92,2.021484375E-5,0,0,0,16772484,6141,872,1111,2807,1212,1291,312,Tag0,unknown
