timestampMs,poorSignal,eegRawValue,eegRawValueVolts,attention,meditation,blinkStrength,delta,theta,alphaLow,alphaHigh,betaLow,betaHigh,gammaLow,gammaMid,tagEvent,location
1610799389527,200,329,7.229003906250001E-5,0,0,0,119944,49617,9626,28348,3229,10443,5583,3490,Tag0,unknown
1610799389537,200,363,7.97607421875E-5,0,0,0,119944,49617,9626,28348,3229,10443,5583,3490,Tag0,unknown
1610799389581,200,103,2.26318359375E-5,0,0,0,119944,49617,9626,28348,3229,10443,5583,3490,Tag0,unknown
1610799389604,200,-126,-2.7685546875E-5,0,0,0,246087,84912,16752586,1819,12973,18347,6480,3174,Tag0,unknown
1610799389638,200,93,2.04345703125E-5,0,0,0,246087,84912,16752586,1819,12973,18347,6480,3174,Tag0,unknown
1610799389653,200,75,1.64794921875E-5,0,0,0,246087,84912,16752586,1819,12973,18347,6480,3174,Tag0,unknown
1610799389697,200,-383,-8.41552734375E-5,0,0,0,246087,84912,16752586,1819,12973,18347,6480,3174,Tag0,unknown
1610799389755,200,-291,-6.39404296875E-5,0,0,0,246087,84912,16752586,1819,12973,18347,6480,3174,Tag0,unknown
1610799389770,200,-321,-7.053222656250001E-5,0,0,0,246087,84912,16752586,1819,12973,18347,6480,3174,Tag0,unknown
1610799389815,200,114,2.5048828125000003E-5,0,0,0,246087,84912,16752586,1819,12973,18347,6480,3174,Tag0,unknown
1610799389837,200,372,8.173828125E-5,0,0,0,246087,84912,16752586,1819,12973,18347,6480,3174,Tag0,unknown
1610799389907,200,571,1.254638671875E-4,0,0,0,246087,84912,16752586,1819,12973,18347,6480,3174,Tag0,unknown
1610799389920,200,226,4.9658203125E-5,0,0,0,246087,84912,16752586,1819,12973,18347,6480,3174,Tag0,unknown
1610799389965,200,-342,-7.5146484375E-5,0,0,0,246087,84912,16752586,1819,12973,18347,6480,3174,Tag0,unknown
1610799390023,200,-370,-8.1298828125E-5,0,0,0,246087,84912,16752586,1819,12973,18347,6480,3174,Tag0,unknown
1610799390037,200,-363,-7.97607421875E-5,0,0,0,246087,84912,16752586,1819,12973,18347,6480,3174,Tag0,unknown
1610799390085,200,-60,-1.318359375E-5,0,0,0,246087,84912,16752586,1819,12973,18347,6480,3174,Tag0,unknown
1610799390103,200,-11,-2.4169921875E-6,0,0,0,246087,84912,16752586,1819,12973,18347,6480,3174,Tag0,unknown
1610799390125,200,-521,-1.1447753906250001E-4,0,0,0,246087,84912,16752586,1819,12973,18347,6480,3174,Tag0,unknown
1610799390137,200,-180,-3.955078125E-5,0,0,0,246087,84912,16752586,1819,12973,18347,6480,3174,Tag0,unknown
1610799390158,200,259,5.69091796875E-5,0,0,0,246087,84912,16752586,1819,12973,18347,6480,3174,Tag0,unknown
1610799390170,200,-43,-9.448242187500001E-6,0,0,0,246087,84912,16752586,1819,12973,18347,6480,3174,Tag0,unknown
1610799390195,200,50,1.0986328125E-5,0,0,0,246087,84912,16752586,1819,12973,18347,6480,3174,Tag0,unknown
1610799390205,200,-253,-5.55908203125E-5,0,0,0,246087,84912,16752586,1819,12973,18347,6480,3174,Tag0,unknown
1610799390228,200,-180,-3.955078125E-5,0,0,0,246087,84912,16752586,1819,12973,18347,6480,3174,Tag0,unknown
1610799390238,200,-249,-5.47119140625E-5,0,0,0,246087,84912,16752586,1819,12973,18347,6480,3174,Tag0,unknown
1610799390306,200,199,4.3725585937499995E-5,0,0,0,246087,84912,16752586,1819,12973,18347,6480,3174,Tag0,unknown
1610799390320,200,220,4.833984375E-5,0,0,0,246087,84912,16752586,1819,12973,18347,6480,3174,Tag0,unknown
1610799390373,200,-11,-2.4169921875E-6,0,0,0,246087,84912,16752586,1819,12973,18347,6480,3174,Tag0,unknown
1610799390387,200,-8,-1.7578125E-6,0,0,0,246087,84912,16752586,1819,12973,18347,6480,3174,Tag0,unknown
1610799390508,200,115,2.52685546875E-5,0,0,0,246087,84912,16752586,1819,12973,18347,6480,3174,Tag0,unknown
1610799390521,200,85,1.86767578125E-5,0,0,0,246087,84912,16752586,1819,12973,18347,6480,3174,Tag0,unknown
1610799390578,200,-150,-3.2958984375E-5,0,0,0,246087,84912,16752586,1819,12973,18347,6480,3174,Tag0,unknown
1610799390588,200,-197,-4.32861328125E-5,0,0,0,246087,84912,16752586,1819,12973,18347,6480,3174,Tag0,unknown
1610799390648,200,-353,-7.75634765625E-5,0,0,0,246087,84912,16752586,1819,12973,18347,6480,3174,Tag0,unknown
1610799390719,200,-298,-6.5478515625E-5,0,0,0,246087,84912,16752586,1819,12973,18347,6480,3174,Tag0,unknown
1610799390738,200,-317,-6.96533203125E-5,0,0,0,246087,84912,16752586,1819,12973,18347,6480,3174,Tag0,unknown
1610799390786,200,120,2.63671875E-5,0,0,0,246087,84912,16752586,1819,12973,18347,6480,3174,Tag0,unknown
1610799390805,200,-6,-1.318359375E-6,0,0,0,246087,84912,16752586,1819,12973,18347,6480,3174,Tag0,unknown
1610799390821,200,-277,-6.0864257812500005E-5,0,0,0,246087,84912,16752586,1819,12973,18347,6480,3174,Tag0,unknown
1610799390841,200,55,1.20849609375E-5,0,0,0,246087,84912,16752586,1819,12973,18347,6480,3174,Tag0,unknown
1610799390855,200,-259,-5.69091796875E-5,0,0,0,246087,84912,16752586,1819,12973,18347,6480,3174,Tag0,unknown
1610799390875,200,23,5.0537109375E-6,0,0,0,246087,84912,16752586,1819,12973,18347,6480,3174,Tag0,unknown
1610799390888,200,-278,-6.108398437500001E-5,0,0,0,246087,84912,16752586,1819,12973,18347,6480,3174,Tag0,unknown
1610799390911,200,-47,-1.0327148437500001E-5,0,0,0,246087,84912,16752586,1819,12973,18347,6480,3174,Tag0,unknown
1610799390922,200,-51,-1.1206054687499999E-5,0,0,0,246087,84912,16752586,1819,12973,18347,6480,3174,Tag0,unknown
1610799390945,200,-377,-8.28369140625E-5,0,0,0,246087,84912,16752586,1819,12973,18347,6480,3174,Tag0,unknown
1610799390955,200,-342,-7.5146484375E-5,0,0,0,246087,84912,16752586,1819,12973,18347,6480,3174,Tag0,unknown
1610799390972,200,77,1.69189453125E-5,0,0,0,246087,84912,16752586,1819,12973,18347,6480,3174,Tag0,unknown
1610799390996,200,-118,-2.5927734375E-5,0,0,0,246087,84912,16752586,1819,12973,18347,6480,3174,Tag0,unknown
1610799391006,200,-633,-1.3908691406250002E-4,0,0,0,246087,84912,16752586,1819,12973,18347,6480,3174,Tag0,unknown
1610799391030,200,135,2.96630859375E-5,0,0,0,246087,84912,16752586,1819,12973,18347,6480,3174,Tag0,unknown
1610799391040,200,-331,-7.272949218750001E-5,0,0,0,246087,84912,16752586,1819,12973,18347,6480,3174,Tag0,unknown
1610799391066,200,103,2.26318359375E-5,0,0,0,246087,84912,16752586,1819,12973,18347,6480,3174,Tag0,unknown
1610799391100,200,-36,-7.91015625E-6,0,0,0,246087,84912,16752586,1819,12973,18347,6480,3174,Tag0,unknown
1610799391152,200,-311,-6.833496093750001E-5,0,0,0,246087,84912,16752586,1819,12973,18347,6480,3174,Tag0,unknown
1610799391172,200,-294,-6.4599609375E-5,0,0,0,246087,84912,16752586,1819,12973,18347,6480,3174,Tag0,unknown
1610799391222,200,-360,-7.91015625E-5,0,0,0,246087,84912,16752586,1819,12973,18347,6480,3174,Tag0,unknown
1610799391239,200,-35,-7.6904296875E-6,0,0,0,246087,84912,16752586,1819,12973,18347,6480,3174,Tag0,unknown
1610799391282,200,-337,-7.40478515625E-5,0,0,0,246087,84912,16752586,1819,12973,18347,6480,3174,Tag0,unknown
1610799391292,200,136,2.9882812500000002E-5,0,0,0,246087,84912,16752586,1819,12973,18347,6480,3174,Tag0,unknown
1610799391341,200,291,6.39404296875E-5,0,0,0,246087,84912,16752586,1819,12973,18347,6480,3174,Tag0,unknown
1610799391356,200,-111,-2.43896484375E-5,0,0,0,246087,84912,16752586,1819,12973,18347,6480,3174,Tag0,unknown
1610799391372,200,-258,-5.6689453125000004E-5,0,0,0,246087,84912,16752586,1819,12973,18347,6480,3174,Tag0,unknown
1610799391389,200,13,2.8564453125E-6,0,0,0,246087,84912,16752586,1819,12973,18347,6480,3174,Tag0,unknown
1610799391406,200,11,2.4169921875E-6,0,0,0,246087,84912,16752586,1819,12973,18347,6480,3174,Tag0,unknown
1610799391431,200,-71,-1.56005859375E-5,0,0,0,246087,84912,16752586,1819,12973,18347,6480,3174,Tag0,unknown
1610799391441,200,70,1.5380859375E-5,0,0,0,246087,84912,16752586,1819,12973,18347,6480,3174,Tag0,unknown
1610799391465,200,-379,-8.32763671875E-5,0,0,0,246087,84912,16752586,1819,12973,18347,6480,3174,Tag0,unknown
1610799391475,200,-121,-2.6586914062500003E-5,0,0,0,246087,84912,16752586,1819,12973,18347,6480,3174,Tag0,unknown
1610799391503,200,-95,-2.08740234375E-5,0,0,0,246087,84912,16752586,1819,12973,18347,6480,3174,Tag0,unknown
1610799391537,200,40,8.7890625E-6,0,0,0,246087,84912,16752586,1819,12973,18347,6480,3174,Tag0,unknown
1610799391556,200,-270,-5.9326171875E-5,0,0,0,295538,29247,601,2821,3569,6932,2865,2590,Tag0,unknown
1610799391574,200,-16,-3.515625E-6,0,0,0,295538,29247,601,2821,3569,6932,2865,2590,Tag0,unknown
1610799391590,200,-36,-7.91015625E-6,0,0,0,295538,29247,601,2821,3569,6932,2865,2590,Tag0,unknown
1610799391610,200,-283,-6.218261718750001E-5,0,0,0,295538,29247,601,2821,3569,6932,2865,2590,Tag0,unknown
1610799391623,200,84,1.8457031250000004E-5,0,0,0,295538,29247,601,2821,3569,6932,2865,2590,Tag0,unknown
1610799391650,200,-298,-6.5478515625E-5,0,0,0,295538,29247,601,2821,3569,6932,2865,2590,Tag0,unknown
1610799391673,200,-360,-7.91015625E-5,0,0,0,295538,29247,601,2821,3569,6932,2865,2590,Tag0,unknown
1610799391690,200,106,2.3291015625000003E-5,0,0,0,295538,29247,601,2821,3569,6932,2865,2590,Tag0,unknown
1610799391707,200,96,2.109375E-5,0,0,0,295538,29247,601,2821,3569,6932,2865,2590,Tag0,unknown
1610799391724,200,44,9.66796875E-6,0,0,0,295538,29247,601,2821,3569,6932,2865,2590,Tag0,unknown
1610799391741,200,-27,-5.9326171875000005E-6,0,0,0,295538,29247,601,2821,3569,6932,2865,2590,Tag0,unknown
1610799391784,200,-361,-7.93212890625E-5,0,0,0,295538,29247,601,2821,3569,6932,2865,2590,Tag0,unknown
1610799391794,200,-333,-7.316894531249999E-5,0,0,0,295538,29247,601,2821,3569,6932,2865,2590,Tag0,unknown
1610799391842,200,89,1.95556640625E-5,0,0,0,295538,29247,601,2821,3569,6932,2865,2590,Tag0,unknown
1610799391857,200,52,1.142578125E-5,0,0,0,295538,29247,601,2821,3569,6932,2865,2590,Tag0,unknown
1610799391904,200,9,1.9775390625E-6,0,0,0,295538,29247,601,2821,3569,6932,2865,2590,Tag0,unknown
1610799391924,200,-291,-6.39404296875E-5,0,0,0,295538,29247,601,2821,3569,6932,2865,2590,Tag0,unknown
1610799391959,200,-321,-7.053222656250001E-5,0,0,0,295538,29247,601,2821,3569,6932,2865,2590,Tag0,unknown
1610799391974,200,60,1.318359375E-5,0,0,0,295538,29247,601,2821,3569,6932,2865,2590,Tag0,unknown
1610799392000,200,120,2.63671875E-5,0,0,0,295538,29247,601,2821,3569,6932,2865,2590,Tag0,unknown
1610799392010,200,115,2.52685546875E-5,0,0,0,295538,29247,601,2821,3569,6932,2865,2590,Tag0,unknown
1610799392022,200,49,1.07666015625E-5,0,0,0,295538,29247,601,2821,3569,6932,2865,2590,Tag0,unknown
1610799392044,200,-86,-1.8896484375000003E-5,0,0,0,295538,29247,601,2821,3569,6932,2865,2590,Tag0,unknown
1610799392062,200,-57,-1.2524414062500001E-5,0,0,0,295538,29247,601,2821,3569,6932,2865,2590,Tag0,unknown
1610799392072,200,38,8.349609375E-6,0,0,0,295538,29247,601,2821,3569,6932,2865,2590,Tag0,unknown
1610799392083,200,81,1.77978515625E-5,0,0,0,295538,29247,601,2821,3569,6932,2865,2590,Tag0,unknown
1610799392094,200,93,2.04345703125E-5,0,0,0,295538,29247,601,2821,3569,6932,2865,2590,Tag0,unknown
1610799392117,200,-273,-5.998535156250001E-5,0,0,0,295538,29247,601,2821,3569,6932,2865,2590,Tag0,unknown
1610799392129,200,41,9.008789062499999E-6,0,0,0,295538,29247,601,2821,3569,6932,2865,2590,Tag0,unknown
1610799392139,200,69,1.51611328125E-5,0,0,0,295538,29247,601,2821,3569,6932,2865,2590,Tag0,unknown
1610799392154,200,60,1.318359375E-5,0,0,0,295538,29247,601,2821,3569,6932,2865,2590,Tag0,unknown
1610799392164,200,108,2.3730468750000002E-5,0,0,0,295538,29247,601,2821,3569,6932,2865,2590,Tag0,unknown
1610799392187,200,64,1.40625E-5,0,0,0,295538,29247,601,2821,3569,6932,2865,2590,Tag0,unknown
1610799392197,200,90,1.9775390625E-5,0,0,0,295538,29247,601,2821,3569,6932,2865,2590,Tag0,unknown
1610799392213,200,33,7.2509765625E-6,0,0,0,295538,29247,601,2821,3569,6932,2865,2590,Tag0,unknown
1610799392269,200,-123,-2.70263671875E-5,0,0,0,295538,29247,601,2821,3569,6932,2865,2590,Tag0,unknown
1610799392283,200,-74,-1.6259765625E-5,0,0,0,295538,29247,601,2821,3569,6932,2865,2590,Tag0,unknown
1610799392293,200,44,9.66796875E-6,0,0,0,295538,29247,601,2821,3569,6932,2865,2590,Tag0,unknown
1610799392309,200,3,6.591796875E-7,0,0,0,295538,29247,601,2821,3569,6932,2865,2590,Tag0,unknown
1610799392319,200,-93,-2.04345703125E-5,0,0,0,295538,29247,601,2821,3569,6932,2865,2590,Tag0,unknown
1610799392329,200,-80,-1.7578125E-5,0,0,0,295538,29247,601,2821,3569,6932,2865,2590,Tag0,unknown
1610799392344,200,53,1.1645507812500002E-5,0,0,0,295538,29247,601,2821,3569,6932,2865,2590,Tag0,unknown
1610799392354,200,-155,-3.40576171875E-5,0,0,0,295538,29247,601,2821,3569,6932,2865,2590,Tag0,unknown
1610799392388,200,11,2.4169921875E-6,0,0,0,295538,29247,601,2821,3569,6932,2865,2590,Tag0,unknown
1610799392398,200,-345,-7.58056640625E-5,0,0,0,295538,29247,601,2821,3569,6932,2865,2590,Tag0,unknown
1610799392410,200,-339,-7.448730468750001E-5,0,0,0,295538,29247,601,2821,3569,6932,2865,2590,Tag0,unknown
1610799392446,200,-376,-8.261718750000001E-5,0,0,0,295538,29247,601,2821,3569,6932,2865,2590,Tag0,unknown
1610799392466,200,-135,-2.96630859375E-5,0,0,0,295538,29247,601,2821,3569,6932,2865,2590,Tag0,unknown
1610799392476,200,6,1.318359375E-6,0,0,0,295538,29247,601,2821,3569,6932,2865,2590,Tag0,unknown
1610799392486,200,-289,-6.35009765625E-5,0,0,0,295538,29247,601,2821,3569,6932,2865,2590,Tag0,unknown
1610799392496,200,86,1.8896484375000003E-5,0,0,0,295538,29247,601,2821,3569,6932,2865,2590,Tag0,unknown
1610799392512,200,-99,-2.1752929687500003E-5,0,0,0,295538,29247,601,2821,3569,6932,2865,2590,Tag0,unknown
1610799392537,200,-105,-2.30712890625E-5,0,0,0,295538,29247,601,2821,3569,6932,2865,2590,Tag0,unknown
1610799392547,200,-109,-2.39501953125E-5,0,0,0,295538,29247,601,2821,3569,6932,2865,2590,Tag0,unknown
1610799392560,200,265,5.82275390625E-5,0,0,0,295538,29247,601,2821,3569,6932,2865,2590,Tag0,unknown
1610799392596,200,-57,-1.2524414062500001E-5,0,0,0,132777,24041,9467,10615,3517,5606,992,2591,Tag0,unknown
1610799392610,200,-93,-2.04345703125E-5,0,0,0,132777,24041,9467,10615,3517,5606,992,2591,Tag0,unknown
1610799392654,200,122,2.6806640625E-5,0,0,0,132777,24041,9467,10615,3517,5606,992,2591,Tag0,unknown
1610799392664,200,43,9.448242187500001E-6,0,0,0,132777,24041,9467,10615,3517,5606,992,2591,Tag0,unknown
1610799392679,200,69,1.51611328125E-5,0,0,0,132777,24041,9467,10615,3517,5606,992,2591,Tag0,unknown
1610799392713,200,69,1.51611328125E-5,0,0,0,132777,24041,9467,10615,3517,5606,992,2591,Tag0,unknown
1610799392732,200,117,2.5708007812499998E-5,0,0,0,132777,24041,9467,10615,3517,5606,992,2591,Tag0,unknown
1610799392742,200,-118,-2.5927734375E-5,0,0,0,132777,24041,9467,10615,3517,5606,992,2591,Tag0,unknown
1610799392752,200,-23,-5.0537109375E-6,0,0,0,132777,24041,9467,10615,3517,5606,992,2591,Tag0,unknown
1610799392772,200,77,1.69189453125E-5,0,0,0,132777,24041,9467,10615,3517,5606,992,2591,Tag0,unknown
1610799392782,200,-274,-6.0205078124999997E-5,0,0,0,132777,24041,9467,10615,3517,5606,992,2591,Tag0,unknown
1610799392794,200,27,5.9326171875000005E-6,0,0,0,132777,24041,9467,10615,3517,5606,992,2591,Tag0,unknown
1610799392830,200,-363,-7.97607421875E-5,0,0,0,132777,24041,9467,10615,3517,5606,992,2591,Tag0,unknown
1610799392848,200,-354,-7.778320312500001E-5,0,0,0,132777,24041,9467,10615,3517,5606,992,2591,Tag0,unknown
1610799392859,200,-295,-6.48193359375E-5,0,0,0,132777,24041,9467,10615,3517,5606,992,2591,Tag0,unknown
1610799392888,200,-305,-6.70166015625E-5,0,0,0,132777,24041,9467,10615,3517,5606,992,2591,Tag0,unknown
1610799392898,200,74,1.6259765625E-5,0,0,0,132777,24041,9467,10615,3517,5606,992,2591,Tag0,unknown
1610799392908,200,115,2.52685546875E-5,0,0,0,132777,24041,9467,10615,3517,5606,992,2591,Tag0,unknown
1610799392918,200,122,2.6806640625E-5,0,0,0,132777,24041,9467,10615,3517,5606,992,2591,Tag0,unknown
1610799392928,200,325,7.14111328125E-5,0,0,0,132777,24041,9467,10615,3517,5606,992,2591,Tag0,unknown
1610799392947,200,141,3.09814453125E-5,0,0,0,132777,24041,9467,10615,3517,5606,992,2591,Tag0,unknown
1610799392961,200,370,8.1298828125E-5,0,0,0,132777,24041,9467,10615,3517,5606,992,2591,Tag0,unknown
1610799392978,200,-364,-7.998046875E-5,0,0,0,132777,24041,9467,10615,3517,5606,992,2591,Tag0,unknown
1610799392998,200,-135,-2.96630859375E-5,0,0,0,132777,24041,9467,10615,3517,5606,992,2591,Tag0,unknown
1610799393012,200,-349,-7.668457031250001E-5,0,0,0,132777,24041,9467,10615,3517,5606,992,2591,Tag0,unknown
1610799393031,200,-307,-6.74560546875E-5,0,0,0,132777,24041,9467,10615,3517,5606,992,2591,Tag0,unknown
1610799393047,200,-295,-6.48193359375E-5,0,0,0,132777,24041,9467,10615,3517,5606,992,2591,Tag0,unknown
1610799393057,200,40,8.7890625E-6,0,0,0,132777,24041,9467,10615,3517,5606,992,2591,Tag0,unknown
1610799393075,200,-275,-6.04248046875E-5,0,0,0,132777,24041,9467,10615,3517,5606,992,2591,Tag0,unknown
1610799393085,200,25,5.4931640625E-6,0,0,0,132777,24041,9467,10615,3517,5606,992,2591,Tag0,unknown
1610799393097,200,-344,-7.558593750000001E-5,0,0,0,132777,24041,9467,10615,3517,5606,992,2591,Tag0,unknown
1610799393107,200,21,4.614257812500001E-6,0,0,0,132777,24041,9467,10615,3517,5606,992,2591,Tag0,unknown
1610799393117,200,88,1.93359375E-5,0,0,0,132777,24041,9467,10615,3517,5606,992,2591,Tag0,unknown
1610799393131,200,107,2.35107421875E-5,0,0,0,132777,24041,9467,10615,3517,5606,992,2591,Tag0,unknown
1610799393147,200,86,1.8896484375000003E-5,0,0,0,132777,24041,9467,10615,3517,5606,992,2591,Tag0,unknown
1610799393164,200,-121,-2.6586914062500003E-5,0,0,0,132777,24041,9467,10615,3517,5606,992,2591,Tag0,unknown
1610799393183,200,116,2.548828125E-5,0,0,0,132777,24041,9467,10615,3517,5606,992,2591,Tag0,unknown
1610799393197,200,-59,-1.29638671875E-5,0,0,0,132777,24041,9467,10615,3517,5606,992,2591,Tag0,unknown
1610799393216,200,-123,-2.70263671875E-5,0,0,0,132777,24041,9467,10615,3517,5606,992,2591,Tag0,unknown
1610799393229,200,125,2.74658203125E-5,0,0,0,132777,24041,9467,10615,3517,5606,992,2591,Tag0,unknown
1610799393250,200,114,2.5048828125000003E-5,0,0,0,132777,24041,9467,10615,3517,5606,992,2591,Tag0,unknown
1610799393262,200,101,2.2192382812500002E-5,0,0,0,132777,24041,9467,10615,3517,5606,992,2591,Tag0,unknown
1610799393280,200,17,3.7353515625000003E-6,0,0,0,132777,24041,9467,10615,3517,5606,992,2591,Tag0,unknown
1610799393298,200,92,2.021484375E-5,0,0,0,132777,24041,9467,10615,3517,5606,992,2591,Tag0,unknown
1610799393316,200,124,2.724609375E-5,0,0,0,132777,24041,9467,10615,3517,5606,992,2591,Tag0,unknown
1610799393332,200,13,2.8564453125E-6,0,0,0,132777,24041,9467,10615,3517,5606,992,2591,Tag0,unknown
1610799393347,200,-110,-2.4169921875E-5,0,0,0,132777,24041,9467,10615,3517,5606,992,2591,Tag0,unknown
1610799393357,200,51,1.1206054687499999E-5,0,0,0,132777,24041,9467,10615,3517,5606,992,2591,Tag0,unknown
1610799393367,200,-284,-6.240234375E-5,0,0,0,132777,24041,9467,10615,3517,5606,992,2591,Tag0,unknown
1610799393381,200,-267,-5.86669921875E-5,0,0,0,132777,24041,9467,10615,3517,5606,992,2591,Tag0,unknown
1610799393397,200,101,2.2192382812500002E-5,0,0,0,132777,24041,9467,10615,3517,5606,992,2591,Tag0,unknown
1610799393414,200,26,5.712890625E-6,0,0,0,132777,24041,9467,10615,3517,5606,992,2591,Tag0,unknown
1610799393424,200,96,2.109375E-5,0,0,0,132777,24041,9467,10615,3517,5606,992,2591,Tag0,unknown
1610799393434,200,-107,-2.35107421875E-5,0,0,0,132777,24041,9467,10615,3517,5606,992,2591,Tag0,unknown
1610799393447,200,-102,-2.2412109374999998E-5,0,0,0,132777,24041,9467,10615,3517,5606,992,2591,Tag0,unknown
1610799393470,200,57,1.2524414062500001E-5,0,0,0,132777,24041,9467,10615,3517,5606,992,2591,Tag0,unknown
1610799393481,200,99,2.1752929687500003E-5,0,0,0,132777,24041,9467,10615,3517,5606,992,2591,Tag0,unknown
1610799393491,200,91,1.99951171875E-5,0,0,0,132777,24041,9467,10615,3517,5606,992,2591,Tag0,unknown
1610799393508,200,88,1.93359375E-5,0,0,0,132777,24041,9467,10615,3517,5606,992,2591,Tag0,unknown
1610799393529,200,40,8.7890625E-6,0,0,0,132777,24041,9467,10615,3517,5606,992,2591,Tag0,unknown
1610799393546,200,-259,-5.69091796875E-5,0,0,0,132777,24041,9467,10615,3517,5606,992,2591,Tag0,unknown
1610799393564,200,54,1.1865234375000001E-5,0,0,0,1779282,298345,54540,67354,78936,31138,15960,17239,Tag0,unknown
1610799393590,200,37,8.1298828125E-6,0,0,0,1779282,298345,54540,67354,78936,31138,15960,17239,Tag0,unknown
1610799393628,200,19,4.1748046875E-6,0,0,0,1779282,298345,54540,67354,78936,31138,15960,17239,Tag0,unknown
1610799393648,200,27,5.9326171875000005E-6,0,0,0,1779282,298345,54540,67354,78936,31138,15960,17239,Tag0,unknown
1610799393658,200,-125,-2.74658203125E-5,0,0,0,1779282,298345,54540,67354,78936,31138,15960,17239,Tag0,unknown
1610799393668,200,71,1.56005859375E-5,0,0,0,1779282,298345,54540,67354,78936,31138,15960,17239,Tag0,unknown
1610799393700,200,19,4.1748046875E-6,0,0,0,1779282,298345,54540,67354,78936,31138,15960,17239,Tag0,unknown
1610799393714,200,59,1.29638671875E-5,0,0,0,1779282,298345,54540,67354,78936,31138,15960,17239,Tag0,unknown
1610799393724,200,91,1.99951171875E-5,0,0,0,1779282,298345,54540,67354,78936,31138,15960,17239,Tag0,unknown
1610799393762,200,-122,-2.6806640625E-5,0,0,0,1779282,298345,54540,67354,78936,31138,15960,17239,Tag0,unknown
1610799393780,200,106,2.3291015625000003E-5,0,0,0,1779282,298345,54540,67354,78936,31138,15960,17239,Tag0,unknown
1610799393790,200,-285,-6.26220703125E-5,0,0,0,1779282,298345,54540,67354,78936,31138,15960,17239,Tag0,unknown
1610799393800,200,83,1.82373046875E-5,0,0,0,1779282,298345,54540,67354,78936,31138,15960,17239,Tag0,unknown
1610799393827,200,107,2.35107421875E-5,0,0,0,1779282,298345,54540,67354,78936,31138,15960,17239,Tag0,unknown
1610799393846,200,117,2.5708007812499998E-5,0,0,0,1779282,298345,54540,67354,78936,31138,15960,17239,Tag0,unknown
1610799393866,200,54,1.1865234375000001E-5,0,0,0,1779282,298345,54540,67354,78936,31138,15960,17239,Tag0,unknown
1610799393880,200,74,1.6259765625E-5,0,0,0,1779282,298345,54540,67354,78936,31138,15960,17239,Tag0,unknown
1610799393890,200,39,8.5693359375E-6,0,0,0,1779282,298345,54540,67354,78936,31138,15960,17239,Tag0,unknown
1610799393900,200,24,5.2734375E-6,0,0,0,1779282,298345,54540,67354,78936,31138,15960,17239,Tag0,unknown
1610799393915,200,48,1.0546875E-5,0,0,0,1779282,298345,54540,67354,78936,31138,15960,17239,Tag0,unknown
1610799393934,200,119,2.6147460937500004E-5,0,0,0,1779282,298345,54540,67354,78936,31138,15960,17239,Tag0,unknown
1610799393949,200,106,2.3291015625000003E-5,0,0,0,1779282,298345,54540,67354,78936,31138,15960,17239,Tag0,unknown
1610799393968,200,-117,-2.5708007812499998E-5,0,0,0,1779282,298345,54540,67354,78936,31138,15960,17239,Tag0,unknown
1610799393982,200,-127,-2.79052734375E-5,0,0,0,1779282,298345,54540,67354,78936,31138,15960,17239,Tag0,unknown
1610799394002,200,9,1.9775390625E-6,0,0,0,1779282,298345,54540,67354,78936,31138,15960,17239,Tag0,unknown
1610799394015,200,11,2.4169921875E-6,0,0,0,1779282,298345,54540,67354,78936,31138,15960,17239,Tag0,unknown
1610799394025,200,-105,-2.30712890625E-5,0,0,0,1779282,298345,54540,67354,78936,31138,15960,17239,Tag0,unknown
1610799394038,200,57,1.2524414062500001E-5,0,0,0,1779282,298345,54540,67354,78936,31138,15960,17239,Tag0,unknown
1610799394049,200,38,8.349609375E-6,0,0,0,1779282,298345,54540,67354,78936,31138,15960,17239,Tag0,unknown
1610799394072,200,-279,-6.13037109375E-5,0,0,0,1779282,298345,54540,67354,78936,31138,15960,17239,Tag0,unknown
1610799394083,200,-275,-6.04248046875E-5,0,0,0,1779282,298345,54540,67354,78936,31138,15960,17239,Tag0,unknown
1610799394093,200,-305,-6.70166015625E-5,0,0,0,1779282,298345,54540,67354,78936,31138,15960,17239,Tag0,unknown
1610799394103,200,83,1.82373046875E-5,0,0,0,1779282,298345,54540,67354,78936,31138,15960,17239,Tag0,unknown
1610799394115,200,99,2.1752929687500003E-5,0,0,0,1779282,298345,54540,67354,78936,31138,15960,17239,Tag0,unknown
1610799394141,200,33,7.2509765625E-6,0,0,0,1779282,298345,54540,67354,78936,31138,15960,17239,Tag0,unknown
1610799394164,200,17,3.7353515625000003E-6,0,0,0,1779282,298345,54540,67354,78936,31138,15960,17239,Tag0,unknown
1610799394182,200,9,1.9775390625E-6,0,0,0,1779282,298345,54540,67354,78936,31138,15960,17239,Tag0,unknown
1610799394200,200,-135,-2.96630859375E-5,0,0,0,1779282,298345,54540,67354,78936,31138,15960,17239,Tag0,unknown
1610799394217,200,123,2.70263671875E-5,0,0,0,1779282,298345,54540,67354,78936,31138,15960,17239,Tag0,unknown
1610799394233,200,106,2.3291015625000003E-5,0,0,0,1779282,298345,54540,67354,78936,31138,15960,17239,Tag0,unknown
1610799394243,200,-107,-2.35107421875E-5,0,0,0,1779282,298345,54540,67354,78936,31138,15960,17239,Tag0,unknown
1610799394265,200,-74,-1.6259765625E-5,0,0,0,1779282,298345,54540,67354,78936,31138,15960,17239,Tag0,unknown
1610799394285,200,26,5.712890625E-6,0,0,0,1779282,298345,54540,67354,78936,31138,15960,17239,Tag0,unknown
1610799394299,200,29,6.3720703125E-6,0,0,0,1779282,298345,54540,67354,78936,31138,15960,17239,Tag0,unknown
1610799394309,200,273,5.998535156250001E-5,0,0,0,1779282,298345,54540,67354,78936,31138,15960,17239,Tag0,unknown
1610799394325,200,-87,-1.91162109375E-5,0,0,0,1779282,298345,54540,67354,78936,31138,15960,17239,Tag0,unknown
1610799394335,200,-96,-2.109375E-5,0,0,0,1779282,298345,54540,67354,78936,31138,15960,17239,Tag0,unknown
1610799394362,200,-103,-2.26318359375E-5,0,0,0,1779282,298345,54540,67354,78936,31138,15960,17239,Tag0,unknown
1610799394382,200,-116,-2.548828125E-5,0,0,0,1779282,298345,54540,67354,78936,31138,15960,17239,Tag0,unknown
1610799394392,200,61,1.34033203125E-5,0,0,0,1779282,298345,54540,67354,78936,31138,15960,17239,Tag0,unknown
1610799394402,200,41,9.008789062499999E-6,0,0,0,1779282,298345,54540,67354,78936,31138,15960,17239,Tag0,unknown
1610799394416,200,80,1.7578125E-5,0,0,0,1779282,298345,54540,67354,78936,31138,15960,17239,Tag0,unknown
1610799394433,200,55,1.20849609375E-5,0,0,0,1779282,298345,54540,67354,78936,31138,15960,17239,Tag0,unknown
1610799394450,200,69,1.51611328125E-5,0,0,0,1779282,298345,54540,67354,78936,31138,15960,17239,Tag0,unknown
1610799394460,200,44,9.66796875E-6,0,0,0,1779282,298345,54540,67354,78936,31138,15960,17239,Tag0,unknown
1610799394472,200,55,1.20849609375E-5,0,0,0,1779282,298345,54540,67354,78936,31138,15960,17239,Tag0,unknown
1610799394483,200,86,1.8896484375000003E-5,0,0,0,1779282,298345,54540,67354,78936,31138,15960,17239,Tag0,unknown
1610799394507,200,34,7.4707031250000005E-6,0,0,0,1779282,298345,54540,67354,78936,31138,15960,17239,Tag0,unknown
1610799394518,200,57,1.2524414062500001E-5,0,0,0,1779282,298345,54540,67354,78936,31138,15960,17239,Tag0,unknown
1610799394529,200,-70,-1.5380859375E-5,0,0,0,1779282,298345,54540,67354,78936,31138,15960,17239,Tag0,unknown
1610799394539,200,119,2.6147460937500004E-5,0,0,0,1779282,298345,54540,67354,78936,31138,15960,17239,Tag0,unknown
1610799394549,200,-296,-6.50390625E-5,0,0,0,1779282,298345,54540,67354,78936,31138,15960,17239,Tag0,unknown
1610799394559,200,-122,-2.6806640625E-5,0,0,0,1869099,126094,16750916,11507,16745903,16744337,27005,11317,Tag0,unknown
1610799394583,200,75,1.64794921875E-5,0,0,0,1869099,126094,16750916,11507,16745903,16744337,27005,11317,Tag0,unknown
1610799394597,200,-261,-5.73486328125E-5,0,0,0,1869099,126094,16750916,11507,16745903,16744337,27005,11317,Tag0,unknown
1610799394618,200,-273,-5.998535156250001E-5,0,0,0,1869099,126094,16750916,11507,16745903,16744337,27005,11317,Tag0,unknown
1610799394633,200,16,3.515625E-6,0,0,0,1869099,126094,16750916,11507,16745903,16744337,27005,11317,Tag0,unknown
1610799394643,200,80,1.7578125E-5,0,0,0,1869099,126094,16750916,11507,16745903,16744337,27005,11317,Tag0,unknown
1610799394665,200,73,1.6040039062500002E-5,0,0,0,1869099,126094,16750916,11507,16745903,16744337,27005,11317,Tag0,unknown
1610799394690,200,33,7.2509765625E-6,0,0,0,1869099,126094,16750916,11507,16745903,16744337,27005,11317,Tag0,unknown
1610799394700,200,21,4.614257812500001E-6,0,0,0,1869099,126094,16750916,11507,16745903,16744337,27005,11317,Tag0,unknown
1610799394715,200,51,1.1206054687499999E-5,0,0,0,1869099,126094,16750916,11507,16745903,16744337,27005,11317,Tag0,unknown
1610799394732,200,25,5.4931640625E-6,0,0,0,1869099,126094,16750916,11507,16745903,16744337,27005,11317,Tag0,unknown
1610799394750,200,6,1.318359375E-6,0,0,0,1869099,126094,16750916,11507,16745903,16744337,27005,11317,Tag0,unknown
1610799394766,200,46,1.0107421875E-5,0,0,0,1869099,126094,16750916,11507,16745903,16744337,27005,11317,Tag0,unknown
1610799394782,200,64,1.40625E-5,0,0,0,1869099,126094,16750916,11507,16745903,16744337,27005,11317,Tag0,unknown
1610799394792,200,51,1.1206054687499999E-5,0,0,0,1869099,126094,16750916,11507,16745903,16744337,27005,11317,Tag0,unknown
1610799394806,200,-264,-5.80078125E-5,0,0,0,1869099,126094,16750916,11507,16745903,16744337,27005,11317,Tag0,unknown
1610799394816,200,65,1.42822265625E-5,0,0,0,1869099,126094,16750916,11507,16745903,16744337,27005,11317,Tag0,unknown
1610799394842,200,27,5.9326171875000005E-6,0,0,0,1869099,126094,16750916,11507,16745903,16744337,27005,11317,Tag0,unknown
1610799394852,200,52,1.142578125E-5,0,0,0,1869099,126094,16750916,11507,16745903,16744337,27005,11317,Tag0,unknown
1610799394862,200,54,1.1865234375000001E-5,0,0,0,1869099,126094,16750916,11507,16745903,16744337,27005,11317,Tag0,unknown
1610799394872,200,-107,-2.35107421875E-5,0,0,0,1869099,126094,16750916,11507,16745903,16744337,27005,11317,Tag0,unknown
1610799394883,200,59,1.29638671875E-5,0,0,0,1869099,126094,16750916,11507,16745903,16744337,27005,11317,Tag0,unknown
1610799394910,200,60,1.318359375E-5,0,0,0,1869099,126094,16750916,11507,16745903,16744337,27005,11317,Tag0,unknown
1610799394932,200,59,1.29638671875E-5,0,0,0,1869099,126094,16750916,11507,16745903,16744337,27005,11317,Tag0,unknown
1610799394954,200,81,1.77978515625E-5,0,0,0,1869099,126094,16750916,11507,16745903,16744337,27005,11317,Tag0,unknown
1610799394969,200,74,1.6259765625E-5,0,0,0,1869099,126094,16750916,11507,16745903,16744337,27005,11317,Tag0,unknown
1610799394982,200,103,2.26318359375E-5,0,0,0,1869099,126094,16750916,11507,16745903,16744337,27005,11317,Tag0,unknown
1610799394999,200,37,8.1298828125E-6,0,0,0,1869099,126094,16750916,11507,16745903,16744337,27005,11317,Tag0,unknown
1610799395015,200,-268,-5.8886718750000006E-5,0,0,0,1869099,126094,16750916,11507,16745903,16744337,27005,11317,Tag0,unknown
1610799395032,200,18,3.955078125E-6,0,0,0,1869099,126094,16750916,11507,16745903,16744337,27005,11317,Tag0,unknown
1610799395049,200,48,1.0546875E-5,0,0,0,1869099,126094,16750916,11507,16745903,16744337,27005,11317,Tag0,unknown
1610799395071,200,75,1.64794921875E-5,0,0,0,1869099,126094,16750916,11507,16745903,16744337,27005,11317,Tag0,unknown
1610799395083,200,115,2.52685546875E-5,0,0,0,1869099,126094,16750916,11507,16745903,16744337,27005,11317,Tag0,unknown
1610799395105,200,105,2.30712890625E-5,0,0,0,1869099,126094,16750916,11507,16745903,16744337,27005,11317,Tag0,unknown
1610799395117,200,73,1.6040039062500002E-5,0,0,0,1869099,126094,16750916,11507,16745903,16744337,27005,11317,Tag0,unknown
1610799395127,200,38,8.349609375E-6,0,0,0,1869099,126094,16750916,11507,16745903,16744337,27005,11317,Tag0,unknown
1610799395144,200,35,7.6904296875E-6,0,0,0,1869099,126094,16750916,11507,16745903,16744337,27005,11317,Tag0,unknown
1610799395154,200,-125,-2.74658203125E-5,0,0,0,1869099,126094,16750916,11507,16745903,16744337,27005,11317,Tag0,unknown
1610799395177,200,54,1.1865234375000001E-5,0,0,0,1869099,126094,16750916,11507,16745903,16744337,27005,11317,Tag0,unknown
1610799395187,200,21,4.614257812500001E-6,0,0,0,1869099,126094,16750916,11507,16745903,16744337,27005,11317,Tag0,unknown
1610799395200,200,61,1.34033203125E-5,0,0,0,1869099,126094,16750916,11507,16745903,16744337,27005,11317,Tag0,unknown
1610799395217,200,113,2.48291015625E-5,0,0,0,1869099,126094,16750916,11507,16745903,16744337,27005,11317,Tag0,unknown
1610799395235,200,32,7.03125E-6,0,0,0,1869099,126094,16750916,11507,16745903,16744337,27005,11317,Tag0,unknown
1610799395363,200,37,8.1298828125E-6,0,0,0,1869099,126094,16750916,11507,16745903,16744337,27005,11317,Tag0,unknown
1610799395385,200,65,1.42822265625E-5,0,0,0,1869099,126094,16750916,11507,16745903,16744337,27005,11317,Tag0,unknown
1610799395395,200,-90,-1.9775390625E-5,0,0,0,1869099,126094,16750916,11507,16745903,16744337,27005,11317,Tag0,unknown
1610799395433,200,-265,-5.82275390625E-5,0,0,0,1869099,126094,16750916,11507,16745903,16744337,27005,11317,Tag0,unknown
1610799395451,200,13,2.8564453125E-6,0,0,0,1869099,126094,16750916,11507,16745903,16744337,27005,11317,Tag0,unknown
1610799395461,200,42,9.228515625000002E-6,0,0,0,1869099,126094,16750916,11507,16745903,16744337,27005,11317,Tag0,unknown
1610799395503,200,76,1.669921875E-5,0,0,0,1869099,126094,16750916,11507,16745903,16744337,27005,11317,Tag0,unknown
1610799395524,200,82,1.8017578124999998E-5,0,0,0,1869099,126094,16750916,11507,16745903,16744337,27005,11317,Tag0,unknown
1610799395534,200,123,2.70263671875E-5,0,0,0,1869099,126094,16750916,11507,16745903,16744337,27005,11317,Tag0,unknown
1610799395570,200,102,2.2412109374999998E-5,0,0,0,1869099,126094,16750916,11507,16745903,16744337,27005,11317,Tag0,unknown
1610799395588,200,109,2.39501953125E-5,0,0,0,1869099,126094,16750916,11507,16745903,16744337,27005,11317,Tag0,unknown
1610799395599,200,87,1.91162109375E-5,0,0,0,1869099,126094,16750916,11507,16745903,16744337,27005,11317,Tag0,unknown
1610799395712,200,91,1.99951171875E-5,0,0,0,1869099,126094,16750916,11507,16745903,16744337,27005,11317,Tag0,unknown
1610799395746,200,-126,-2.7685546875E-5,0,0,0,1869099,126094,16750916,11507,16745903,16744337,27005,11317,Tag0,unknown
1610799395756,200,27,5.9326171875000005E-6,0,0,0,1869099,126094,16750916,11507,16745903,16744337,27005,11317,Tag0,unknown
1610799395766,200,117,2.5708007812499998E-5,0,0,0,1869099,126094,16750916,11507,16745903,16744337,27005,11317,Tag0,unknown
1610799395778,200,84,1.8457031250000004E-5,0,0,0,1869099,126094,16750916,11507,16745903,16744337,27005,11317,Tag0,unknown
1610799395788,200,84,1.8457031250000004E-5,0,0,0,1869099,126094,16750916,11507,16745903,16744337,27005,11317,Tag0,unknown
1610799395803,200,85,1.86767578125E-5,0,0,0,1869099,126094,16750916,11507,16745903,16744337,27005,11317,Tag0,unknown
1610799395821,200,57,1.2524414062500001E-5,0,0,0,1869099,126094,16750916,11507,16745903,16744337,27005,11317,Tag0,unknown
1610799395831,200,84,1.8457031250000004E-5,0,0,0,1869099,126094,16750916,11507,16745903,16744337,27005,11317,Tag0,unknown
1610799395843,200,-309,-6.78955078125E-5,0,0,0,1869099,126094,16750916,11507,16745903,16744337,27005,11317,Tag0,unknown
1610799395853,200,74,1.6259765625E-5,0,0,0,1869099,126094,16750916,11507,16745903,16744337,27005,11317,Tag0,unknown
1610799395884,200,72,1.58203125E-5,0,0,0,1869099,126094,16750916,11507,16745903,16744337,27005,11317,Tag0,unknown
1610799395903,200,66,1.4501953125E-5,0,0,0,1869099,126094,16750916,11507,16745903,16744337,27005,11317,Tag0,unknown
1610799395921,200,35,7.6904296875E-6,0,0,0,1869099,126094,16750916,11507,16745903,16744337,27005,11317,Tag0,unknown
1610799395934,200,42,9.228515625000002E-6,0,0,0,1869099,126094,16750916,11507,16745903,16744337,27005,11317,Tag0,unknown
1610799395956,200,120,2.63671875E-5,0,0,0,1869099,126094,16750916,11507,16745903,16744337,27005,11317,Tag0,unknown
1610799395975,200,101,2.2192382812500002E-5,0,0,0,1869099,126094,16750916,11507,16745903,16744337,27005,11317,Tag0,unknown
1610799395985,200,-279,-6.13037109375E-5,0,0,0,1869099,126094,16750916,11507,16745903,16744337,27005,11317,Tag0,unknown
1610799395995,200,11,2.4169921875E-6,0,0,0,1869099,126094,16750916,11507,16745903,16744337,27005,11317,Tag0,unknown
1610799396009,200,3,6.591796875E-7,0,0,0,1869099,126094,16750916,11507,16745903,16744337,27005,11317,Tag0,unknown
1610799396019,200,23,5.0537109375E-6,0,0,0,1869099,126094,16750916,11507,16745903,16744337,27005,11317,Tag0,unknown
1610799396036,200,-321,-7.053222656250001E-5,0,0,0,1869099,126094,16750916,11507,16745903,16744337,27005,11317,Tag0,unknown
1610799396051,200,-107,-2.35107421875E-5,0,0,0,1869099,126094,16750916,11507,16745903,16744337,27005,11317,Tag0,unknown
1610799396068,200,77,1.69189453125E-5,0,0,0,1869099,126094,16750916,11507,16745903,16744337,27005,11317,Tag0,unknown
1610799396088,200,-107,-2.35107421875E-5,0,0,0,1869099,126094,16750916,11507,16745903,16744337,27005,11317,Tag0,unknown
1610799396103,200,69,1.51611328125E-5,0,0,0,1869099,126094,16750916,11507,16745903,16744337,27005,11317,Tag0,unknown
1610799396120,200,59,1.29638671875E-5,0,0,0,1869099,126094,16750916,11507,16745903,16744337,27005,11317,Tag0,unknown
1610799396130,200,67,1.4721679687500002E-5,0,0,0,1869099,126094,16750916,11507,16745903,16744337,27005,11317,Tag0,unknown
1610799396153,200,16,3.515625E-6,0,0,0,1869099,126094,16750916,11507,16745903,16744337,27005,11317,Tag0,unknown
1610799396173,200,116,2.548828125E-5,0,0,0,1869099,126094,16750916,11507,16745903,16744337,27005,11317,Tag0,unknown
1610799396186,200,-94,-2.0654296875000002E-5,0,0,0,1869099,126094,16750916,11507,16745903,16744337,27005,11317,Tag0,unknown
1610799396196,200,-128,-2.8125E-5,0,0,0,1869099,126094,16750916,11507,16745903,16744337,27005,11317,Tag0,unknown
1610799396213,200,92,2.021484375E-5,0,0,0,1869099,126094,16750916,11507,16745903,16744337,27005,11317,Tag0,unknown
1610799396223,200,53,1.1645507812500002E-5,0,0,0,1869099,126094,16750916,11507,16745903,16744337,27005,11317,Tag0,unknown
1610799396247,200,7,1.5380859375E-6,0,0,0,1869099,126094,16750916,11507,16745903,16744337,27005,11317,Tag0,unknown
1610799396257,200,-261,-5.73486328125E-5,0,0,0,1869099,126094,16750916,11507,16745903,16744337,27005,11317,Tag0,unknown
1610799396270,200,8,1.7578125E-6,0,0,0,1869099,126094,16750916,11507,16745903,16744337,27005,11317,Tag0,unknown
1610799396285,200,-127,-2.79052734375E-5,0,0,0,1869099,126094,16750916,11507,16745903,16744337,27005,11317,Tag0,unknown
1610799396302,200,123,2.70263671875E-5,0,0,0,1869099,126094,16750916,11507,16745903,16744337,27005,11317,Tag0,unknown
1610799396319,200,74,1.6259765625E-5,0,0,0,1869099,126094,16750916,11507,16745903,16744337,27005,11317,Tag0,unknown
1610799396335,200,55,1.20849609375E-5,0,0,0,1869099,126094,16750916,11507,16745903,16744337,27005,11317,Tag0,unknown
1610799396357,200,99,2.1752929687500003E-5,0,0,0,1869099,126094,16750916,11507,16745903,16744337,27005,11317,Tag0,unknown
1610799396371,200,112,2.4609375E-5,0,0,0,1869099,126094,16750916,11507,16745903,16744337,27005,11317,Tag0,unknown
1610799396390,200,55,1.20849609375E-5,0,0,0,1869099,126094,16750916,11507,16745903,16744337,27005,11317,Tag0,unknown
1610799396403,200,58,1.2744140625E-5,0,0,0,1869099,126094,16750916,11507,16745903,16744337,27005,11317,Tag0,unknown
1610799396431,200,-117,-2.5708007812499998E-5,0,0,0,1869099,126094,16750916,11507,16745903,16744337,27005,11317,Tag0,unknown
1610799396441,200,-268,-5.8886718750000006E-5,0,0,0,1869099,126094,16750916,11507,16745903,16744337,27005,11317,Tag0,unknown
1610799396453,200,-285,-6.26220703125E-5,0,0,0,1869099,126094,16750916,11507,16745903,16744337,27005,11317,Tag0,unknown
1610799396471,200,0,0.0,0,0,0,1869099,126094,16750916,11507,16745903,16744337,27005,11317,Tag0,unknown
1610799396487,200,87,1.91162109375E-5,0,0,0,1869099,126094,16750916,11507,16745903,16744337,27005,11317,Tag0,unknown
1610799396501,200,49,1.07666015625E-5,0,0,0,1869099,126094,16750916,11507,16745903,16744337,27005,11317,Tag0,unknown
1610799396527,200,80,1.7578125E-5,0,0,0,1869099,126094,16750916,11507,16745903,16744337,27005,11317,Tag0,unknown
1610799396537,200,23,5.0537109375E-6,0,0,0,76452,16759910,25616,979,3688,5967,3966,5904,Tag0,unknown
1610799396554,200,66,1.4501953125E-5,0,0,0,76452,16759910,25616,979,3688,5967,3966,5904,Tag0,unknown
1610799396570,200,119,2.6147460937500004E-5,0,0,0,76452,16759910,25616,979,3688,5967,3966,5904,Tag0,unknown
1610799396588,200,34,7.4707031250000005E-6,0,0,0,76452,16759910,25616,979,3688,5967,3966,5904,Tag0,unknown
1610799396605,200,-286,-6.2841796875E-5,0,0,0,76452,16759910,25616,979,3688,5967,3966,5904,Tag0,unknown
1610799396622,200,-332,-7.294921875E-5,0,0,0,76452,16759910,25616,979,3688,5967,3966,5904,Tag0,unknown
1610799396632,200,-274,-6.0205078124999997E-5,0,0,0,76452,16759910,25616,979,3688,5967,3966,5904,Tag0,unknown
1610799396642,200,-52,-1.142578125E-5,0,0,0,76452,16759910,25616,979,3688,5967,3966,5904,Tag0,unknown
1610799396654,200,-63,-1.38427734375E-5,0,0,0,76452,16759910,25616,979,3688,5967,3966,5904,Tag0,unknown
1610799396674,200,65,1.42822265625E-5,0,0,0,76452,16759910,25616,979,3688,5967,3966,5904,Tag0,unknown
1610799396688,200,83,1.82373046875E-5,0,0,0,76452,16759910,25616,979,3688,5967,3966,5904,Tag0,unknown
1610799396698,200,89,1.95556640625E-5,0,0,0,76452,16759910,25616,979,3688,5967,3966,5904,Tag0,unknown
1610799396713,200,89,1.95556640625E-5,0,0,0,76452,16759910,25616,979,3688,5967,3966,5904,Tag0,unknown
1610799396747,200,97,2.13134765625E-5,0,0,0,76452,16759910,25616,979,3688,5967,3966,5904,Tag0,unknown
1610799396771,200,-107,-2.35107421875E-5,0,0,0,76452,16759910,25616,979,3688,5967,3966,5904,Tag0,unknown
1610799396781,200,4,8.7890625E-7,0,0,0,76452,16759910,25616,979,3688,5967,3966,5904,Tag0,unknown
1610799396805,200,17,3.7353515625000003E-6,0,0,0,76452,16759910,25616,979,3688,5967,3966,5904,Tag0,unknown
1610799396829,200,61,1.34033203125E-5,0,0,0,76452,16759910,25616,979,3688,5967,3966,5904,Tag0,unknown
1610799396843,200,83,1.82373046875E-5,0,0,0,76452,16759910,25616,979,3688,5967,3966,5904,Tag0,unknown
1610799396858,200,69,1.51611328125E-5,0,0,0,76452,16759910,25616,979,3688,5967,3966,5904,Tag0,unknown
1610799396868,200,53,1.1645507812500002E-5,0,0,0,76452,16759910,25616,979,3688,5967,3966,5904,Tag0,unknown
1610799396892,200,56,1.23046875E-5,0,0,0,76452,16759910,25616,979,3688,5967,3966,5904,Tag0,unknown
1610799396903,200,59,1.29638671875E-5,0,0,0,76452,16759910,25616,979,3688,5967,3966,5904,Tag0,unknown
1610799396920,200,48,1.0546875E-5,0,0,0,76452,16759910,25616,979,3688,5967,3966,5904,Tag0,unknown
1610799396938,200,21,4.614257812500001E-6,0,0,0,76452,16759910,25616,979,3688,5967,3966,5904,Tag0,unknown
1610799396954,200,-261,-5.73486328125E-5,0,0,0,76452,16759910,25616,979,3688,5967,3966,5904,Tag0,unknown
1610799396964,200,21,4.614257812500001E-6,0,0,0,76452,16759910,25616,979,3688,5967,3966,5904,Tag0,unknown
1610799396986,200,35,7.6904296875E-6,0,0,0,76452,16759910,25616,979,3688,5967,3966,5904,Tag0,unknown
1610799397004,200,-127,-2.79052734375E-5,0,0,0,76452,16759910,25616,979,3688,5967,3966,5904,Tag0,unknown
1610799397025,200,106,2.3291015625000003E-5,0,0,0,76452,16759910,25616,979,3688,5967,3966,5904,Tag0,unknown
1610799397035,200,67,1.4721679687500002E-5,0,0,0,76452,16759910,25616,979,3688,5967,3966,5904,Tag0,unknown
1610799397045,200,117,2.5708007812499998E-5,0,0,0,76452,16759910,25616,979,3688,5967,3966,5904,Tag0,unknown
1610799397057,200,55,1.20849609375E-5,0,0,0,76452,16759910,25616,979,3688,5967,3966,5904,Tag0,unknown
1610799397067,200,-263,-5.7788085937500005E-5,0,0,0,76452,16759910,25616,979,3688,5967,3966,5904,Tag0,unknown
1610799397084,200,102,2.2412109374999998E-5,0,0,0,76452,16759910,25616,979,3688,5967,3966,5904,Tag0,unknown
1610799397105,200,71,1.56005859375E-5,0,0,0,76452,16759910,25616,979,3688,5967,3966,5904,Tag0,unknown
1610799397115,200,-122,-2.6806640625E-5,0,0,0,76452,16759910,25616,979,3688,5967,3966,5904,Tag0,unknown
1610799397125,200,91,1.99951171875E-5,0,0,0,76452,16759910,25616,979,3688,5967,3966,5904,Tag0,unknown
1610799397135,200,123,2.70263671875E-5,0,0,0,76452,16759910,25616,979,3688,5967,3966,5904,Tag0,unknown
1610799397154,200,98,2.1533203125E-5,0,0,0,76452,16759910,25616,979,3688,5967,3966,5904,Tag0,unknown
1610799397169,200,58,1.2744140625E-5,0,0,0,76452,16759910,25616,979,3688,5967,3966,5904,Tag0,unknown
1610799397187,200,-266,-5.8447265625E-5,0,0,0,76452,16759910,25616,979,3688,5967,3966,5904,Tag0,unknown
1610799397203,200,51,1.1206054687499999E-5,0,0,0,76452,16759910,25616,979,3688,5967,3966,5904,Tag0,unknown
1610799397228,200,43,9.448242187500001E-6,0,0,0,76452,16759910,25616,979,3688,5967,3966,5904,Tag0,unknown
1610799397239,200,24,5.2734375E-6,0,0,0,76452,16759910,25616,979,3688,5967,3966,5904,Tag0,unknown
1610799397263,200,43,9.448242187500001E-6,0,0,0,76452,16759910,25616,979,3688,5967,3966,5904,Tag0,unknown
1610799397273,200,18,3.955078125E-6,0,0,0,76452,16759910,25616,979,3688,5967,3966,5904,Tag0,unknown
1610799397283,200,91,1.99951171875E-5,0,0,0,76452,16759910,25616,979,3688,5967,3966,5904,Tag0,unknown
1610799397293,200,-277,-6.0864257812500005E-5,0,0,0,76452,16759910,25616,979,3688,5967,3966,5904,Tag0,unknown
1610799397304,200,-291,-6.39404296875E-5,0,0,0,76452,16759910,25616,979,3688,5967,3966,5904,Tag0,unknown
1610799397331,200,-266,-5.8447265625E-5,0,0,0,76452,16759910,25616,979,3688,5967,3966,5904,Tag0,unknown
1610799397341,200,-295,-6.48193359375E-5,0,0,0,76452,16759910,25616,979,3688,5967,3966,5904,Tag0,unknown
1610799397353,200,123,2.70263671875E-5,0,0,0,76452,16759910,25616,979,3688,5967,3966,5904,Tag0,unknown
1610799397371,200,-56,-1.23046875E-5,0,0,0,76452,16759910,25616,979,3688,5967,3966,5904,Tag0,unknown
1610799397386,200,-31,-6.8115234375E-6,0,0,0,76452,16759910,25616,979,3688,5967,3966,5904,Tag0,unknown
1610799397405,200,-125,-2.74658203125E-5,0,0,0,76452,16759910,25616,979,3688,5967,3966,5904,Tag0,unknown
1610799397420,200,-126,-2.7685546875E-5,0,0,0,76452,16759910,25616,979,3688,5967,3966,5904,Tag0,unknown
1610799397430,200,57,1.2524414062500001E-5,0,0,0,76452,16759910,25616,979,3688,5967,3966,5904,Tag0,unknown
1610799397443,200,-46,-1.0107421875E-5,0,0,0,76452,16759910,25616,979,3688,5967,3966,5904,Tag0,unknown
1610799397455,200,-43,-9.448242187500001E-6,0,0,0,76452,16759910,25616,979,3688,5967,3966,5904,Tag0,unknown
1610799397465,200,-90,-1.9775390625E-5,0,0,0,76452,16759910,25616,979,3688,5967,3966,5904,Tag0,unknown
1610799397477,200,101,2.2192382812500002E-5,0,0,0,76452,16759910,25616,979,3688,5967,3966,5904,Tag0,unknown
1610799397489,200,59,1.29638671875E-5,0,0,0,76452,16759910,25616,979,3688,5967,3966,5904,Tag0,unknown
1610799397499,200,35,7.6904296875E-6,0,0,0,76452,16759910,25616,979,3688,5967,3966,5904,Tag0,unknown
1610799397509,200,58,1.2744140625E-5,0,0,0,76452,16759910,25616,979,3688,5967,3966,5904,Tag0,unknown
1610799397523,200,-260,-5.712890625E-5,0,0,0,76452,16759910,25616,979,3688,5967,3966,5904,Tag0,unknown
1610799397539,200,-345,-7.58056640625E-5,0,0,0,76452,16759910,25616,979,3688,5967,3966,5904,Tag0,unknown
1610799397549,200,16,3.515625E-6,0,0,0,1180138,93160,91099,55225,16762698,16758243,14358,9670,Tag0,unknown
1610799397560,200,105,2.30712890625E-5,0,0,0,1180138,93160,91099,55225,16762698,16758243,14358,9670,Tag0,unknown
1610799397570,200,104,2.28515625E-5,0,0,0,1180138,93160,91099,55225,16762698,16758243,14358,9670,Tag0,unknown
1610799397588,200,-264,-5.80078125E-5,0,0,0,1180138,93160,91099,55225,16762698,16758243,14358,9670,Tag0,unknown
1610799397603,200,-273,-5.998535156250001E-5,0,0,0,1180138,93160,91099,55225,16762698,16758243,14358,9670,Tag0,unknown
1610799397630,200,852,1.8720703125E-4,0,0,0,1180138,93160,91099,55225,16762698,16758243,14358,9670,Tag0,unknown
1610799397640,200,889,1.953369140625E-4,0,0,0,1180138,93160,91099,55225,16762698,16758243,14358,9670,Tag0,unknown
1610799397666,200,434,9.5361328125E-5,0,0,0,1180138,93160,91099,55225,16762698,16758243,14358,9670,Tag0,unknown
1610799397676,200,193,4.2407226562500005E-5,0,0,0,1180138,93160,91099,55225,16762698,16758243,14358,9670,Tag0,unknown
1610799397690,200,355,7.80029296875E-5,0,0,0,1180138,93160,91099,55225,16762698,16758243,14358,9670,Tag0,unknown
1610799397706,200,-455,-9.99755859375E-5,0,0,0,1180138,93160,91099,55225,16762698,16758243,14358,9670,Tag0,unknown
1610799397720,200,-851,-1.869873046875E-4,0,0,0,1180138,93160,91099,55225,16762698,16758243,14358,9670,Tag0,unknown
1610799397737,200,-749,-1.645751953125E-4,0,0,0,1180138,93160,91099,55225,16762698,16758243,14358,9670,Tag0,unknown
1610799397754,200,-789,-1.7336425781250002E-4,0,0,0,1180138,93160,91099,55225,16762698,16758243,14358,9670,Tag0,unknown
1610799397774,200,-1027,-2.2565917968750003E-4,0,0,0,1180138,93160,91099,55225,16762698,16758243,14358,9670,Tag0,unknown
1610799397788,200,-754,-1.65673828125E-4,0,0,0,1180138,93160,91099,55225,16762698,16758243,14358,9670,Tag0,unknown
1610799397808,200,-391,-8.591308593750001E-5,0,0,0,1180138,93160,91099,55225,16762698,16758243,14358,9670,Tag0,unknown
1610799397823,200,-561,-1.232666015625E-4,0,0,0,1180138,93160,91099,55225,16762698,16758243,14358,9670,Tag0,unknown
1610799397833,200,221,4.85595703125E-5,0,0,0,1180138,93160,91099,55225,16762698,16758243,14358,9670,Tag0,unknown
1610799397848,200,771,1.694091796875E-4,0,0,0,1180138,93160,91099,55225,16762698,16758243,14358,9670,Tag0,unknown
1610799397858,200,561,1.232666015625E-4,0,0,0,1180138,93160,91099,55225,16762698,16758243,14358,9670,Tag0,unknown
1610799397884,200,317,6.96533203125E-5,0,0,0,1180138,93160,91099,55225,16762698,16758243,14358,9670,Tag0,unknown
1610799397894,200,152,3.33984375E-5,0,0,0,1180138,93160,91099,55225,16762698,16758243,14358,9670,Tag0,unknown
1610799397905,200,268,5.8886718750000006E-5,0,0,0,1180138,93160,91099,55225,16762698,16758243,14358,9670,Tag0,unknown
1610799397915,200,505,1.109619140625E-4,0,0,0,1180138,93160,91099,55225,16762698,16758243,14358,9670,Tag0,unknown
1610799397937,200,647,1.421630859375E-4,0,0,0,1180138,93160,91099,55225,16762698,16758243,14358,9670,Tag0,unknown
1610799397961,200,308,6.767578125E-5,0,0,0,1180138,93160,91099,55225,16762698,16758243,14358,9670,Tag0,unknown
1610799397971,200,278,6.108398437500001E-5,0,0,0,1180138,93160,91099,55225,16762698,16758243,14358,9670,Tag0,unknown
1610799397998,200,578,1.27001953125E-4,0,0,0,1180138,93160,91099,55225,16762698,16758243,14358,9670,Tag0,unknown
1610799398008,200,792,1.7402343750000002E-4,0,0,0,1180138,93160,91099,55225,16762698,16758243,14358,9670,Tag0,unknown
1610799398032,200,213,4.68017578125E-5,0,0,0,1180138,93160,91099,55225,16762698,16758243,14358,9670,Tag0,unknown
1610799398042,200,-75,-1.64794921875E-5,0,0,0,1180138,93160,91099,55225,16762698,16758243,14358,9670,Tag0,unknown
1610799398058,200,-917,-2.014892578125E-4,0,0,0,1180138,93160,91099,55225,16762698,16758243,14358,9670,Tag0,unknown
1610799398073,200,-1161,-2.5510253906250004E-4,0,0,0,1180138,93160,91099,55225,16762698,16758243,14358,9670,Tag0,unknown
1610799398101,200,-1433,-3.148681640625E-4,0,0,0,1180138,93160,91099,55225,16762698,16758243,14358,9670,Tag0,unknown
1610799398122,200,-1604,-3.5244140625000005E-4,0,0,0,1180138,93160,91099,55225,16762698,16758243,14358,9670,Tag0,unknown
1610799398140,200,-325,-7.14111328125E-5,0,0,0,1180138,93160,91099,55225,16762698,16758243,14358,9670,Tag0,unknown
1610799398155,200,1,2.197265625E-7,0,0,0,1180138,93160,91099,55225,16762698,16758243,14358,9670,Tag0,unknown
1610799398182,200,1036,2.2763671875E-4,0,0,0,1180138,93160,91099,55225,16762698,16758243,14358,9670,Tag0,unknown
1610799398192,200,921,2.023681640625E-4,0,0,0,1180138,93160,91099,55225,16762698,16758243,14358,9670,Tag0,unknown
1610799398207,200,1861,4.089111328125E-4,0,0,0,1180138,93160,91099,55225,16762698,16758243,14358,9670,Tag0,unknown
1610799398223,200,1153,2.533447265625E-4,0,0,0,1180138,93160,91099,55225,16762698,16758243,14358,9670,Tag0,unknown
1610799398239,200,1091,2.397216796875E-4,0,0,0,1180138,93160,91099,55225,16762698,16758243,14358,9670,Tag0,unknown
1610799398257,200,1077,2.366455078125E-4,0,0,0,1180138,93160,91099,55225,16762698,16758243,14358,9670,Tag0,unknown
1610799398274,200,571,1.254638671875E-4,0,0,0,1180138,93160,91099,55225,16762698,16758243,14358,9670,Tag0,unknown
1610799398284,200,-379,-8.32763671875E-5,0,0,0,1180138,93160,91099,55225,16762698,16758243,14358,9670,Tag0,unknown
1610799398294,200,-205,-4.50439453125E-5,0,0,0,1180138,93160,91099,55225,16762698,16758243,14358,9670,Tag0,unknown
1610799398304,200,-546,-1.1997070312500001E-4,0,0,0,1180138,93160,91099,55225,16762698,16758243,14358,9670,Tag0,unknown
1610799398324,200,-277,-6.0864257812500005E-5,0,0,0,1180138,93160,91099,55225,16762698,16758243,14358,9670,Tag0,unknown
1610799398338,200,-261,-5.73486328125E-5,0,0,0,1180138,93160,91099,55225,16762698,16758243,14358,9670,Tag0,unknown
1610799398362,200,-389,-8.54736328125E-5,0,0,0,1180138,93160,91099,55225,16762698,16758243,14358,9670,Tag0,unknown
1610799398374,200,-465,-1.021728515625E-4,0,0,0,1180138,93160,91099,55225,16762698,16758243,14358,9670,Tag0,unknown
1610799398391,200,-889,-1.953369140625E-4,0,0,0,1180138,93160,91099,55225,16762698,16758243,14358,9670,Tag0,unknown
1610799398401,200,-1064,-2.337890625E-4,0,0,0,1180138,93160,91099,55225,16762698,16758243,14358,9670,Tag0,unknown
1610799398411,200,-645,-1.417236328125E-4,0,0,0,1180138,93160,91099,55225,16762698,16758243,14358,9670,Tag0,unknown
1610799398424,200,-429,-9.42626953125E-5,0,0,0,1180138,93160,91099,55225,16762698,16758243,14358,9670,Tag0,unknown
1610799398440,200,-409,-8.986816406250001E-5,0,0,0,1180138,93160,91099,55225,16762698,16758243,14358,9670,Tag0,unknown
1610799398468,200,597,1.3117675781250003E-4,0,0,0,1180138,93160,91099,55225,16762698,16758243,14358,9670,Tag0,unknown
1610799398478,200,881,1.9357910156249998E-4,0,0,0,1180138,93160,91099,55225,16762698,16758243,14358,9670,Tag0,unknown
1610799398491,200,1293,2.841064453125E-4,0,0,0,1180138,93160,91099,55225,16762698,16758243,14358,9670,Tag0,unknown
1610799398501,200,208,4.5703125E-5,0,0,0,1180138,93160,91099,55225,16762698,16758243,14358,9670,Tag0,unknown
1610799398524,200,218,4.7900390625E-5,0,0,0,1180138,93160,91099,55225,16762698,16758243,14358,9670,Tag0,unknown
1610799398534,200,-47,-1.0327148437500001E-5,0,0,0,687077,385018,46842,85695,16766713,16755512,22670,10214,Tag0,unknown
1610799398546,200,311,6.833496093750001E-5,0,0,0,687077,385018,46842,85695,16766713,16755512,22670,10214,Tag0,unknown
1610799398556,200,-235,-5.16357421875E-5,0,0,0,687077,385018,46842,85695,16766713,16755512,22670,10214,Tag0,unknown
1610799398582,200,-211,-4.63623046875E-5,0,0,0,687077,385018,46842,85695,16766713,16755512,22670,10214,Tag0,unknown
1610799398592,200,330,7.2509765625E-5,0,0,0,687077,385018,46842,85695,16766713,16755512,22670,10214,Tag0,unknown
1610799398605,200,171,3.75732421875E-5,0,0,0,687077,385018,46842,85695,16766713,16755512,22670,10214,Tag0,unknown
1610799398623,200,-55,-1.20849609375E-5,0,0,0,687077,385018,46842,85695,16766713,16755512,22670,10214,Tag0,unknown
1610799398641,200,263,5.7788085937500005E-5,0,0,0,687077,385018,46842,85695,16766713,16755512,22670,10214,Tag0,unknown
1610799398659,200,-377,-8.28369140625E-5,0,0,0,687077,385018,46842,85695,16766713,16755512,22670,10214,Tag0,unknown
1610799398674,200,-170,-3.7353515625E-5,0,0,0,687077,385018,46842,85695,16766713,16755512,22670,10214,Tag0,unknown
1610799398684,200,-141,-3.09814453125E-5,0,0,0,687077,385018,46842,85695,16766713,16755512,22670,10214,Tag0,unknown
1610799398706,200,-523,-1.149169921875E-4,0,0,0,687077,385018,46842,85695,16766713,16755512,22670,10214,Tag0,unknown
1610799398724,200,-827,-1.8171386718750002E-4,0,0,0,687077,385018,46842,85695,16766713,16755512,22670,10214,Tag0,unknown
1610799398740,200,-838,-1.8413085937500002E-4,0,0,0,687077,385018,46842,85695,16766713,16755512,22670,10214,Tag0,unknown
1610799398750,200,-1027,-2.2565917968750003E-4,0,0,0,687077,385018,46842,85695,16766713,16755512,22670,10214,Tag0,unknown
1610799398764,200,-1031,-2.265380859375E-4,0,0,0,687077,385018,46842,85695,16766713,16755512,22670,10214,Tag0,unknown
1610799398774,200,-747,-1.6413574218750003E-4,0,0,0,687077,385018,46842,85695,16766713,16755512,22670,10214,Tag0,unknown
1610799398798,200,-236,-5.185546875E-5,0,0,0,687077,385018,46842,85695,16766713,16755512,22670,10214,Tag0,unknown
1610799398809,200,-365,-8.02001953125E-5,0,0,0,687077,385018,46842,85695,16766713,16755512,22670,10214,Tag0,unknown
1610799398819,200,523,1.149169921875E-4,0,0,0,687077,385018,46842,85695,16766713,16755512,22670,10214,Tag0,unknown
1610799398829,200,201,4.41650390625E-5,0,0,0,687077,385018,46842,85695,16766713,16755512,22670,10214,Tag0,unknown
1610799398839,200,164,3.6035156249999995E-5,0,0,0,687077,385018,46842,85695,16766713,16755512,22670,10214,Tag0,unknown
1610799398869,200,340,7.470703125E-5,0,0,0,687077,385018,46842,85695,16766713,16755512,22670,10214,Tag0,unknown
1610799398889,200,315,6.92138671875E-5,0,0,0,687077,385018,46842,85695,16766713,16755512,22670,10214,Tag0,unknown
1610799398911,200,89,1.95556640625E-5,0,0,0,687077,385018,46842,85695,16766713,16755512,22670,10214,Tag0,unknown
1610799398924,200,93,2.04345703125E-5,0,0,0,687077,385018,46842,85695,16766713,16755512,22670,10214,Tag0,unknown
1610799398944,200,-268,-5.8886718750000006E-5,0,0,0,687077,385018,46842,85695,16766713,16755512,22670,10214,Tag0,unknown
1610799398958,200,-305,-6.70166015625E-5,0,0,0,687077,385018,46842,85695,16766713,16755512,22670,10214,Tag0,unknown
1610799398968,200,-363,-7.97607421875E-5,0,0,0,687077,385018,46842,85695,16766713,16755512,22670,10214,Tag0,unknown
1610799398978,200,-173,-3.80126953125E-5,0,0,0,687077,385018,46842,85695,16766713,16755512,22670,10214,Tag0,unknown
1610799398992,200,-291,-6.39404296875E-5,0,0,0,687077,385018,46842,85695,16766713,16755512,22670,10214,Tag0,unknown
1610799399007,200,-297,-6.525878906250001E-5,0,0,0,687077,385018,46842,85695,16766713,16755512,22670,10214,Tag0,unknown
1610799399017,200,-267,-5.86669921875E-5,0,0,0,687077,385018,46842,85695,16766713,16755512,22670,10214,Tag0,unknown
1610799399030,200,105,2.30712890625E-5,0,0,0,687077,385018,46842,85695,16766713,16755512,22670,10214,Tag0,unknown
1610799399040,200,36,7.91015625E-6,0,0,0,687077,385018,46842,85695,16766713,16755512,22670,10214,Tag0,unknown
1610799399064,200,-121,-2.6586914062500003E-5,0,0,0,687077,385018,46842,85695,16766713,16755512,22670,10214,Tag0,unknown
1610799399074,200,-122,-2.6806640625E-5,0,0,0,687077,385018,46842,85695,16766713,16755512,22670,10214,Tag0,unknown
1610799399091,200,-56,-1.23046875E-5,0,0,0,687077,385018,46842,85695,16766713,16755512,22670,10214,Tag0,unknown
1610799399109,200,87,1.91162109375E-5,0,0,0,687077,385018,46842,85695,16766713,16755512,22670,10214,Tag0,unknown
1610799399125,200,-87,-1.91162109375E-5,0,0,0,687077,385018,46842,85695,16766713,16755512,22670,10214,Tag0,unknown
1610799399135,200,331,7.272949218750001E-5,0,0,0,687077,385018,46842,85695,16766713,16755512,22670,10214,Tag0,unknown
1610799399147,200,-9,-1.9775390625E-6,0,0,0,687077,385018,46842,85695,16766713,16755512,22670,10214,Tag0,unknown
1610799399162,200,131,2.87841796875E-5,0,0,0,687077,385018,46842,85695,16766713,16755512,22670,10214,Tag0,unknown
1610799399176,200,-32,-7.03125E-6,0,0,0,687077,385018,46842,85695,16766713,16755512,22670,10214,Tag0,unknown
1610799399191,200,-86,-1.8896484375000003E-5,0,0,0,687077,385018,46842,85695,16766713,16755512,22670,10214,Tag0,unknown
1610799399210,200,324,7.119140625E-5,0,0,0,687077,385018,46842,85695,16766713,16755512,22670,10214,Tag0,unknown
1610799399225,200,330,7.2509765625E-5,0,0,0,687077,385018,46842,85695,16766713,16755512,22670,10214,Tag0,unknown
1610799399235,200,229,5.03173828125E-5,0,0,0,687077,385018,46842,85695,16766713,16755512,22670,10214,Tag0,unknown
1610799399245,200,189,4.15283203125E-5,0,0,0,687077,385018,46842,85695,16766713,16755512,22670,10214,Tag0,unknown
1610799399256,200,141,3.09814453125E-5,0,0,0,687077,385018,46842,85695,16766713,16755512,22670,10214,Tag0,unknown
1610799399273,200,339,7.448730468750001E-5,0,0,0,687077,385018,46842,85695,16766713,16755512,22670,10214,Tag0,unknown
1610799399290,200,73,1.6040039062500002E-5,0,0,0,687077,385018,46842,85695,16766713,16755512,22670,10214,Tag0,unknown
1610799399307,200,33,7.2509765625E-6,0,0,0,687077,385018,46842,85695,16766713,16755512,22670,10214,Tag0,unknown
1610799399317,200,-519,-1.140380859375E-4,0,0,0,687077,385018,46842,85695,16766713,16755512,22670,10214,Tag0,unknown
1610799399330,200,-242,-5.3173828125000005E-5,0,0,0,687077,385018,46842,85695,16766713,16755512,22670,10214,Tag0,unknown
1610799399340,200,-202,-4.4384765625000004E-5,0,0,0,687077,385018,46842,85695,16766713,16755512,22670,10214,Tag0,unknown
1610799399357,200,-149,-3.27392578125E-5,0,0,0,687077,385018,46842,85695,16766713,16755512,22670,10214,Tag0,unknown
1610799399376,200,3,6.591796875E-7,0,0,0,687077,385018,46842,85695,16766713,16755512,22670,10214,Tag0,unknown
1610799399392,200,-87,-1.91162109375E-5,0,0,0,687077,385018,46842,85695,16766713,16755512,22670,10214,Tag0,unknown
1610799399410,200,52,1.142578125E-5,0,0,0,687077,385018,46842,85695,16766713,16755512,22670,10214,Tag0,unknown
1610799399425,200,-79,-1.7358398437500003E-5,0,0,0,687077,385018,46842,85695,16766713,16755512,22670,10214,Tag0,unknown
1610799399435,200,-67,-1.4721679687500002E-5,0,0,0,687077,385018,46842,85695,16766713,16755512,22670,10214,Tag0,unknown
1610799399445,200,-23,-5.0537109375E-6,0,0,0,687077,385018,46842,85695,16766713,16755512,22670,10214,Tag0,unknown
1610799399459,200,-6,-1.318359375E-6,0,0,0,687077,385018,46842,85695,16766713,16755512,22670,10214,Tag0,unknown
1610799399469,200,-21,-4.614257812500001E-6,0,0,0,687077,385018,46842,85695,16766713,16755512,22670,10214,Tag0,unknown
1610799399482,200,-84,-1.8457031250000004E-5,0,0,0,687077,385018,46842,85695,16766713,16755512,22670,10214,Tag0,unknown
1610799399493,200,-109,-2.39501953125E-5,0,0,0,687077,385018,46842,85695,16766713,16755512,22670,10214,Tag0,unknown
1610799399503,200,87,1.91162109375E-5,0,0,0,687077,385018,46842,85695,16766713,16755512,22670,10214,Tag0,unknown
1610799399523,200,114,2.5048828125000003E-5,0,0,0,687077,385018,46842,85695,16766713,16755512,22670,10214,Tag0,unknown
1610799399542,200,55,1.20849609375E-5,0,0,0,1761877,121163,7939,28666,29000,16748244,21552,5413,Tag0,unknown
1610799399557,200,100,2.197265625E-5,0,0,0,1761877,121163,7939,28666,29000,16748244,21552,5413,Tag0,unknown
1610799399574,200,103,2.26318359375E-5,0,0,0,1761877,121163,7939,28666,29000,16748244,21552,5413,Tag0,unknown
1610799399584,200,101,2.2192382812500002E-5,0,0,0,1761877,121163,7939,28666,29000,16748244,21552,5413,Tag0,unknown
1610799399594,200,80,1.7578125E-5,0,0,0,1761877,121163,7939,28666,29000,16748244,21552,5413,Tag0,unknown
1610799399609,200,104,2.28515625E-5,0,0,0,1761877,121163,7939,28666,29000,16748244,21552,5413,Tag0,unknown
1610799399619,200,-342,-7.5146484375E-5,0,0,0,1761877,121163,7939,28666,29000,16748244,21552,5413,Tag0,unknown
1610799399633,200,-339,-7.448730468750001E-5,0,0,0,1761877,121163,7939,28666,29000,16748244,21552,5413,Tag0,unknown
1610799399643,200,-339,-7.448730468750001E-5,0,0,0,1761877,121163,7939,28666,29000,16748244,21552,5413,Tag0,unknown
1610799399667,200,-138,-3.0322265625E-5,0,0,0,1761877,121163,7939,28666,29000,16748244,21552,5413,Tag0,unknown
1610799399677,200,-309,-6.78955078125E-5,0,0,0,1761877,121163,7939,28666,29000,16748244,21552,5413,Tag0,unknown
1610799399687,200,-297,-6.525878906250001E-5,0,0,0,1761877,121163,7939,28666,29000,16748244,21552,5413,Tag0,unknown
1610799399697,200,-333,-7.316894531249999E-5,0,0,0,1761877,121163,7939,28666,29000,16748244,21552,5413,Tag0,unknown
1610799399709,200,-371,-8.151855468750001E-5,0,0,0,1761877,121163,7939,28666,29000,16748244,21552,5413,Tag0,unknown
1610799399723,200,44,9.66796875E-6,0,0,0,1761877,121163,7939,28666,29000,16748244,21552,5413,Tag0,unknown
1610799399741,200,9,1.9775390625E-6,0,0,0,1761877,121163,7939,28666,29000,16748244,21552,5413,Tag0,unknown
1610799399757,200,84,1.8457031250000004E-5,0,0,0,1761877,121163,7939,28666,29000,16748244,21552,5413,Tag0,unknown
1610799399774,200,-62,-1.3623046875E-5,0,0,0,1761877,121163,7939,28666,29000,16748244,21552,5413,Tag0,unknown
1610799399791,200,-85,-1.86767578125E-5,0,0,0,1761877,121163,7939,28666,29000,16748244,21552,5413,Tag0,unknown
1610799399810,200,107,2.35107421875E-5,0,0,0,1761877,121163,7939,28666,29000,16748244,21552,5413,Tag0,unknown
1610799399826,200,105,2.30712890625E-5,0,0,0,1761877,121163,7939,28666,29000,16748244,21552,5413,Tag0,unknown
1610799399836,200,52,1.142578125E-5,0,0,0,1761877,121163,7939,28666,29000,16748244,21552,5413,Tag0,unknown
1610799399852,200,-105,-2.30712890625E-5,0,0,0,1761877,121163,7939,28666,29000,16748244,21552,5413,Tag0,unknown
1610799399862,200,65,1.42822265625E-5,0,0,0,1761877,121163,7939,28666,29000,16748244,21552,5413,Tag0,unknown
1610799399876,200,59,1.29638671875E-5,0,0,0,1761877,121163,7939,28666,29000,16748244,21552,5413,Tag0,unknown
1610799399893,200,97,2.13134765625E-5,0,0,0,1761877,121163,7939,28666,29000,16748244,21552,5413,Tag0,unknown
1610799399903,200,41,9.008789062499999E-6,0,0,0,1761877,121163,7939,28666,29000,16748244,21552,5413,Tag0,unknown
1610799399913,200,108,2.3730468750000002E-5,0,0,0,1761877,121163,7939,28666,29000,16748244,21552,5413,Tag0,unknown
1610799399925,200,93,2.04345703125E-5,0,0,0,1761877,121163,7939,28666,29000,16748244,21552,5413,Tag0,unknown
1610799399941,200,-31,-6.8115234375E-6,0,0,0,1761877,121163,7939,28666,29000,16748244,21552,5413,Tag0,unknown
1610799399958,200,-69,-1.51611328125E-5,0,0,0,1761877,121163,7939,28666,29000,16748244,21552,5413,Tag0,unknown
1610799399974,200,39,8.5693359375E-6,0,0,0,1761877,121163,7939,28666,29000,16748244,21552,5413,Tag0,unknown
1610799399996,200,-117,-2.5708007812499998E-5,0,0,0,1761877,121163,7939,28666,29000,16748244,21552,5413,Tag0,unknown
1610799400010,200,119,2.6147460937500004E-5,0,0,0,1761877,121163,7939,28666,29000,16748244,21552,5413,Tag0,unknown
1610799400031,200,89,1.95556640625E-5,0,0,0,1761877,121163,7939,28666,29000,16748244,21552,5413,Tag0,unknown
1610799400044,200,76,1.669921875E-5,0,0,0,1761877,121163,7939,28666,29000,16748244,21552,5413,Tag0,unknown
1610799400054,200,89,1.95556640625E-5,0,0,0,1761877,121163,7939,28666,29000,16748244,21552,5413,Tag0,unknown
1610799400068,200,69,1.51611328125E-5,0,0,0,1761877,121163,7939,28666,29000,16748244,21552,5413,Tag0,unknown
1610799400078,200,40,8.7890625E-6,0,0,0,1761877,121163,7939,28666,29000,16748244,21552,5413,Tag0,unknown
1610799400101,200,90,1.9775390625E-5,0,0,0,1761877,121163,7939,28666,29000,16748244,21552,5413,Tag0,unknown
1610799400111,200,90,1.9775390625E-5,0,0,0,1761877,121163,7939,28666,29000,16748244,21552,5413,Tag0,unknown
1610799400125,200,57,1.2524414062500001E-5,0,0,0,1761877,121163,7939,28666,29000,16748244,21552,5413,Tag0,unknown
1610799400148,200,-123,-2.70263671875E-5,0,0,0,1761877,121163,7939,28666,29000,16748244,21552,5413,Tag0,unknown
1610799400158,200,-105,-2.30712890625E-5,0,0,0,1761877,121163,7939,28666,29000,16748244,21552,5413,Tag0,unknown
1610799400174,200,76,1.669921875E-5,0,0,0,1761877,121163,7939,28666,29000,16748244,21552,5413,Tag0,unknown
1610799400192,200,42,9.228515625000002E-6,0,0,0,1761877,121163,7939,28666,29000,16748244,21552,5413,Tag0,unknown
1610799400216,200,105,2.30712890625E-5,0,0,0,1761877,121163,7939,28666,29000,16748244,21552,5413,Tag0,unknown
1610799400227,200,75,1.64794921875E-5,0,0,0,1761877,121163,7939,28666,29000,16748244,21552,5413,Tag0,unknown
1610799400364,200,10,2.197265625E-6,0,0,0,1761877,121163,7939,28666,29000,16748244,21552,5413,Tag0,unknown
1610799400389,200,-277,-6.0864257812500005E-5,0,0,0,1761877,121163,7939,28666,29000,16748244,21552,5413,Tag0,unknown
1610799400399,200,-266,-5.8447265625E-5,0,0,0,1761877,121163,7939,28666,29000,16748244,21552,5413,Tag0,unknown
1610799400409,200,53,1.1645507812500002E-5,0,0,0,1761877,121163,7939,28666,29000,16748244,21552,5413,Tag0,unknown
1610799400431,200,5,1.0986328125E-6,0,0,0,1761877,121163,7939,28666,29000,16748244,21552,5413,Tag0,unknown
1610799400444,200,23,5.0537109375E-6,0,0,0,1761877,121163,7939,28666,29000,16748244,21552,5413,Tag0,unknown
1610799400498,200,25,5.4931640625E-6,0,0,0,1761877,121163,7939,28666,29000,16748244,21552,5413,Tag0,unknown
1610799400511,200,51,1.1206054687499999E-5,0,0,0,1761877,121163,7939,28666,29000,16748244,21552,5413,Tag0,unknown
1610799400568,200,-267,-5.86669921875E-5,0,0,0,1761877,121163,7939,28666,29000,16748244,21552,5413,Tag0,unknown
1610799400586,200,83,1.82373046875E-5,0,0,0,1761877,121163,7939,28666,29000,16748244,21552,5413,Tag0,unknown
1610799400596,200,88,1.93359375E-5,0,0,0,1761877,121163,7939,28666,29000,16748244,21552,5413,Tag0,unknown
1610799400711,200,-103,-2.26318359375E-5,0,0,0,1761877,121163,7939,28666,29000,16748244,21552,5413,Tag0,unknown
1610799400729,200,-94,-2.0654296875000002E-5,0,0,0,1761877,121163,7939,28666,29000,16748244,21552,5413,Tag0,unknown
1610799400739,200,71,1.56005859375E-5,0,0,0,1761877,121163,7939,28666,29000,16748244,21552,5413,Tag0,unknown
1610799400749,200,106,2.3291015625000003E-5,0,0,0,1761877,121163,7939,28666,29000,16748244,21552,5413,Tag0,unknown
1610799400832,200,115,2.52685546875E-5,0,0,0,1761877,121163,7939,28666,29000,16748244,21552,5413,Tag0,unknown
1610799400845,200,-67,-1.4721679687500002E-5,0,0,0,1761877,121163,7939,28666,29000,16748244,21552,5413,Tag0,unknown
1610799400863,200,117,2.5708007812499998E-5,0,0,0,1761877,121163,7939,28666,29000,16748244,21552,5413,Tag0,unknown
1610799400873,200,-117,-2.5708007812499998E-5,0,0,0,1761877,121163,7939,28666,29000,16748244,21552,5413,Tag0,unknown
1610799400883,200,68,1.4941406250000001E-5,0,0,0,1761877,121163,7939,28666,29000,16748244,21552,5413,Tag0,unknown
1610799400893,200,-341,-7.492675781250002E-5,0,0,0,1761877,121163,7939,28666,29000,16748244,21552,5413,Tag0,unknown
1610799400903,200,-31,-6.8115234375E-6,0,0,0,1761877,121163,7939,28666,29000,16748244,21552,5413,Tag0,unknown
1610799400913,200,609,1.338134765625E-4,0,0,0,1761877,121163,7939,28666,29000,16748244,21552,5413,Tag0,unknown
1610799400951,200,44,9.66796875E-6,0,0,0,1761877,121163,7939,28666,29000,16748244,21552,5413,Tag0,unknown
1610799400961,200,-484,-1.0634765625000001E-4,0,0,0,1761877,121163,7939,28666,29000,16748244,21552,5413,Tag0,unknown
1610799400977,200,-697,-1.5314941406250002E-4,0,0,0,1761877,121163,7939,28666,29000,16748244,21552,5413,Tag0,unknown
1610799400994,200,-483,-1.061279296875E-4,0,0,0,1761877,121163,7939,28666,29000,16748244,21552,5413,Tag0,unknown
1610799401012,200,-410,-9.0087890625E-5,0,0,0,1761877,121163,7939,28666,29000,16748244,21552,5413,Tag0,unknown
1610799401029,200,153,3.3618164062500004E-5,0,0,0,1761877,121163,7939,28666,29000,16748244,21552,5413,Tag0,unknown
1610799401045,200,577,1.2678222656250002E-4,0,0,0,1761877,121163,7939,28666,29000,16748244,21552,5413,Tag0,unknown
1610799401055,200,568,1.248046875E-4,0,0,0,1761877,121163,7939,28666,29000,16748244,21552,5413,Tag0,unknown
1610799401067,200,349,7.668457031250001E-5,0,0,0,1761877,121163,7939,28666,29000,16748244,21552,5413,Tag0,unknown
1610799401078,200,155,3.40576171875E-5,0,0,0,1761877,121163,7939,28666,29000,16748244,21552,5413,Tag0,unknown
1610799401100,200,116,2.548828125E-5,0,0,0,1761877,121163,7939,28666,29000,16748244,21552,5413,Tag0,unknown
1610799401112,200,-83,-1.82373046875E-5,0,0,0,1761877,121163,7939,28666,29000,16748244,21552,5413,Tag0,unknown
1610799401122,200,93,2.04345703125E-5,0,0,0,1761877,121163,7939,28666,29000,16748244,21552,5413,Tag0,unknown
1610799401136,200,-376,-8.261718750000001E-5,0,0,0,1761877,121163,7939,28666,29000,16748244,21552,5413,Tag0,unknown
1610799401172,200,-249,-5.47119140625E-5,0,0,0,1761877,121163,7939,28666,29000,16748244,21552,5413,Tag0,unknown
1610799401192,200,83,1.82373046875E-5,0,0,0,1761877,121163,7939,28666,29000,16748244,21552,5413,Tag0,unknown
1610799401202,200,158,3.4716796875000005E-5,0,0,0,1761877,121163,7939,28666,29000,16748244,21552,5413,Tag0,unknown
1610799401212,200,183,4.02099609375E-5,0,0,0,1761877,121163,7939,28666,29000,16748244,21552,5413,Tag0,unknown
1610799401228,200,307,6.74560546875E-5,0,0,0,1761877,121163,7939,28666,29000,16748244,21552,5413,Tag0,unknown
1610799401245,200,291,6.39404296875E-5,0,0,0,1761877,121163,7939,28666,29000,16748244,21552,5413,Tag0,unknown
1610799401262,200,359,7.88818359375E-5,0,0,0,1761877,121163,7939,28666,29000,16748244,21552,5413,Tag0,unknown
1610799401272,200,-67,-1.4721679687500002E-5,0,0,0,1761877,121163,7939,28666,29000,16748244,21552,5413,Tag0,unknown
1610799401283,200,-104,-2.28515625E-5,0,0,0,1761877,121163,7939,28666,29000,16748244,21552,5413,Tag0,unknown
1610799401293,200,96,2.109375E-5,0,0,0,1761877,121163,7939,28666,29000,16748244,21552,5413,Tag0,unknown
1610799401316,200,-582,-1.27880859375E-4,0,0,0,1761877,121163,7939,28666,29000,16748244,21552,5413,Tag0,unknown
1610799401327,200,-595,-1.307373046875E-4,0,0,0,1761877,121163,7939,28666,29000,16748244,21552,5413,Tag0,unknown
1610799401353,200,-888,-1.951171875E-4,0,0,0,1761877,121163,7939,28666,29000,16748244,21552,5413,Tag0,unknown
1610799401363,200,-430,-9.4482421875E-5,0,0,0,1761877,121163,7939,28666,29000,16748244,21552,5413,Tag0,unknown
1610799401388,200,-328,-7.207031249999999E-5,0,0,0,1761877,121163,7939,28666,29000,16748244,21552,5413,Tag0,unknown
1610799401398,200,-316,-6.943359375000001E-5,0,0,0,1761877,121163,7939,28666,29000,16748244,21552,5413,Tag0,unknown
1610799401413,200,370,8.1298828125E-5,0,0,0,1761877,121163,7939,28666,29000,16748244,21552,5413,Tag0,unknown
1610799401430,200,544,1.1953125000000001E-4,0,0,0,1761877,121163,7939,28666,29000,16748244,21552,5413,Tag0,unknown
1610799401443,200,615,1.351318359375E-4,0,0,0,1761877,121163,7939,28666,29000,16748244,21552,5413,Tag0,unknown
1610799401460,200,573,1.259033203125E-4,0,0,0,1761877,121163,7939,28666,29000,16748244,21552,5413,Tag0,unknown
1610799401477,200,557,1.223876953125E-4,0,0,0,1761877,121163,7939,28666,29000,16748244,21552,5413,Tag0,unknown
1610799401500,200,-150,-3.2958984375E-5,0,0,0,1761877,121163,7939,28666,29000,16748244,21552,5413,Tag0,unknown
1610799401513,200,-171,-3.75732421875E-5,0,0,0,1761877,121163,7939,28666,29000,16748244,21552,5413,Tag0,unknown
1610799401523,200,-522,-1.14697265625E-4,0,0,0,459509,149029,131709,7382,16750842,26985,24113,8758,Tag0,unknown
1610799401536,200,-205,-4.50439453125E-5,0,0,0,459509,149029,131709,7382,16750842,26985,24113,8758,Tag0,unknown
1610799401547,200,-534,-1.17333984375E-4,0,0,0,459509,149029,131709,7382,16750842,26985,24113,8758,Tag0,unknown
1610799401562,200,-299,-6.56982421875E-5,0,0,0,459509,149029,131709,7382,16750842,26985,24113,8758,Tag0,unknown
1610799401579,200,-289,-6.35009765625E-5,0,0,0,459509,149029,131709,7382,16750842,26985,24113,8758,Tag0,unknown
1610799401595,200,84,1.8457031250000004E-5,0,0,0,459509,149029,131709,7382,16750842,26985,24113,8758,Tag0,unknown
1610799401614,200,304,6.6796875E-5,0,0,0,459509,149029,131709,7382,16750842,26985,24113,8758,Tag0,unknown
1610799401627,200,377,8.28369140625E-5,0,0,0,459509,149029,131709,7382,16750842,26985,24113,8758,Tag0,unknown
1610799401648,200,-117,-2.5708007812499998E-5,0,0,0,459509,149029,131709,7382,16750842,26985,24113,8758,Tag0,unknown
1610799401661,200,-89,-1.95556640625E-5,0,0,0,459509,149029,131709,7382,16750842,26985,24113,8758,Tag0,unknown
1610799401685,200,-284,-6.240234375E-5,0,0,0,459509,149029,131709,7382,16750842,26985,24113,8758,Tag0,unknown
1610799401696,200,-271,-5.95458984375E-5,0,0,0,459509,149029,131709,7382,16750842,26985,24113,8758,Tag0,unknown
1610799401719,200,-346,-7.6025390625E-5,0,0,0,459509,149029,131709,7382,16750842,26985,24113,8758,Tag0,unknown
1610799401730,200,-359,-7.88818359375E-5,0,0,0,459509,149029,131709,7382,16750842,26985,24113,8758,Tag0,unknown
1610799401740,200,120,2.63671875E-5,0,0,0,459509,149029,131709,7382,16750842,26985,24113,8758,Tag0,unknown
1610799401750,200,-94,-2.0654296875000002E-5,0,0,0,459509,149029,131709,7382,16750842,26985,24113,8758,Tag0,unknown
1610799401766,200,-7,-1.5380859375E-6,0,0,0,459509,149029,131709,7382,16750842,26985,24113,8758,Tag0,unknown
1610799401780,200,274,6.0205078124999997E-5,0,0,0,459509,149029,131709,7382,16750842,26985,24113,8758,Tag0,unknown
1610799401790,200,229,5.03173828125E-5,0,0,0,459509,149029,131709,7382,16750842,26985,24113,8758,Tag0,unknown
1610799401808,200,209,4.59228515625E-5,0,0,0,459509,149029,131709,7382,16750842,26985,24113,8758,Tag0,unknown
1610799401818,200,216,4.7460937500000004E-5,0,0,0,459509,149029,131709,7382,16750842,26985,24113,8758,Tag0,unknown
1610799401830,200,178,3.9111328125E-5,0,0,0,459509,149029,131709,7382,16750842,26985,24113,8758,Tag0,unknown
1610799401847,200,316,6.943359375000001E-5,0,0,0,459509,149029,131709,7382,16750842,26985,24113,8758,Tag0,unknown
1610799401863,200,327,7.18505859375E-5,0,0,0,459509,149029,131709,7382,16750842,26985,24113,8758,Tag0,unknown
1610799401873,200,-362,-7.954101562500001E-5,0,0,0,459509,149029,131709,7382,16750842,26985,24113,8758,Tag0,unknown
1610799401896,200,-357,-7.844238281250001E-5,0,0,0,459509,149029,131709,7382,16750842,26985,24113,8758,Tag0,unknown
1610799401914,200,-187,-4.10888671875E-5,0,0,0,459509,149029,131709,7382,16750842,26985,24113,8758,Tag0,unknown
1610799401930,200,-155,-3.40576171875E-5,0,0,0,459509,149029,131709,7382,16750842,26985,24113,8758,Tag0,unknown
1610799401940,200,-134,-2.9443359375000003E-5,0,0,0,459509,149029,131709,7382,16750842,26985,24113,8758,Tag0,unknown
1610799401954,200,-314,-6.8994140625E-5,0,0,0,459509,149029,131709,7382,16750842,26985,24113,8758,Tag0,unknown
1610799401964,200,67,1.4721679687500002E-5,0,0,0,459509,149029,131709,7382,16750842,26985,24113,8758,Tag0,unknown
1610799401978,200,83,1.82373046875E-5,0,0,0,459509,149029,131709,7382,16750842,26985,24113,8758,Tag0,unknown
1610799401995,200,268,5.8886718750000006E-5,0,0,0,459509,149029,131709,7382,16750842,26985,24113,8758,Tag0,unknown
1610799402013,200,128,2.8125E-5,0,0,0,459509,149029,131709,7382,16750842,26985,24113,8758,Tag0,unknown
1610799402030,200,261,5.73486328125E-5,0,0,0,459509,149029,131709,7382,16750842,26985,24113,8758,Tag0,unknown
1610799402040,200,-86,-1.8896484375000003E-5,0,0,0,459509,149029,131709,7382,16750842,26985,24113,8758,Tag0,unknown
1610799402050,200,86,1.8896484375000003E-5,0,0,0,459509,149029,131709,7382,16750842,26985,24113,8758,Tag0,unknown
1610799402064,200,-115,-2.52685546875E-5,0,0,0,459509,149029,131709,7382,16750842,26985,24113,8758,Tag0,unknown
1610799402080,200,-89,-1.95556640625E-5,0,0,0,459509,149029,131709,7382,16750842,26985,24113,8758,Tag0,unknown
1610799402096,200,-29,-6.3720703125E-6,0,0,0,459509,149029,131709,7382,16750842,26985,24113,8758,Tag0,unknown
1610799402116,200,310,6.8115234375E-5,0,0,0,459509,149029,131709,7382,16750842,26985,24113,8758,Tag0,unknown
1610799402131,200,43,9.448242187500001E-6,0,0,0,459509,149029,131709,7382,16750842,26985,24113,8758,Tag0,unknown
1610799402141,200,76,1.669921875E-5,0,0,0,459509,149029,131709,7382,16750842,26985,24113,8758,Tag0,unknown
1610799402163,200,113,2.48291015625E-5,0,0,0,459509,149029,131709,7382,16750842,26985,24113,8758,Tag0,unknown
1610799402183,200,43,9.448242187500001E-6,0,0,0,459509,149029,131709,7382,16750842,26985,24113,8758,Tag0,unknown
1610799402196,200,61,1.34033203125E-5,0,0,0,459509,149029,131709,7382,16750842,26985,24113,8758,Tag0,unknown
1610799402206,200,-328,-7.207031249999999E-5,0,0,0,459509,149029,131709,7382,16750842,26985,24113,8758,Tag0,unknown
1610799402220,200,-324,-7.119140625E-5,0,0,0,459509,149029,131709,7382,16750842,26985,24113,8758,Tag0,unknown
1610799402231,200,-338,-7.426757812499999E-5,0,0,0,459509,149029,131709,7382,16750842,26985,24113,8758,Tag0,unknown
1610799402256,200,84,1.8457031250000004E-5,0,0,0,459509,149029,131709,7382,16750842,26985,24113,8758,Tag0,unknown
1610799402266,200,81,1.77978515625E-5,0,0,0,459509,149029,131709,7382,16750842,26985,24113,8758,Tag0,unknown
1610799402281,200,-193,-4.2407226562500005E-5,0,0,0,459509,149029,131709,7382,16750842,26985,24113,8758,Tag0,unknown
1610799402298,200,-286,-6.2841796875E-5,0,0,0,459509,149029,131709,7382,16750842,26985,24113,8758,Tag0,unknown
1610799402314,200,-369,-8.10791015625E-5,0,0,0,459509,149029,131709,7382,16750842,26985,24113,8758,Tag0,unknown
1610799402331,200,-333,-7.316894531249999E-5,0,0,0,459509,149029,131709,7382,16750842,26985,24113,8758,Tag0,unknown
1610799402347,200,33,7.2509765625E-6,0,0,0,459509,149029,131709,7382,16750842,26985,24113,8758,Tag0,unknown
1610799402366,200,-46,-1.0107421875E-5,0,0,0,459509,149029,131709,7382,16750842,26985,24113,8758,Tag0,unknown
1610799402379,200,-15,-3.2958984375E-6,0,0,0,459509,149029,131709,7382,16750842,26985,24113,8758,Tag0,unknown
1610799402400,200,-79,-1.7358398437500003E-5,0,0,0,459509,149029,131709,7382,16750842,26985,24113,8758,Tag0,unknown
1610799402412,200,-63,-1.38427734375E-5,0,0,0,459509,149029,131709,7382,16750842,26985,24113,8758,Tag0,unknown
1610799402442,200,-200,-4.39453125E-5,0,0,0,459509,149029,131709,7382,16750842,26985,24113,8758,Tag0,unknown
1610799402452,200,-217,-4.76806640625E-5,0,0,0,459509,149029,131709,7382,16750842,26985,24113,8758,Tag0,unknown
1610799402467,200,3,6.591796875E-7,0,0,0,459509,149029,131709,7382,16750842,26985,24113,8758,Tag0,unknown
1610799402483,200,-78,-1.7138671875E-5,0,0,0,459509,149029,131709,7382,16750842,26985,24113,8758,Tag0,unknown
1610799402493,200,279,6.13037109375E-5,0,0,0,459509,149029,131709,7382,16750842,26985,24113,8758,Tag0,unknown
1610799402503,200,291,6.39404296875E-5,0,0,0,459509,149029,131709,7382,16750842,26985,24113,8758,Tag0,unknown
1610799402518,200,-62,-1.3623046875E-5,0,0,0,660996,72930,15254,6271,11419,5220,7929,1724,Tag0,unknown
1610799402538,200,-48,-1.0546875E-5,0,0,0,660996,72930,15254,6271,11419,5220,7929,1724,Tag0,unknown
1610799402548,200,-77,-1.69189453125E-5,0,0,0,660996,72930,15254,6271,11419,5220,7929,1724,Tag0,unknown
1610799402563,200,-61,-1.34033203125E-5,0,0,0,660996,72930,15254,6271,11419,5220,7929,1724,Tag0,unknown
1610799402589,200,123,2.70263671875E-5,0,0,0,660996,72930,15254,6271,11419,5220,7929,1724,Tag0,unknown
1610799402599,200,-80,-1.7578125E-5,0,0,0,660996,72930,15254,6271,11419,5220,7929,1724,Tag0,unknown
1610799402613,200,55,1.20849609375E-5,0,0,0,660996,72930,15254,6271,11419,5220,7929,1724,Tag0,unknown
1610799402630,200,-286,-6.2841796875E-5,0,0,0,660996,72930,15254,6271,11419,5220,7929,1724,Tag0,unknown
1610799402647,200,9,1.9775390625E-6,0,0,0,660996,72930,15254,6271,11419,5220,7929,1724,Tag0,unknown
1610799402665,200,-101,-2.2192382812500002E-5,0,0,0,660996,72930,15254,6271,11419,5220,7929,1724,Tag0,unknown
1610799402682,200,-334,-7.338867187500001E-5,0,0,0,660996,72930,15254,6271,11419,5220,7929,1724,Tag0,unknown
1610799402692,200,-89,-1.95556640625E-5,0,0,0,660996,72930,15254,6271,11419,5220,7929,1724,Tag0,unknown
1610799402702,200,115,2.52685546875E-5,0,0,0,660996,72930,15254,6271,11419,5220,7929,1724,Tag0,unknown
1610799402714,200,-23,-5.0537109375E-6,0,0,0,660996,72930,15254,6271,11419,5220,7929,1724,Tag0,unknown
1610799402733,200,-110,-2.4169921875E-5,0,0,0,660996,72930,15254,6271,11419,5220,7929,1724,Tag0,unknown
1610799402748,200,99,2.1752929687500003E-5,0,0,0,660996,72930,15254,6271,11419,5220,7929,1724,Tag0,unknown
1610799402759,200,-260,-5.712890625E-5,0,0,0,660996,72930,15254,6271,11419,5220,7929,1724,Tag0,unknown
1610799402775,200,5,1.0986328125E-6,0,0,0,660996,72930,15254,6271,11419,5220,7929,1724,Tag0,unknown
1610799402785,200,-357,-7.844238281250001E-5,0,0,0,660996,72930,15254,6271,11419,5220,7929,1724,Tag0,unknown
1610799402800,200,-363,-7.97607421875E-5,0,0,0,660996,72930,15254,6271,11419,5220,7929,1724,Tag0,unknown
1610799402813,200,-360,-7.91015625E-5,0,0,0,660996,72930,15254,6271,11419,5220,7929,1724,Tag0,unknown
1610799402830,200,125,2.74658203125E-5,0,0,0,660996,72930,15254,6271,11419,5220,7929,1724,Tag0,unknown
1610799402846,200,92,2.021484375E-5,0,0,0,660996,72930,15254,6271,11419,5220,7929,1724,Tag0,unknown
1610799402863,200,-75,-1.64794921875E-5,0,0,0,660996,72930,15254,6271,11419,5220,7929,1724,Tag0,unknown
1610799402897,200,55,1.20849609375E-5,0,0,0,660996,72930,15254,6271,11419,5220,7929,1724,Tag0,unknown
1610799402915,200,76,1.669921875E-5,0,0,0,660996,72930,15254,6271,11419,5220,7929,1724,Tag0,unknown
1610799402925,200,-5,-1.0986328125E-6,0,0,0,660996,72930,15254,6271,11419,5220,7929,1724,Tag0,unknown
1610799402935,200,-108,-2.3730468750000002E-5,0,0,0,660996,72930,15254,6271,11419,5220,7929,1724,Tag0,unknown
1610799402945,200,-281,-6.17431640625E-5,0,0,0,660996,72930,15254,6271,11419,5220,7929,1724,Tag0,unknown
1610799402965,200,-149,-3.27392578125E-5,0,0,0,660996,72930,15254,6271,11419,5220,7929,1724,Tag0,unknown
1610799402975,200,-422,-9.2724609375E-5,0,0,0,660996,72930,15254,6271,11419,5220,7929,1724,Tag0,unknown
1610799402991,200,-809,-1.777587890625E-4,0,0,0,660996,72930,15254,6271,11419,5220,7929,1724,Tag0,unknown
1610799403001,200,-778,-1.70947265625E-4,0,0,0,660996,72930,15254,6271,11419,5220,7929,1724,Tag0,unknown
1610799403025,200,-664,-1.458984375E-4,0,0,0,660996,72930,15254,6271,11419,5220,7929,1724,Tag0,unknown
1610799403035,200,-882,-1.9379882812500001E-4,0,0,0,660996,72930,15254,6271,11419,5220,7929,1724,Tag0,unknown
1610799403048,200,-919,-2.0192871093750001E-4,0,0,0,660996,72930,15254,6271,11419,5220,7929,1724,Tag0,unknown
1610799403064,200,-88,-1.93359375E-5,0,0,0,660996,72930,15254,6271,11419,5220,7929,1724,Tag0,unknown
1610799403081,200,135,2.96630859375E-5,0,0,0,660996,72930,15254,6271,11419,5220,7929,1724,Tag0,unknown
1610799403099,200,683,1.500732421875E-4,0,0,0,660996,72930,15254,6271,11419,5220,7929,1724,Tag0,unknown
1610799403114,200,845,1.856689453125E-4,0,0,0,660996,72930,15254,6271,11419,5220,7929,1724,Tag0,unknown
1610799403124,200,-515,-1.131591796875E-4,0,0,0,660996,72930,15254,6271,11419,5220,7929,1724,Tag0,unknown
1610799403136,200,-402,-8.8330078125E-5,0,0,0,660996,72930,15254,6271,11419,5220,7929,1724,Tag0,unknown
1610799403149,200,-597,-1.3117675781250003E-4,0,0,0,660996,72930,15254,6271,11419,5220,7929,1724,Tag0,unknown
1610799403171,200,-321,-7.053222656250001E-5,0,0,0,660996,72930,15254,6271,11419,5220,7929,1724,Tag0,unknown
1610799403183,200,-141,-3.09814453125E-5,0,0,0,660996,72930,15254,6271,11419,5220,7929,1724,Tag0,unknown
1610799403193,200,-903,-1.9841308593750002E-4,0,0,0,660996,72930,15254,6271,11419,5220,7929,1724,Tag0,unknown
1610799403204,200,-1877,-4.124267578125E-4,0,0,0,660996,72930,15254,6271,11419,5220,7929,1724,Tag0,unknown
1610799403215,200,-1443,-3.170654296875E-4,0,0,0,660996,72930,15254,6271,11419,5220,7929,1724,Tag0,unknown
1610799403232,200,-1396,-3.0673828125000004E-4,0,0,0,660996,72930,15254,6271,11419,5220,7929,1724,Tag0,unknown
1610799403250,200,-1117,-2.454345703125E-4,0,0,0,660996,72930,15254,6271,11419,5220,7929,1724,Tag0,unknown
1610799403267,200,-676,-1.4853515624999999E-4,0,0,0,660996,72930,15254,6271,11419,5220,7929,1724,Tag0,unknown
1610799403277,200,1791,3.935302734375E-4,0,0,0,660996,72930,15254,6271,11419,5220,7929,1724,Tag0,unknown
1610799403287,200,1791,3.935302734375E-4,0,0,0,660996,72930,15254,6271,11419,5220,7929,1724,Tag0,unknown
1610799403297,200,1791,3.935302734375E-4,0,0,0,660996,72930,15254,6271,11419,5220,7929,1724,Tag0,unknown
1610799403320,200,1749,3.843017578125E-4,0,0,0,660996,72930,15254,6271,11419,5220,7929,1724,Tag0,unknown
1610799403331,200,1710,3.75732421875E-4,0,0,0,660996,72930,15254,6271,11419,5220,7929,1724,Tag0,unknown
1610799403348,200,1031,2.265380859375E-4,0,0,0,660996,72930,15254,6271,11419,5220,7929,1724,Tag0,unknown
1610799403365,200,872,1.916015625E-4,0,0,0,660996,72930,15254,6271,11419,5220,7929,1724,Tag0,unknown
1610799403375,200,613,1.3469238281250002E-4,0,0,0,660996,72930,15254,6271,11419,5220,7929,1724,Tag0,unknown
1610799403389,200,564,1.2392578125E-4,0,0,0,660996,72930,15254,6271,11419,5220,7929,1724,Tag0,unknown
1610799403401,200,540,1.1865234375E-4,0,0,0,660996,72930,15254,6271,11419,5220,7929,1724,Tag0,unknown
1610799403411,200,-2048,-4.5E-4,0,0,0,660996,72930,15254,6271,11419,5220,7929,1724,Tag0,unknown
1610799403421,200,-2048,-4.5E-4,0,0,0,660996,72930,15254,6271,11419,5220,7929,1724,Tag0,unknown
1610799403432,200,-2048,-4.5E-4,0,0,0,660996,72930,15254,6271,11419,5220,7929,1724,Tag0,unknown
1610799403449,200,-1964,-4.3154296875E-4,0,0,0,660996,72930,15254,6271,11419,5220,7929,1724,Tag0,unknown
1610799403465,200,-1879,-4.128662109375E-4,0,0,0,660996,72930,15254,6271,11419,5220,7929,1724,Tag0,unknown
1610799403482,200,-1445,-3.175048828125E-4,0,0,0,660996,72930,15254,6271,11419,5220,7929,1724,Tag0,unknown
1610799403492,200,1791,3.935302734375E-4,0,0,0,660996,72930,15254,6271,11419,5220,7929,1724,Tag0,unknown
1610799403507,200,1791,3.935302734375E-4,0,0,0,660996,72930,15254,6271,11419,5220,7929,1724,Tag0,unknown
1610799403517,200,1173,2.577392578125E-4,0,0,0,608253,21898,17123,16767913,40603,153919,28974,16772378,Tag0,unknown
1610799403534,200,1668,3.6650390625E-4,0,0,0,608253,21898,17123,16767913,40603,153919,28974,16772378,Tag0,unknown
1610799403548,200,1186,2.6059570312500003E-4,0,0,0,608253,21898,17123,16767913,40603,153919,28974,16772378,Tag0,unknown
1610799403566,200,1341,2.946533203125E-4,0,0,0,608253,21898,17123,16767913,40603,153919,28974,16772378,Tag0,unknown
1610799403585,200,698,1.5336914062500002E-4,0,0,0,608253,21898,17123,16767913,40603,153919,28974,16772378,Tag0,unknown
1610799403600,200,452,9.931640625E-5,0,0,0,608253,21898,17123,16767913,40603,153919,28974,16772378,Tag0,unknown
1610799403610,200,224,4.921875E-5,0,0,0,608253,21898,17123,16767913,40603,153919,28974,16772378,Tag0,unknown
1610799403622,200,161,3.53759765625E-5,0,0,0,608253,21898,17123,16767913,40603,153919,28974,16772378,Tag0,unknown
1610799403633,200,348,7.646484375E-5,0,0,0,608253,21898,17123,16767913,40603,153919,28974,16772378,Tag0,unknown
1610799403643,200,-2048,-4.5E-4,0,0,0,608253,21898,17123,16767913,40603,153919,28974,16772378,Tag0,unknown
1610799403653,200,-2048,-4.5E-4,0,0,0,608253,21898,17123,16767913,40603,153919,28974,16772378,Tag0,unknown
1610799403665,200,-2048,-4.5E-4,0,0,0,608253,21898,17123,16767913,40603,153919,28974,16772378,Tag0,unknown
1610799403701,200,-1434,-3.1508789062500005E-4,0,0,0,608253,21898,17123,16767913,40603,153919,28974,16772378,Tag0,unknown
1610799403715,200,-1637,-3.596923828125E-4,0,0,0,608253,21898,17123,16767913,40603,153919,28974,16772378,Tag0,unknown
1610799403748,200,1791,3.935302734375E-4,0,0,0,608253,21898,17123,16767913,40603,153919,28974,16772378,Tag0,unknown
1610799403767,200,1791,3.935302734375E-4,0,0,0,608253,21898,17123,16767913,40603,153919,28974,16772378,Tag0,unknown
1610799403777,200,1791,3.935302734375E-4,0,0,0,608253,21898,17123,16767913,40603,153919,28974,16772378,Tag0,unknown
1610799403791,200,1429,3.1398925781250006E-4,0,0,0,608253,21898,17123,16767913,40603,153919,28974,16772378,Tag0,unknown
1610799403818,200,1105,2.427978515625E-4,0,0,0,608253,21898,17123,16767913,40603,153919,28974,16772378,Tag0,unknown
1610799403833,200,1065,2.340087890625E-4,0,0,0,608253,21898,17123,16767913,40603,153919,28974,16772378,Tag0,unknown
1610799403843,200,423,9.29443359375E-5,0,0,0,608253,21898,17123,16767913,40603,153919,28974,16772378,Tag0,unknown
1610799403854,200,218,4.7900390625E-5,0,0,0,608253,21898,17123,16767913,40603,153919,28974,16772378,Tag0,unknown
1610799403865,200,140,3.076171875E-5,0,0,0,608253,21898,17123,16767913,40603,153919,28974,16772378,Tag0,unknown
1610799403885,200,-659,-1.4479980468750002E-4,0,0,0,608253,21898,17123,16767913,40603,153919,28974,16772378,Tag0,unknown
1610799403899,200,-1590,-3.49365234375E-4,0,0,0,608253,21898,17123,16767913,40603,153919,28974,16772378,Tag0,unknown
1610799403922,200,-2048,-4.5E-4,0,0,0,608253,21898,17123,16767913,40603,153919,28974,16772378,Tag0,unknown
1610799403935,200,-2048,-4.5E-4,0,0,0,608253,21898,17123,16767913,40603,153919,28974,16772378,Tag0,unknown
1610799403945,200,-2055,-4.515380859375E-4,0,0,0,608253,21898,17123,16767913,40603,153919,28974,16772378,Tag0,unknown
1610799403955,200,-733,-1.6105957031250002E-4,0,0,0,608253,21898,17123,16767913,40603,153919,28974,16772378,Tag0,unknown
1610799403969,200,-741,-1.6281738281249998E-4,0,0,0,608253,21898,17123,16767913,40603,153919,28974,16772378,Tag0,unknown
1610799403991,200,-1309,-2.8762207031250004E-4,0,0,0,608253,21898,17123,16767913,40603,153919,28974,16772378,Tag0,unknown
1610799404001,200,-1080,-2.373046875E-4,0,0,0,608253,21898,17123,16767913,40603,153919,28974,16772378,Tag0,unknown
1610799404027,200,1791,3.935302734375E-4,0,0,0,608253,21898,17123,16767913,40603,153919,28974,16772378,Tag0,unknown
1610799404062,200,1791,3.935302734375E-4,0,0,0,608253,21898,17123,16767913,40603,153919,28974,16772378,Tag0,unknown
1610799404072,200,1791,3.935302734375E-4,0,0,0,608253,21898,17123,16767913,40603,153919,28974,16772378,Tag0,unknown
1610799404085,200,1437,3.157470703125E-4,0,0,0,608253,21898,17123,16767913,40603,153919,28974,16772378,Tag0,unknown
1610799404095,200,1147,2.520263671875E-4,0,0,0,608253,21898,17123,16767913,40603,153919,28974,16772378,Tag0,unknown
1610799404119,200,739,1.623779296875E-4,0,0,0,608253,21898,17123,16767913,40603,153919,28974,16772378,Tag0,unknown
1610799404129,200,407,8.94287109375E-5,0,0,0,608253,21898,17123,16767913,40603,153919,28974,16772378,Tag0,unknown
1610799404139,200,199,4.3725585937499995E-5,0,0,0,608253,21898,17123,16767913,40603,153919,28974,16772378,Tag0,unknown
1610799404151,200,-15,-3.2958984375E-6,0,0,0,608253,21898,17123,16767913,40603,153919,28974,16772378,Tag0,unknown
1610799404173,200,371,8.151855468750001E-5,0,0,0,608253,21898,17123,16767913,40603,153919,28974,16772378,Tag0,unknown
1610799404183,200,346,7.6025390625E-5,0,0,0,608253,21898,17123,16767913,40603,153919,28974,16772378,Tag0,unknown
1610799404209,200,260,5.712890625E-5,0,0,0,608253,21898,17123,16767913,40603,153919,28974,16772378,Tag0,unknown
1610799404221,200,-4,-8.7890625E-7,0,0,0,608253,21898,17123,16767913,40603,153919,28974,16772378,Tag0,unknown
1610799404235,200,-2048,-4.5E-4,0,0,0,608253,21898,17123,16767913,40603,153919,28974,16772378,Tag0,unknown
1610799404245,200,-2048,-4.5E-4,0,0,0,608253,21898,17123,16767913,40603,153919,28974,16772378,Tag0,unknown
1610799404255,200,-1982,-4.35498046875E-4,0,0,0,608253,21898,17123,16767913,40603,153919,28974,16772378,Tag0,unknown
1610799404268,200,-2165,-4.757080078125E-4,0,0,0,608253,21898,17123,16767913,40603,153919,28974,16772378,Tag0,unknown
1610799404285,200,25,5.4931640625E-6,0,0,0,608253,21898,17123,16767913,40603,153919,28974,16772378,Tag0,unknown
1610799404301,200,25,5.4931640625E-6,0,0,0,608253,21898,17123,16767913,40603,153919,28974,16772378,Tag0,unknown
1610799404323,200,-2048,-4.5E-4,0,0,0,608253,21898,17123,16767913,40603,153919,28974,16772378,Tag0,unknown
1610799404334,200,-2048,-4.5E-4,0,0,0,608253,21898,17123,16767913,40603,153919,28974,16772378,Tag0,unknown
1610799404357,200,-1729,-3.799072265625E-4,0,0,0,608253,21898,17123,16767913,40603,153919,28974,16772378,Tag0,unknown
1610799404368,200,-1665,-3.658447265625E-4,0,0,0,608253,21898,17123,16767913,40603,153919,28974,16772378,Tag0,unknown
1610799404378,200,-923,-2.028076171875E-4,0,0,0,608253,21898,17123,16767913,40603,153919,28974,16772378,Tag0,unknown
1610799404393,200,-642,-1.4106445312500002E-4,0,0,0,608253,21898,17123,16767913,40603,153919,28974,16772378,Tag0,unknown
1610799404403,200,-439,-9.64599609375E-5,0,0,0,608253,21898,17123,16767913,40603,153919,28974,16772378,Tag0,unknown
1610799404417,200,-403,-8.854980468749999E-5,0,0,0,608253,21898,17123,16767913,40603,153919,28974,16772378,Tag0,unknown
1610799404433,200,-626,-1.37548828125E-4,0,0,0,608253,21898,17123,16767913,40603,153919,28974,16772378,Tag0,unknown
1610799404450,200,-591,-1.2985839843749998E-4,0,0,0,608253,21898,17123,16767913,40603,153919,28974,16772378,Tag0,unknown
1610799404460,200,-139,-3.0541992187500004E-5,0,0,0,608253,21898,17123,16767913,40603,153919,28974,16772378,Tag0,unknown
1610799404473,200,-360,-7.91015625E-5,0,0,0,608253,21898,17123,16767913,40603,153919,28974,16772378,Tag0,unknown
1610799404484,200,-354,-7.778320312500001E-5,0,0,0,608253,21898,17123,16767913,40603,153919,28974,16772378,Tag0,unknown
1610799404513,51,-269,-5.9106445312499996E-5,0,0,0,751040,83341,16767005,16754687,14172,77050,16760859,16750948,Tag0,unknown
1610799404523,51,3,6.591796875E-7,0,0,0,751040,83341,16767005,16754687,14172,77050,16760859,16750948,Tag0,unknown
1610799404534,51,12,2.63671875E-6,0,0,0,751040,83341,16767005,16754687,14172,77050,16760859,16750948,Tag0,unknown
1610799404556,51,34,7.4707031250000005E-6,0,0,0,751040,83341,16767005,16754687,14172,77050,16760859,16750948,Tag0,unknown
1610799404567,51,36,7.91015625E-6,0,0,0,751040,83341,16767005,16754687,14172,77050,16760859,16750948,Tag0,unknown
1610799404590,51,45,9.8876953125E-6,0,0,0,751040,83341,16767005,16754687,14172,77050,16760859,16750948,Tag0,unknown
1610799404600,51,45,9.8876953125E-6,0,0,0,751040,83341,16767005,16754687,14172,77050,16760859,16750948,Tag0,unknown
1610799404618,51,57,1.2524414062500001E-5,0,0,0,751040,83341,16767005,16754687,14172,77050,16760859,16750948,Tag0,unknown
1610799404635,51,57,1.2524414062500001E-5,0,0,0,751040,83341,16767005,16754687,14172,77050,16760859,16750948,Tag0,unknown
1610799404662,51,59,1.29638671875E-5,0,0,0,751040,83341,16767005,16754687,14172,77050,16760859,16750948,Tag0,unknown
1610799404672,51,60,1.318359375E-5,0,0,0,751040,83341,16767005,16754687,14172,77050,16760859,16750948,Tag0,unknown
1610799404685,51,61,1.34033203125E-5,0,0,0,751040,83341,16767005,16754687,14172,77050,16760859,16750948,Tag0,unknown
1610799404703,51,65,1.42822265625E-5,0,0,0,751040,83341,16767005,16754687,14172,77050,16760859,16750948,Tag0,unknown
1610799404719,51,65,1.42822265625E-5,0,0,0,751040,83341,16767005,16754687,14172,77050,16760859,16750948,Tag0,unknown
1610799404736,51,66,1.4501953125E-5,0,0,0,751040,83341,16767005,16754687,14172,77050,16760859,16750948,Tag0,unknown
1610799404753,51,66,1.4501953125E-5,0,0,0,751040,83341,16767005,16754687,14172,77050,16760859,16750948,Tag0,unknown
1610799404763,51,66,1.4501953125E-5,0,0,0,751040,83341,16767005,16754687,14172,77050,16760859,16750948,Tag0,unknown
1610799404773,51,65,1.42822265625E-5,0,0,0,751040,83341,16767005,16754687,14172,77050,16760859,16750948,Tag0,unknown
1610799404786,51,66,1.4501953125E-5,0,0,0,751040,83341,16767005,16754687,14172,77050,16760859,16750948,Tag0,unknown
1610799404807,51,66,1.4501953125E-5,0,0,0,751040,83341,16767005,16754687,14172,77050,16760859,16750948,Tag0,unknown
1610799404820,51,66,1.4501953125E-5,0,0,0,751040,83341,16767005,16754687,14172,77050,16760859,16750948,Tag0,unknown
1610799404830,51,67,1.4721679687500002E-5,0,0,0,751040,83341,16767005,16754687,14172,77050,16760859,16750948,Tag0,unknown
1610799404845,51,67,1.4721679687500002E-5,0,0,0,751040,83341,16767005,16754687,14172,77050,16760859,16750948,Tag0,unknown
1610799404855,51,66,1.4501953125E-5,0,0,0,751040,83341,16767005,16754687,14172,77050,16760859,16750948,Tag0,unknown
1610799404879,51,67,1.4721679687500002E-5,0,0,0,751040,83341,16767005,16754687,14172,77050,16760859,16750948,Tag0,unknown
1610799404889,51,67,1.4721679687500002E-5,0,0,0,751040,83341,16767005,16754687,14172,77050,16760859,16750948,Tag0,unknown
1610799404903,51,67,1.4721679687500002E-5,0,0,0,751040,83341,16767005,16754687,14172,77050,16760859,16750948,Tag0,unknown
1610799404925,51,65,1.42822265625E-5,0,0,0,751040,83341,16767005,16754687,14172,77050,16760859,16750948,Tag0,unknown
1610799404937,51,67,1.4721679687500002E-5,0,0,0,751040,83341,16767005,16754687,14172,77050,16760859,16750948,Tag0,unknown
1610799404947,51,67,1.4721679687500002E-5,0,0,0,751040,83341,16767005,16754687,14172,77050,16760859,16750948,Tag0,unknown
1610799404957,51,67,1.4721679687500002E-5,0,0,0,751040,83341,16767005,16754687,14172,77050,16760859,16750948,Tag0,unknown
1610799404967,51,66,1.4501953125E-5,0,0,0,751040,83341,16767005,16754687,14172,77050,16760859,16750948,Tag0,unknown
1610799404992,51,66,1.4501953125E-5,0,0,0,751040,83341,16767005,16754687,14172,77050,16760859,16750948,Tag0,unknown
1610799405002,51,67,1.4721679687500002E-5,0,0,0,751040,83341,16767005,16754687,14172,77050,16760859,16750948,Tag0,unknown
1610799405026,51,66,1.4501953125E-5,0,0,0,751040,83341,16767005,16754687,14172,77050,16760859,16750948,Tag0,unknown
1610799405037,51,67,1.4721679687500002E-5,0,0,0,751040,83341,16767005,16754687,14172,77050,16760859,16750948,Tag0,unknown
1610799405047,51,67,1.4721679687500002E-5,0,0,0,751040,83341,16767005,16754687,14172,77050,16760859,16750948,Tag0,unknown
1610799405057,51,66,1.4501953125E-5,0,0,0,751040,83341,16767005,16754687,14172,77050,16760859,16750948,Tag0,unknown
1610799405070,51,67,1.4721679687500002E-5,0,0,0,751040,83341,16767005,16754687,14172,77050,16760859,16750948,Tag0,unknown
1610799405086,51,66,1.4501953125E-5,0,0,0,751040,83341,16767005,16754687,14172,77050,16760859,16750948,Tag0,unknown
1610799405104,51,67,1.4721679687500002E-5,0,0,0,751040,83341,16767005,16754687,14172,77050,16760859,16750948,Tag0,unknown
1610799405120,51,67,1.4721679687500002E-5,0,0,0,751040,83341,16767005,16754687,14172,77050,16760859,16750948,Tag0,unknown
1610799405143,51,66,1.4501953125E-5,0,0,0,751040,83341,16767005,16754687,14172,77050,16760859,16750948,Tag0,unknown
1610799405153,51,68,1.4941406250000001E-5,0,0,0,751040,83341,16767005,16754687,14172,77050,16760859,16750948,Tag0,unknown
1610799405176,51,67,1.4721679687500002E-5,0,0,0,751040,83341,16767005,16754687,14172,77050,16760859,16750948,Tag0,unknown
1610799405187,51,67,1.4721679687500002E-5,0,0,0,751040,83341,16767005,16754687,14172,77050,16760859,16750948,Tag0,unknown
1610799405197,51,66,1.4501953125E-5,0,0,0,751040,83341,16767005,16754687,14172,77050,16760859,16750948,Tag0,unknown
1610799405207,51,66,1.4501953125E-5,0,0,0,751040,83341,16767005,16754687,14172,77050,16760859,16750948,Tag0,unknown
1610799405219,51,66,1.4501953125E-5,0,0,0,751040,83341,16767005,16754687,14172,77050,16760859,16750948,Tag0,unknown
1610799405246,51,67,1.4721679687500002E-5,0,0,0,751040,83341,16767005,16754687,14172,77050,16760859,16750948,Tag0,unknown
1610799405268,51,67,1.4721679687500002E-5,0,0,0,751040,83341,16767005,16754687,14172,77050,16760859,16750948,Tag0,unknown
1610799405322,51,66,1.4501953125E-5,0,0,0,751040,83341,16767005,16754687,14172,77050,16760859,16750948,Tag0,unknown
1610799405343,51,66,1.4501953125E-5,0,0,0,751040,83341,16767005,16754687,14172,77050,16760859,16750948,Tag0,unknown
1610799405384,51,66,1.4501953125E-5,0,0,0,751040,83341,16767005,16754687,14172,77050,16760859,16750948,Tag0,unknown
1610799405404,51,67,1.4721679687500002E-5,0,0,0,751040,83341,16767005,16754687,14172,77050,16760859,16750948,Tag0,unknown
1610799405452,51,66,1.4501953125E-5,0,0,0,751040,83341,16767005,16754687,14172,77050,16760859,16750948,Tag0,unknown
1610799405473,51,68,1.4941406250000001E-5,0,0,0,751040,83341,16767005,16754687,14172,77050,16760859,16750948,Tag0,unknown
1610799405484,51,68,1.4941406250000001E-5,0,0,0,751040,83341,16767005,16754687,14172,77050,16760859,16750948,Tag0,unknown
1610799405519,51,67,1.4721679687500002E-5,0,0,0,751040,83341,16767005,16754687,14172,77050,16760859,16750948,Tag0,unknown
1610799405537,51,68,1.4941406250000001E-5,0,0,0,751040,83341,16767005,16754687,14172,77050,16760859,16750948,Tag0,unknown
1610799405588,51,66,1.4501953125E-5,0,0,0,751040,83341,16767005,16754687,14172,77050,16760859,16750948,Tag0,unknown
1610799405608,51,66,1.4501953125E-5,0,0,0,751040,83341,16767005,16754687,14172,77050,16760859,16750948,Tag0,unknown
1610799405618,51,67,1.4721679687500002E-5,0,0,0,751040,83341,16767005,16754687,14172,77050,16760859,16750948,Tag0,unknown
1610799405654,51,66,1.4501953125E-5,0,0,0,751040,83341,16767005,16754687,14172,77050,16760859,16750948,Tag0,unknown
1610799405671,51,67,1.4721679687500002E-5,0,0,0,751040,83341,16767005,16754687,14172,77050,16760859,16750948,Tag0,unknown
1610799405722,51,66,1.4501953125E-5,0,0,0,751040,83341,16767005,16754687,14172,77050,16760859,16750948,Tag0,unknown
1610799405737,51,67,1.4721679687500002E-5,0,0,0,751040,83341,16767005,16754687,14172,77050,16760859,16750948,Tag0,unknown
1610799405747,51,67,1.4721679687500002E-5,0,0,0,751040,83341,16767005,16754687,14172,77050,16760859,16750948,Tag0,unknown
1610799405823,51,66,1.4501953125E-5,0,0,0,751040,83341,16767005,16754687,14172,77050,16760859,16750948,Tag0,unknown
1610799405848,51,66,1.4501953125E-5,0,0,0,751040,83341,16767005,16754687,14172,77050,16760859,16750948,Tag0,unknown
1610799405858,51,66,1.4501953125E-5,0,0,0,751040,83341,16767005,16754687,14172,77050,16760859,16750948,Tag0,unknown
1610799405868,51,66,1.4501953125E-5,0,0,0,751040,83341,16767005,16754687,14172,77050,16760859,16750948,Tag0,unknown
1610799405878,51,68,1.4941406250000001E-5,0,0,0,751040,83341,16767005,16754687,14172,77050,16760859,16750948,Tag0,unknown
1610799405888,51,66,1.4501953125E-5,0,0,0,751040,83341,16767005,16754687,14172,77050,16760859,16750948,Tag0,unknown
1610799405898,51,66,1.4501953125E-5,0,0,0,751040,83341,16767005,16754687,14172,77050,16760859,16750948,Tag0,unknown
1610799405908,51,68,1.4941406250000001E-5,0,0,0,751040,83341,16767005,16754687,14172,77050,16760859,16750948,Tag0,unknown
1610799405919,51,67,1.4721679687500002E-5,0,0,0,751040,83341,16767005,16754687,14172,77050,16760859,16750948,Tag0,unknown
1610799405940,51,67,1.4721679687500002E-5,0,0,0,751040,83341,16767005,16754687,14172,77050,16760859,16750948,Tag0,unknown
1610799405951,51,67,1.4721679687500002E-5,0,0,0,751040,83341,16767005,16754687,14172,77050,16760859,16750948,Tag0,unknown
1610799405968,51,67,1.4721679687500002E-5,0,0,0,751040,83341,16767005,16754687,14172,77050,16760859,16750948,Tag0,unknown
1610799405991,51,67,1.4721679687500002E-5,0,0,0,751040,83341,16767005,16754687,14172,77050,16760859,16750948,Tag0,unknown
1610799406005,51,66,1.4501953125E-5,0,0,0,751040,83341,16767005,16754687,14172,77050,16760859,16750948,Tag0,unknown
1610799406015,51,67,1.4721679687500002E-5,0,0,0,751040,83341,16767005,16754687,14172,77050,16760859,16750948,Tag0,unknown
1610799406037,51,66,1.4501953125E-5,0,0,0,751040,83341,16767005,16754687,14172,77050,16760859,16750948,Tag0,unknown
1610799406060,51,67,1.4721679687500002E-5,0,0,0,751040,83341,16767005,16754687,14172,77050,16760859,16750948,Tag0,unknown
1610799406072,51,68,1.4941406250000001E-5,0,0,0,751040,83341,16767005,16754687,14172,77050,16760859,16750948,Tag0,unknown
1610799406094,51,66,1.4501953125E-5,0,0,0,751040,83341,16767005,16754687,14172,77050,16760859,16750948,Tag0,unknown
1610799406105,51,66,1.4501953125E-5,0,0,0,751040,83341,16767005,16754687,14172,77050,16760859,16750948,Tag0,unknown
1610799406115,51,68,1.4941406250000001E-5,0,0,0,751040,83341,16767005,16754687,14172,77050,16760859,16750948,Tag0,unknown
1610799406125,51,66,1.4501953125E-5,0,0,0,751040,83341,16767005,16754687,14172,77050,16760859,16750948,Tag0,unknown
1610799406138,51,66,1.4501953125E-5,0,0,0,751040,83341,16767005,16754687,14172,77050,16760859,16750948,Tag0,unknown
1610799406155,51,67,1.4721679687500002E-5,0,0,0,751040,83341,16767005,16754687,14172,77050,16760859,16750948,Tag0,unknown
1610799406173,51,66,1.4501953125E-5,0,0,0,751040,83341,16767005,16754687,14172,77050,16760859,16750948,Tag0,unknown
1610799406189,51,66,1.4501953125E-5,0,0,0,751040,83341,16767005,16754687,14172,77050,16760859,16750948,Tag0,unknown
1610799406199,51,66,1.4501953125E-5,0,0,0,751040,83341,16767005,16754687,14172,77050,16760859,16750948,Tag0,unknown
1610799406212,51,66,1.4501953125E-5,0,0,0,751040,83341,16767005,16754687,14172,77050,16760859,16750948,Tag0,unknown
1610799406227,51,67,1.4721679687500002E-5,0,0,0,751040,83341,16767005,16754687,14172,77050,16760859,16750948,Tag0,unknown
1610799406239,51,67,1.4721679687500002E-5,0,0,0,751040,83341,16767005,16754687,14172,77050,16760859,16750948,Tag0,unknown
1610799406253,51,67,1.4721679687500002E-5,0,0,0,751040,83341,16767005,16754687,14172,77050,16760859,16750948,Tag0,unknown
1610799406281,51,66,1.4501953125E-5,0,0,0,751040,83341,16767005,16754687,14172,77050,16760859,16750948,Tag0,unknown
1610799406291,51,66,1.4501953125E-5,0,0,0,751040,83341,16767005,16754687,14172,77050,16760859,16750948,Tag0,unknown
1610799406315,51,66,1.4501953125E-5,0,0,0,751040,83341,16767005,16754687,14172,77050,16760859,16750948,Tag0,unknown
1610799406327,51,66,1.4501953125E-5,0,0,0,751040,83341,16767005,16754687,14172,77050,16760859,16750948,Tag0,unknown
1610799406337,51,66,1.4501953125E-5,0,0,0,751040,83341,16767005,16754687,14172,77050,16760859,16750948,Tag0,unknown
1610799406347,51,67,1.4721679687500002E-5,0,0,0,751040,83341,16767005,16754687,14172,77050,16760859,16750948,Tag0,unknown
1610799406370,51,67,1.4721679687500002E-5,0,0,0,751040,83341,16767005,16754687,14172,77050,16760859,16750948,Tag0,unknown
1610799406386,51,67,1.4721679687500002E-5,0,0,0,751040,83341,16767005,16754687,14172,77050,16760859,16750948,Tag0,unknown
1610799406404,51,66,1.4501953125E-5,0,0,0,751040,83341,16767005,16754687,14172,77050,16760859,16750948,Tag0,unknown
1610799406414,51,67,1.4721679687500002E-5,0,0,0,751040,83341,16767005,16754687,14172,77050,16760859,16750948,Tag0,unknown
1610799406425,51,66,1.4501953125E-5,0,0,0,751040,83341,16767005,16754687,14172,77050,16760859,16750948,Tag0,unknown
1610799406439,51,66,1.4501953125E-5,0,0,0,751040,83341,16767005,16754687,14172,77050,16760859,16750948,Tag0,unknown
1610799406462,51,67,1.4721679687500002E-5,0,0,0,751040,83341,16767005,16754687,14172,77050,16760859,16750948,Tag0,unknown
1610799406473,51,67,1.4721679687500002E-5,0,0,0,751040,83341,16767005,16754687,14172,77050,16760859,16750948,Tag0,unknown
1610799406483,51,68,1.4941406250000001E-5,0,0,0,751040,83341,16767005,16754687,14172,77050,16760859,16750948,Tag0,unknown
1610799406493,51,67,1.4721679687500002E-5,0,0,0,751040,83341,16767005,16754687,14172,77050,16760859,16750948,Tag0,unknown
1610799406508,54,67,1.4721679687500002E-5,0,0,0,0,0,0,0,0,0,0,0,Tag0,unknown
1610799406525,54,67,1.4721679687500002E-5,0,0,0,0,0,0,0,0,0,0,0,Tag0,unknown
1610799406535,54,67,1.4721679687500002E-5,0,0,0,0,0,0,0,0,0,0,0,Tag0,unknown
1610799406554,54,66,1.4501953125E-5,0,0,0,0,0,0,0,0,0,0,0,Tag0,unknown
1610799406575,54,66,1.4501953125E-5,0,0,0,0,0,0,0,0,0,0,0,Tag0,unknown
1610799406588,54,67,1.4721679687500002E-5,0,0,0,0,0,0,0,0,0,0,0,Tag0,unknown
1610799406604,54,66,1.4501953125E-5,0,0,0,0,0,0,0,0,0,0,0,Tag0,unknown
1610799406621,54,66,1.4501953125E-5,0,0,0,0,0,0,0,0,0,0,0,Tag0,unknown
1610799406645,54,67,1.4721679687500002E-5,0,0,0,0,0,0,0,0,0,0,0,Tag0,unknown
1610799406656,54,66,1.4501953125E-5,0,0,0,0,0,0,0,0,0,0,0,Tag0,unknown
1610799406666,54,66,1.4501953125E-5,0,0,0,0,0,0,0,0,0,0,0,Tag0,unknown
1610799406676,54,67,1.4721679687500002E-5,0,0,0,0,0,0,0,0,0,0,0,Tag0,unknown
1610799406690,54,67,1.4721679687500002E-5,0,0,0,0,0,0,0,0,0,0,0,Tag0,unknown
1610799406706,54,66,1.4501953125E-5,0,0,0,0,0,0,0,0,0,0,0,Tag0,unknown
1610799406733,54,67,1.4721679687500002E-5,0,0,0,0,0,0,0,0,0,0,0,Tag0,unknown
1610799406743,54,66,1.4501953125E-5,0,0,0,0,0,0,0,0,0,0,0,Tag0,unknown
1610799406758,54,68,1.4941406250000001E-5,0,0,0,0,0,0,0,0,0,0,0,Tag0,unknown
1610799406768,54,67,1.4721679687500002E-5,0,0,0,0,0,0,0,0,0,0,0,Tag0,unknown
1610799406778,54,67,1.4721679687500002E-5,0,0,0,0,0,0,0,0,0,0,0,Tag0,unknown
1610799406788,54,67,1.4721679687500002E-5,0,0,0,0,0,0,0,0,0,0,0,Tag0,unknown
1610799406804,54,67,1.4721679687500002E-5,0,0,0,0,0,0,0,0,0,0,0,Tag0,unknown
1610799406821,54,67,1.4721679687500002E-5,0,0,0,0,0,0,0,0,0,0,0,Tag0,unknown
1610799406842,54,67,1.4721679687500002E-5,0,0,0,0,0,0,0,0,0,0,0,Tag0,unknown
1610799406855,54,68,1.4941406250000001E-5,0,0,0,0,0,0,0,0,0,0,0,Tag0,unknown
1610799406866,54,67,1.4721679687500002E-5,0,0,0,0,0,0,0,0,0,0,0,Tag0,unknown
1610799406878,54,68,1.4941406250000001E-5,0,0,0,0,0,0,0,0,0,0,0,Tag0,unknown
1610799406890,54,67,1.4721679687500002E-5,0,0,0,0,0,0,0,0,0,0,0,Tag0,unknown
1610799406915,54,67,1.4721679687500002E-5,0,0,0,0,0,0,0,0,0,0,0,Tag0,unknown
1610799406925,54,67,1.4721679687500002E-5,0,0,0,0,0,0,0,0,0,0,0,Tag0,unknown
1610799406938,54,67,1.4721679687500002E-5,0,0,0,0,0,0,0,0,0,0,0,Tag0,unknown
1610799406955,54,68,1.4941406250000001E-5,0,0,0,0,0,0,0,0,0,0,0,Tag0,unknown
1610799406973,54,66,1.4501953125E-5,0,0,0,0,0,0,0,0,0,0,0,Tag0,unknown
1610799406994,54,66,1.4501953125E-5,0,0,0,0,0,0,0,0,0,0,0,Tag0,unknown
1610799407010,54,67,1.4721679687500002E-5,0,0,0,0,0,0,0,0,0,0,0,Tag0,unknown
1610799407024,54,66,1.4501953125E-5,0,0,0,0,0,0,0,0,0,0,0,Tag0,unknown
1610799407034,54,68,1.4941406250000001E-5,0,0,0,0,0,0,0,0,0,0,0,Tag0,unknown
1610799407044,54,67,1.4721679687500002E-5,0,0,0,0,0,0,0,0,0,0,0,Tag0,unknown
1610799407063,54,66,1.4501953125E-5,0,0,0,0,0,0,0,0,0,0,0,Tag0,unknown
1610799407075,54,67,1.4721679687500002E-5,0,0,0,0,0,0,0,0,0,0,0,Tag0,unknown
1610799407085,54,66,1.4501953125E-5,0,0,0,0,0,0,0,0,0,0,0,Tag0,unknown
1610799407097,54,68,1.4941406250000001E-5,0,0,0,0,0,0,0,0,0,0,0,Tag0,unknown
1610799407108,54,67,1.4721679687500002E-5,0,0,0,0,0,0,0,0,0,0,0,Tag0,unknown
1610799407131,54,67,1.4721679687500002E-5,0,0,0,0,0,0,0,0,0,0,0,Tag0,unknown
1610799407141,54,66,1.4501953125E-5,0,0,0,0,0,0,0,0,0,0,0,Tag0,unknown
1610799407151,54,67,1.4721679687500002E-5,0,0,0,0,0,0,0,0,0,0,0,Tag0,unknown
1610799407161,54,67,1.4721679687500002E-5,0,0,0,0,0,0,0,0,0,0,0,Tag0,unknown
1610799407175,54,67,1.4721679687500002E-5,0,0,0,0,0,0,0,0,0,0,0,Tag0,unknown
1610799407192,54,67,1.4721679687500002E-5,0,0,0,0,0,0,0,0,0,0,0,Tag0,unknown
1610799407210,54,67,1.4721679687500002E-5,0,0,0,0,0,0,0,0,0,0,0,Tag0,unknown
1610799407225,54,66,1.4501953125E-5,0,0,0,0,0,0,0,0,0,0,0,Tag0,unknown
1610799407245,54,67,1.4721679687500002E-5,0,0,0,0,0,0,0,0,0,0,0,Tag0,unknown
1610799407255,54,68,1.4941406250000001E-5,0,0,0,0,0,0,0,0,0,0,0,Tag0,unknown
1610799407279,54,67,1.4721679687500002E-5,0,0,0,0,0,0,0,0,0,0,0,Tag0,unknown
1610799407289,54,66,1.4501953125E-5,0,0,0,0,0,0,0,0,0,0,0,Tag0,unknown
1610799407328,54,66,1.4501953125E-5,0,0,0,0,0,0,0,0,0,0,0,Tag0,unknown
1610799407341,54,66,1.4501953125E-5,0,0,0,0,0,0,0,0,0,0,0,Tag0,unknown
1610799407351,54,67,1.4721679687500002E-5,0,0,0,0,0,0,0,0,0,0,0,Tag0,unknown
1610799407365,54,67,1.4721679687500002E-5,0,0,0,0,0,0,0,0,0,0,0,Tag0,unknown
1610799407375,54,66,1.4501953125E-5,0,0,0,0,0,0,0,0,0,0,0,Tag0,unknown
1610799407399,54,66,1.4501953125E-5,0,0,0,0,0,0,0,0,0,0,0,Tag0,unknown
1610799407409,54,66,1.4501953125E-5,0,0,0,0,0,0,0,0,0,0,0,Tag0,unknown
1610799407424,54,66,1.4501953125E-5,0,0,0,0,0,0,0,0,0,0,0,Tag0,unknown
1610799407439,54,67,1.4721679687500002E-5,0,0,0,0,0,0,0,0,0,0,0,Tag0,unknown
1610799407456,54,67,1.4721679687500002E-5,0,0,0,0,0,0,0,0,0,0,0,Tag0,unknown
1610799407473,54,67,1.4721679687500002E-5,0,0,0,0,0,0,0,0,0,0,0,Tag0,unknown
1610799407491,54,67,1.4721679687500002E-5,0,0,0,0,0,0,0,0,0,0,0,Tag0,unknown
1610799407501,54,67,1.4721679687500002E-5,0,0,0,0,0,0,0,0,0,0,0,Tag0,unknown
1610799407518,54,67,1.4721679687500002E-5,0,0,0,0,0,0,0,0,0,0,0,Tag0,unknown
1610799407528,54,67,1.4721679687500002E-5,0,0,0,0,0,0,0,0,0,0,0,Tag0,unknown
1610799407538,54,66,1.4501953125E-5,0,0,0,0,0,0,0,0,0,0,0,Tag0,unknown
1610799407555,54,66,1.4501953125E-5,0,0,0,0,0,0,0,0,0,0,0,Tag0,unknown
1610799407574,54,67,1.4721679687500002E-5,0,0,0,0,0,0,0,0,0,0,0,Tag0,unknown
1610799407595,54,66,1.4501953125E-5,0,0,0,0,0,0,0,0,0,0,0,Tag0,unknown
1610799407610,54,68,1.4941406250000001E-5,0,0,0,0,0,0,0,0,0,0,0,Tag0,unknown
1610799407620,54,67,1.4721679687500002E-5,0,0,0,0,0,0,0,0,0,0,0,Tag0,unknown
1610799407639,54,67,1.4721679687500002E-5,0,0,0,0,0,0,0,0,0,0,0,Tag0,unknown
1610799407659,54,67,1.4721679687500002E-5,0,0,0,0,0,0,0,0,0,0,0,Tag0,unknown
1610799407673,54,66,1.4501953125E-5,0,0,0,0,0,0,0,0,0,0,0,Tag0,unknown
1610799407696,54,68,1.4941406250000001E-5,0,0,0,0,0,0,0,0,0,0,0,Tag0,unknown
1610799407707,54,66,1.4501953125E-5,0,0,0,0,0,0,0,0,0,0,0,Tag0,unknown
1610799407731,54,67,1.4721679687500002E-5,0,0,0,0,0,0,0,0,0,0,0,Tag0,unknown
1610799407742,54,67,1.4721679687500002E-5,0,0,0,0,0,0,0,0,0,0,0,Tag0,unknown
1610799407757,54,67,1.4721679687500002E-5,0,0,0,0,0,0,0,0,0,0,0,Tag0,unknown
1610799407774,54,66,1.4501953125E-5,0,0,0,0,0,0,0,0,0,0,0,Tag0,unknown
1610799407802,54,67,1.4721679687500002E-5,0,0,0,0,0,0,0,0,0,0,0,Tag0,unknown
1610799407824,54,67,1.4721679687500002E-5,0,0,0,0,0,0,0,0,0,0,0,Tag0,unknown
1610799407843,54,68,1.4941406250000001E-5,0,0,0,0,0,0,0,0,0,0,0,Tag0,unknown
1610799407857,54,67,1.4721679687500002E-5,0,0,0,0,0,0,0,0,0,0,0,Tag0,unknown
1610799407877,54,67,1.4721679687500002E-5,0,0,0,0,0,0,0,0,0,0,0,Tag0,unknown
1610799407892,54,66,1.4501953125E-5,0,0,0,0,0,0,0,0,0,0,0,Tag0,unknown
1610799407902,54,66,1.4501953125E-5,0,0,0,0,0,0,0,0,0,0,0,Tag0,unknown
1610799407914,54,67,1.4721679687500002E-5,0,0,0,0,0,0,0,0,0,0,0,Tag0,unknown
1610799407925,54,66,1.4501953125E-5,0,0,0,0,0,0,0,0,0,0,0,Tag0,unknown
1610799407948,54,66,1.4501953125E-5,0,0,0,0,0,0,0,0,0,0,0,Tag0,unknown
1610799407958,54,67,1.4721679687500002E-5,0,0,0,0,0,0,0,0,0,0,0,Tag0,unknown
1610799407975,54,66,1.4501953125E-5,0,0,0,0,0,0,0,0,0,0,0,Tag0,unknown
1610799408012,54,66,1.4501953125E-5,0,0,0,0,0,0,0,0,0,0,0,Tag0,unknown
1610799408024,54,67,1.4721679687500002E-5,0,0,0,0,0,0,0,0,0,0,0,Tag0,unknown
1610799408050,54,67,1.4721679687500002E-5,0,0,0,0,0,0,0,0,0,0,0,Tag0,unknown
1610799408064,54,67,1.4721679687500002E-5,0,0,0,0,0,0,0,0,0,0,0,Tag0,unknown
1610799408074,54,67,1.4721679687500002E-5,0,0,0,0,0,0,0,0,0,0,0,Tag0,unknown
1610799408084,54,65,1.42822265625E-5,0,0,0,0,0,0,0,0,0,0,0,Tag0,unknown
1610799408097,54,67,1.4721679687500002E-5,0,0,0,0,0,0,0,0,0,0,0,Tag0,unknown
1610799408107,54,66,1.4501953125E-5,0,0,0,0,0,0,0,0,0,0,0,Tag0,unknown
1610799408123,54,68,1.4941406250000001E-5,0,0,0,0,0,0,0,0,0,0,0,Tag0,unknown
1610799408142,54,66,1.4501953125E-5,0,0,0,0,0,0,0,0,0,0,0,Tag0,unknown
1610799408152,54,67,1.4721679687500002E-5,0,0,0,0,0,0,0,0,0,0,0,Tag0,unknown
1610799408175,54,67,1.4721679687500002E-5,0,0,0,0,0,0,0,0,0,0,0,Tag0,unknown
1610799408194,54,67,1.4721679687500002E-5,0,0,0,0,0,0,0,0,0,0,0,Tag0,unknown
1610799408209,54,68,1.4941406250000001E-5,0,0,0,0,0,0,0,0,0,0,0,Tag0,unknown
1610799408219,54,66,1.4501953125E-5,0,0,0,0,0,0,0,0,0,0,0,Tag0,unknown
1610799408234,54,67,1.4721679687500002E-5,0,0,0,0,0,0,0,0,0,0,0,Tag0,unknown
1610799408244,54,66,1.4501953125E-5,0,0,0,0,0,0,0,0,0,0,0,Tag0,unknown
1610799408268,54,67,1.4721679687500002E-5,0,0,0,0,0,0,0,0,0,0,0,Tag0,unknown
1610799408278,54,66,1.4501953125E-5,0,0,0,0,0,0,0,0,0,0,0,Tag0,unknown
1610799408288,54,67,1.4721679687500002E-5,0,0,0,0,0,0,0,0,0,0,0,Tag0,unknown
1610799408298,54,68,1.4941406250000001E-5,0,0,0,0,0,0,0,0,0,0,0,Tag0,unknown
1610799408310,54,67,1.4721679687500002E-5,0,0,0,0,0,0,0,0,0,0,0,Tag0,unknown
1610799408327,54,67,1.4721679687500002E-5,0,0,0,0,0,0,0,0,0,0,0,Tag0,unknown
1610799408341,54,67,1.4721679687500002E-5,0,0,0,0,0,0,0,0,0,0,0,Tag0,unknown
1610799408358,54,66,1.4501953125E-5,0,0,0,0,0,0,0,0,0,0,0,Tag0,unknown
1610799408378,54,67,1.4721679687500002E-5,0,0,0,0,0,0,0,0,0,0,0,Tag0,unknown
1610799408391,54,66,1.4501953125E-5,0,0,0,0,0,0,0,0,0,0,0,Tag0,unknown
1610799408414,54,66,1.4501953125E-5,0,0,0,0,0,0,0,0,0,0,0,Tag0,unknown
1610799408427,54,66,1.4501953125E-5,0,0,0,0,0,0,0,0,0,0,0,Tag0,unknown
1610799408437,54,67,1.4721679687500002E-5,0,0,0,0,0,0,0,0,0,0,0,Tag0,unknown
1610799408451,54,67,1.4721679687500002E-5,0,0,0,0,0,0,0,0,0,0,0,Tag0,unknown
1610799408461,54,67,1.4721679687500002E-5,0,0,0,0,0,0,0,0,0,0,0,Tag0,unknown
1610799408484,54,67,1.4721679687500002E-5,0,0,0,0,0,0,0,0,0,0,0,Tag0,unknown
1610799408494,54,67,1.4721679687500002E-5,0,0,0,0,0,0,0,0,0,0,0,Tag0,unknown
1610799408511,54,66,1.4501953125E-5,0,0,0,0,1,0,0,0,0,0,0,Tag0,unknown
1610799408524,54,66,1.4501953125E-5,0,0,0,0,1,0,0,0,0,0,0,Tag0,unknown
1610799408541,54,68,1.4941406250000001E-5,0,0,0,0,1,0,0,0,0,0,0,Tag0,unknown
1610799408559,54,67,1.4721679687500002E-5,0,0,0,0,1,0,0,0,0,0,0,Tag0,unknown
1610799408575,54,66,1.4501953125E-5,0,0,0,0,1,0,0,0,0,0,0,Tag0,unknown
1610799408592,54,66,1.4501953125E-5,0,0,0,0,1,0,0,0,0,0,0,Tag0,unknown
1610799408610,54,68,1.4941406250000001E-5,0,0,0,0,1,0,0,0,0,0,0,Tag0,unknown
1610799408627,54,67,1.4721679687500002E-5,0,0,0,0,1,0,0,0,0,0,0,Tag0,unknown
1610799408644,54,66,1.4501953125E-5,0,0,0,0,1,0,0,0,0,0,0,Tag0,unknown
1610799408654,54,67,1.4721679687500002E-5,0,0,0,0,1,0,0,0,0,0,0,Tag0,unknown
1610799408676,54,66,1.4501953125E-5,0,0,0,0,1,0,0,0,0,0,0,Tag0,unknown
1610799408694,54,67,1.4721679687500002E-5,0,0,0,0,1,0,0,0,0,0,0,Tag0,unknown
1610799408710,54,68,1.4941406250000001E-5,0,0,0,0,1,0,0,0,0,0,0,Tag0,unknown
1610799408720,54,67,1.4721679687500002E-5,0,0,0,0,1,0,0,0,0,0,0,Tag0,unknown
1610799408733,54,66,1.4501953125E-5,0,0,0,0,1,0,0,0,0,0,0,Tag0,unknown
1610799408743,54,66,1.4501953125E-5,0,0,0,0,1,0,0,0,0,0,0,Tag0,unknown
1610799408767,54,66,1.4501953125E-5,0,0,0,0,1,0,0,0,0,0,0,Tag0,unknown
1610799408778,54,66,1.4501953125E-5,0,0,0,0,1,0,0,0,0,0,0,Tag0,unknown
