timestampMs,poorSignal,eegRawValue,eegRawValueVolts,attention,meditation,blinkStrength,delta,theta,alphaLow,alphaHigh,betaLow,betaHigh,gammaLow,gammaMid,tagEvent,location
1610799197998,200,73,1.6040039062500002E-5,0,0,0,1535190,403633,106159,189015,66329,69138,29089,21806,Tag0,unknown
1610799198024,200,86,1.8896484375000003E-5,0,0,0,1535190,403633,106159,189015,66329,69138,29089,21806,Tag0,unknown
1610799198034,200,-257,-5.64697265625E-5,0,0,0,1535190,403633,106159,189015,66329,69138,29089,21806,Tag0,unknown
1610799198061,200,119,2.6147460937500004E-5,0,0,0,1535190,403633,106159,189015,66329,69138,29089,21806,Tag0,unknown
1610799198087,200,6,1.318359375E-6,0,0,0,1535190,403633,106159,189015,66329,69138,29089,21806,Tag0,unknown
1610799198098,200,-257,-5.64697265625E-5,0,0,0,1535190,403633,106159,189015,66329,69138,29089,21806,Tag0,unknown
1610799198121,200,60,1.318359375E-5,0,0,0,1535190,403633,106159,189015,66329,69138,29089,21806,Tag0,unknown
1610799198131,200,50,1.0986328125E-5,0,0,0,1535190,403633,106159,189015,66329,69138,29089,21806,Tag0,unknown
1610799198159,200,55,1.20849609375E-5,0,0,0,1535190,403633,106159,189015,66329,69138,29089,21806,Tag0,unknown
1610799198195,200,93,2.04345703125E-5,0,0,0,1535190,403633,106159,189015,66329,69138,29089,21806,Tag0,unknown
1610799198215,200,-122,-2.6806640625E-5,0,0,0,1535190,403633,106159,189015,66329,69138,29089,21806,Tag0,unknown
1610799198232,200,18,3.955078125E-6,0,0,0,1535190,403633,106159,189015,66329,69138,29089,21806,Tag0,unknown
1610799198248,200,49,1.07666015625E-5,0,0,0,1535190,403633,106159,189015,66329,69138,29089,21806,Tag0,unknown
1610799198265,200,11,2.4169921875E-6,0,0,0,1535190,403633,106159,189015,66329,69138,29089,21806,Tag0,unknown
1610799198282,200,59,1.29638671875E-5,0,0,0,569007,70539,21626,8626,21570,21801,13508,19486,Tag0,unknown
1610799198301,200,80,1.7578125E-5,0,0,0,569007,70539,21626,8626,21570,21801,13508,19486,Tag0,unknown
1610799198315,200,80,1.7578125E-5,0,0,0,569007,70539,21626,8626,21570,21801,13508,19486,Tag0,unknown
1610799198335,200,99,2.1752929687500003E-5,0,0,0,569007,70539,21626,8626,21570,21801,13508,19486,Tag0,unknown
1610799198348,200,-120,-2.63671875E-5,0,0,0,569007,70539,21626,8626,21570,21801,13508,19486,Tag0,unknown
1610799198369,200,89,1.95556640625E-5,0,0,0,569007,70539,21626,8626,21570,21801,13508,19486,Tag0,unknown
1610799198382,200,107,2.35107421875E-5,0,0,0,569007,70539,21626,8626,21570,21801,13508,19486,Tag0,unknown
1610799198402,200,53,1.1645507812500002E-5,0,0,0,569007,70539,21626,8626,21570,21801,13508,19486,Tag0,unknown
1610799198415,200,45,9.8876953125E-6,0,0,0,569007,70539,21626,8626,21570,21801,13508,19486,Tag0,unknown
1610799198442,200,-68,-1.4941406250000001E-5,0,0,0,569007,70539,21626,8626,21570,21801,13508,19486,Tag0,unknown
1610799198476,200,76,1.669921875E-5,0,0,0,569007,70539,21626,8626,21570,21801,13508,19486,Tag0,unknown
1610799198499,200,-289,-6.35009765625E-5,0,0,0,569007,70539,21626,8626,21570,21801,13508,19486,Tag0,unknown
1610799198530,200,-280,-6.15234375E-5,0,0,0,569007,70539,21626,8626,21570,21801,13508,19486,Tag0,unknown
1610799198579,200,-283,-6.218261718750001E-5,0,0,0,569007,70539,21626,8626,21570,21801,13508,19486,Tag0,unknown
1610799198599,200,375,8.23974609375E-5,0,0,0,569007,70539,21626,8626,21570,21801,13508,19486,Tag0,unknown
1610799198632,200,163,3.5815429687500006E-5,0,0,0,569007,70539,21626,8626,21570,21801,13508,19486,Tag0,unknown
1610799198649,200,150,3.2958984375E-5,0,0,0,569007,70539,21626,8626,21570,21801,13508,19486,Tag0,unknown
1610799198690,200,-146,-3.2080078125000004E-5,0,0,0,569007,70539,21626,8626,21570,21801,13508,19486,Tag0,unknown
1610799198700,200,-195,-4.28466796875E-5,0,0,0,569007,70539,21626,8626,21570,21801,13508,19486,Tag0,unknown
1610799198716,200,-165,-3.62548828125E-5,0,0,0,569007,70539,21626,8626,21570,21801,13508,19486,Tag0,unknown
1610799198751,200,-181,-3.9770507812500004E-5,0,0,0,569007,70539,21626,8626,21570,21801,13508,19486,Tag0,unknown
1610799198766,200,-211,-4.63623046875E-5,0,0,0,569007,70539,21626,8626,21570,21801,13508,19486,Tag0,unknown
1610799198809,200,290,6.3720703125E-5,0,0,0,569007,70539,21626,8626,21570,21801,13508,19486,Tag0,unknown
1610799198819,200,-339,-7.448730468750001E-5,0,0,0,569007,70539,21626,8626,21570,21801,13508,19486,Tag0,unknown
1610799198866,200,-330,-7.2509765625E-5,0,0,0,569007,70539,21626,8626,21570,21801,13508,19486,Tag0,unknown
1610799198883,200,-353,-7.75634765625E-5,0,0,0,569007,70539,21626,8626,21570,21801,13508,19486,Tag0,unknown
1610799198926,200,-366,-8.0419921875E-5,0,0,0,569007,70539,21626,8626,21570,21801,13508,19486,Tag0,unknown
1610799198936,200,118,2.5927734375E-5,0,0,0,569007,70539,21626,8626,21570,21801,13508,19486,Tag0,unknown
1610799198987,200,83,1.82373046875E-5,0,0,0,569007,70539,21626,8626,21570,21801,13508,19486,Tag0,unknown
1610799199000,200,119,2.6147460937500004E-5,0,0,0,569007,70539,21626,8626,21570,21801,13508,19486,Tag0,unknown
1610799199045,200,329,7.229003906250001E-5,0,0,0,569007,70539,21626,8626,21570,21801,13508,19486,Tag0,unknown
1610799199104,200,355,7.80029296875E-5,0,0,0,569007,70539,21626,8626,21570,21801,13508,19486,Tag0,unknown
1610799199116,200,309,6.78955078125E-5,0,0,0,569007,70539,21626,8626,21570,21801,13508,19486,Tag0,unknown
1610799199162,200,337,7.40478515625E-5,0,0,0,569007,70539,21626,8626,21570,21801,13508,19486,Tag0,unknown
1610799199199,200,-31,-6.8115234375E-6,0,0,0,569007,70539,21626,8626,21570,21801,13508,19486,Tag0,unknown
1610799199217,200,66,1.4501953125E-5,0,0,0,569007,70539,21626,8626,21570,21801,13508,19486,Tag0,unknown
1610799199233,200,22,4.833984375E-6,0,0,0,569007,70539,21626,8626,21570,21801,13508,19486,Tag0,unknown
1610799199264,200,-363,-7.97607421875E-5,0,0,0,569007,70539,21626,8626,21570,21801,13508,19486,Tag0,unknown
1610799199285,200,-333,-7.316894531249999E-5,0,0,0,131093,136268,16754418,16772482,69098,16787,5441,4735,Tag0,unknown
1610799199324,200,91,1.99951171875E-5,0,0,0,131093,136268,16754418,16772482,69098,16787,5441,4735,Tag0,unknown
1610799199334,200,93,2.04345703125E-5,0,0,0,131093,136268,16754418,16772482,69098,16787,5441,4735,Tag0,unknown
1610799199381,200,109,2.39501953125E-5,0,0,0,131093,136268,16754418,16772482,69098,16787,5441,4735,Tag0,unknown
1610799199400,200,87,1.91162109375E-5,0,0,0,131093,136268,16754418,16772482,69098,16787,5441,4735,Tag0,unknown
1610799199421,200,116,2.548828125E-5,0,0,0,131093,136268,16754418,16772482,69098,16787,5441,4735,Tag0,unknown
1610799199434,200,125,2.74658203125E-5,0,0,0,131093,136268,16754418,16772482,69098,16787,5441,4735,Tag0,unknown
1610799199471,200,-27,-5.9326171875000005E-6,0,0,0,131093,136268,16754418,16772482,69098,16787,5441,4735,Tag0,unknown
1610799199484,200,-71,-1.56005859375E-5,0,0,0,131093,136268,16754418,16772482,69098,16787,5441,4735,Tag0,unknown
1610799199529,200,-181,-3.9770507812500004E-5,0,0,0,131093,136268,16754418,16772482,69098,16787,5441,4735,Tag0,unknown
1610799199586,200,-369,-8.10791015625E-5,0,0,0,131093,136268,16754418,16772482,69098,16787,5441,4735,Tag0,unknown
1610799199601,200,-342,-7.5146484375E-5,0,0,0,131093,136268,16754418,16772482,69098,16787,5441,4735,Tag0,unknown
1610799199677,200,121,2.6586914062500003E-5,0,0,0,131093,136268,16754418,16772482,69098,16787,5441,4735,Tag0,unknown
1610799199687,200,-127,-2.79052734375E-5,0,0,0,131093,136268,16754418,16772482,69098,16787,5441,4735,Tag0,unknown
1610799199703,200,64,1.40625E-5,0,0,0,131093,136268,16754418,16772482,69098,16787,5441,4735,Tag0,unknown
1610799199740,200,86,1.8896484375000003E-5,0,0,0,131093,136268,16754418,16772482,69098,16787,5441,4735,Tag0,unknown
1610799199751,200,51,1.1206054687499999E-5,0,0,0,131093,136268,16754418,16772482,69098,16787,5441,4735,Tag0,unknown
1610799199797,200,33,7.2509765625E-6,0,0,0,131093,136268,16754418,16772482,69098,16787,5441,4735,Tag0,unknown
1610799199837,200,60,1.318359375E-5,0,0,0,131093,136268,16754418,16772482,69098,16787,5441,4735,Tag0,unknown
1610799199851,200,18,3.955078125E-6,0,0,0,131093,136268,16754418,16772482,69098,16787,5441,4735,Tag0,unknown
1610799199881,200,-313,-6.87744140625E-5,0,0,0,131093,136268,16754418,16772482,69098,16787,5441,4735,Tag0,unknown
1610799199917,200,119,2.6147460937500004E-5,0,0,0,131093,136268,16754418,16772482,69098,16787,5441,4735,Tag0,unknown
1610799199935,200,-125,-2.74658203125E-5,0,0,0,131093,136268,16754418,16772482,69098,16787,5441,4735,Tag0,unknown
1610799199951,200,-110,-2.4169921875E-5,0,0,0,131093,136268,16754418,16772482,69098,16787,5441,4735,Tag0,unknown
1610799199968,200,-74,-1.6259765625E-5,0,0,0,131093,136268,16754418,16772482,69098,16787,5441,4735,Tag0,unknown
1610799199990,200,-118,-2.5927734375E-5,0,0,0,131093,136268,16754418,16772482,69098,16787,5441,4735,Tag0,unknown
1610799200002,200,121,2.6586914062500003E-5,0,0,0,131093,136268,16754418,16772482,69098,16787,5441,4735,Tag0,unknown
1610799200024,200,-281,-6.17431640625E-5,0,0,0,131093,136268,16754418,16772482,69098,16787,5441,4735,Tag0,unknown
1610799200035,200,-287,-6.306152343750001E-5,0,0,0,131093,136268,16754418,16772482,69098,16787,5441,4735,Tag0,unknown
1610799200064,200,-118,-2.5927734375E-5,0,0,0,131093,136268,16754418,16772482,69098,16787,5441,4735,Tag0,unknown
1610799200097,200,53,1.1645507812500002E-5,0,0,0,131093,136268,16754418,16772482,69098,16787,5441,4735,Tag0,unknown
1610799200118,200,39,8.5693359375E-6,0,0,0,131093,136268,16754418,16772482,69098,16787,5441,4735,Tag0,unknown
1610799200140,200,-258,-5.6689453125000004E-5,0,0,0,131093,136268,16754418,16772482,69098,16787,5441,4735,Tag0,unknown
1610799200152,200,36,7.91015625E-6,0,0,0,131093,136268,16754418,16772482,69098,16787,5441,4735,Tag0,unknown
1610799200174,200,5,1.0986328125E-6,0,0,0,131093,136268,16754418,16772482,69098,16787,5441,4735,Tag0,unknown
1610799200185,200,50,1.0986328125E-5,0,0,0,131093,136268,16754418,16772482,69098,16787,5441,4735,Tag0,unknown
1610799200210,200,4,8.7890625E-7,0,0,0,131093,136268,16754418,16772482,69098,16787,5441,4735,Tag0,unknown
1610799200220,200,-267,-5.86669921875E-5,0,0,0,131093,136268,16754418,16772482,69098,16787,5441,4735,Tag0,unknown
1610799200274,200,-290,-6.3720703125E-5,0,0,0,131093,136268,16754418,16772482,69098,16787,5441,4735,Tag0,unknown
1610799200285,200,-347,-7.62451171875E-5,0,0,0,131093,136268,16754418,16772482,69098,16787,5441,4735,Tag0,unknown
1610799200352,200,-349,-7.668457031250001E-5,0,0,0,1310942,43567,16764879,14144,16750012,16744594,29853,15465,Tag0,unknown
1610799200369,200,-340,-7.470703125E-5,0,0,0,1310942,43567,16764879,14144,16750012,16744594,29853,15465,Tag0,unknown
1610799200420,200,50,1.0986328125E-5,0,0,0,1310942,43567,16764879,14144,16750012,16744594,29853,15465,Tag0,unknown
1610799200436,200,59,1.29638671875E-5,0,0,0,1310942,43567,16764879,14144,16750012,16744594,29853,15465,Tag0,unknown
1610799200487,200,-48,-1.0546875E-5,0,0,0,1310942,43567,16764879,14144,16750012,16744594,29853,15465,Tag0,unknown
1610799200503,200,256,5.625E-5,0,0,0,1310942,43567,16764879,14144,16750012,16744594,29853,15465,Tag0,unknown
1610799200555,200,-121,-2.6586914062500003E-5,0,0,0,1310942,43567,16764879,14144,16750012,16744594,29853,15465,Tag0,unknown
1610799200569,200,-78,-1.7138671875E-5,0,0,0,1310942,43567,16764879,14144,16750012,16744594,29853,15465,Tag0,unknown
1610799200624,200,-54,-1.1865234375000001E-5,0,0,0,1310942,43567,16764879,14144,16750012,16744594,29853,15465,Tag0,unknown
1610799200636,200,-75,-1.64794921875E-5,0,0,0,1310942,43567,16764879,14144,16750012,16744594,29853,15465,Tag0,unknown
1610799200693,200,-115,-2.52685546875E-5,0,0,0,1310942,43567,16764879,14144,16750012,16744594,29853,15465,Tag0,unknown
1610799200704,200,101,2.2192382812500002E-5,0,0,0,1310942,43567,16764879,14144,16750012,16744594,29853,15465,Tag0,unknown
1610799200805,200,125,2.74658203125E-5,0,0,0,1310942,43567,16764879,14144,16750012,16744594,29853,15465,Tag0,unknown
1610799200820,200,71,1.56005859375E-5,0,0,0,1310942,43567,16764879,14144,16750012,16744594,29853,15465,Tag0,unknown
1610799200881,200,-127,-2.79052734375E-5,0,0,0,1310942,43567,16764879,14144,16750012,16744594,29853,15465,Tag0,unknown
1610799200929,200,102,2.2412109374999998E-5,0,0,0,1310942,43567,16764879,14144,16750012,16744594,29853,15465,Tag0,unknown
1610799200939,200,36,7.91015625E-6,0,0,0,1310942,43567,16764879,14144,16750012,16744594,29853,15465,Tag0,unknown
1610799200982,200,8,1.7578125E-6,0,0,0,1310942,43567,16764879,14144,16750012,16744594,29853,15465,Tag0,unknown
1610799200996,200,56,1.23046875E-5,0,0,0,1310942,43567,16764879,14144,16750012,16744594,29853,15465,Tag0,unknown
1610799201006,200,77,1.69189453125E-5,0,0,0,1310942,43567,16764879,14144,16750012,16744594,29853,15465,Tag0,unknown
1610799201018,200,2,4.39453125E-7,0,0,0,1310942,43567,16764879,14144,16750012,16744594,29853,15465,Tag0,unknown
1610799201028,200,120,2.63671875E-5,0,0,0,1310942,43567,16764879,14144,16750012,16744594,29853,15465,Tag0,unknown
1610799201039,200,-72,-1.58203125E-5,0,0,0,1310942,43567,16764879,14144,16750012,16744594,29853,15465,Tag0,unknown
1610799201049,200,30,6.591796875E-6,0,0,0,1310942,43567,16764879,14144,16750012,16744594,29853,15465,Tag0,unknown
1610799201061,200,105,2.30712890625E-5,0,0,0,1310942,43567,16764879,14144,16750012,16744594,29853,15465,Tag0,unknown
1610799201071,200,13,2.8564453125E-6,0,0,0,1310942,43567,16764879,14144,16750012,16744594,29853,15465,Tag0,unknown
1610799201081,200,103,2.26318359375E-5,0,0,0,1310942,43567,16764879,14144,16750012,16744594,29853,15465,Tag0,unknown
1610799201092,200,92,2.021484375E-5,0,0,0,1310942,43567,16764879,14144,16750012,16744594,29853,15465,Tag0,unknown
1610799201105,200,113,2.48291015625E-5,0,0,0,1310942,43567,16764879,14144,16750012,16744594,29853,15465,Tag0,unknown
1610799201123,200,123,2.70263671875E-5,0,0,0,1310942,43567,16764879,14144,16750012,16744594,29853,15465,Tag0,unknown
1610799201140,200,-123,-2.70263671875E-5,0,0,0,1310942,43567,16764879,14144,16750012,16744594,29853,15465,Tag0,unknown
1610799201158,200,75,1.64794921875E-5,0,0,0,1310942,43567,16764879,14144,16750012,16744594,29853,15465,Tag0,unknown
1610799201178,200,118,2.5927734375E-5,0,0,0,1310942,43567,16764879,14144,16750012,16744594,29853,15465,Tag0,unknown
1610799201189,200,-107,-2.35107421875E-5,0,0,0,1310942,43567,16764879,14144,16750012,16744594,29853,15465,Tag0,unknown
1610799201199,200,101,2.2192382812500002E-5,0,0,0,1310942,43567,16764879,14144,16750012,16744594,29853,15465,Tag0,unknown
1610799201209,200,108,2.3730468750000002E-5,0,0,0,1310942,43567,16764879,14144,16750012,16744594,29853,15465,Tag0,unknown
1610799201225,200,105,2.30712890625E-5,0,0,0,1310942,43567,16764879,14144,16750012,16744594,29853,15465,Tag0,unknown
1610799201242,200,59,1.29638671875E-5,0,0,0,1310942,43567,16764879,14144,16750012,16744594,29853,15465,Tag0,unknown
1610799201253,200,10,2.197265625E-6,0,0,0,255555,16766486,10641,6099,20313,24483,23454,13145,Tag0,unknown
1610799201266,200,-261,-5.73486328125E-5,0,0,0,255555,16766486,10641,6099,20313,24483,23454,13145,Tag0,unknown
1610799201290,200,29,6.3720703125E-6,0,0,0,255555,16766486,10641,6099,20313,24483,23454,13145,Tag0,unknown
1610799201308,200,57,1.2524414062500001E-5,0,0,0,255555,16766486,10641,6099,20313,24483,23454,13145,Tag0,unknown
1610799201324,200,101,2.2192382812500002E-5,0,0,0,255555,16766486,10641,6099,20313,24483,23454,13145,Tag0,unknown
1610799201344,200,-323,-7.09716796875E-5,0,0,0,255555,16766486,10641,6099,20313,24483,23454,13145,Tag0,unknown
1610799201360,200,-312,-6.85546875E-5,0,0,0,255555,16766486,10641,6099,20313,24483,23454,13145,Tag0,unknown
1610799201378,200,2,4.39453125E-7,0,0,0,255555,16766486,10641,6099,20313,24483,23454,13145,Tag0,unknown
1610799201394,200,10,2.197265625E-6,0,0,0,255555,16766486,10641,6099,20313,24483,23454,13145,Tag0,unknown
1610799201405,200,-120,-2.63671875E-5,0,0,0,255555,16766486,10641,6099,20313,24483,23454,13145,Tag0,unknown
1610799201416,200,-101,-2.2192382812500002E-5,0,0,0,255555,16766486,10641,6099,20313,24483,23454,13145,Tag0,unknown
1610799201427,200,-90,-1.9775390625E-5,0,0,0,255555,16766486,10641,6099,20313,24483,23454,13145,Tag0,unknown
1610799201450,200,108,2.3730468750000002E-5,0,0,0,255555,16766486,10641,6099,20313,24483,23454,13145,Tag0,unknown
1610799201462,200,-110,-2.4169921875E-5,0,0,0,255555,16766486,10641,6099,20313,24483,23454,13145,Tag0,unknown
1610799201472,200,-93,-2.04345703125E-5,0,0,0,255555,16766486,10641,6099,20313,24483,23454,13145,Tag0,unknown
1610799201482,200,-123,-2.70263671875E-5,0,0,0,255555,16766486,10641,6099,20313,24483,23454,13145,Tag0,unknown
1610799201500,200,-120,-2.63671875E-5,0,0,0,255555,16766486,10641,6099,20313,24483,23454,13145,Tag0,unknown
1610799201522,200,43,9.448242187500001E-6,0,0,0,255555,16766486,10641,6099,20313,24483,23454,13145,Tag0,unknown
1610799201539,200,57,1.2524414062500001E-5,0,0,0,255555,16766486,10641,6099,20313,24483,23454,13145,Tag0,unknown
1610799201559,200,-296,-6.50390625E-5,0,0,0,255555,16766486,10641,6099,20313,24483,23454,13145,Tag0,unknown
1610799201574,200,-289,-6.35009765625E-5,0,0,0,255555,16766486,10641,6099,20313,24483,23454,13145,Tag0,unknown
1610799201594,200,-331,-7.272949218750001E-5,0,0,0,255555,16766486,10641,6099,20313,24483,23454,13145,Tag0,unknown
1610799201609,200,-375,-8.23974609375E-5,0,0,0,255555,16766486,10641,6099,20313,24483,23454,13145,Tag0,unknown
1610799201619,200,16,3.515625E-6,0,0,0,255555,16766486,10641,6099,20313,24483,23454,13145,Tag0,unknown
1610799201633,200,-53,-1.1645507812500002E-5,0,0,0,255555,16766486,10641,6099,20313,24483,23454,13145,Tag0,unknown
1610799201643,200,-259,-5.69091796875E-5,0,0,0,255555,16766486,10641,6099,20313,24483,23454,13145,Tag0,unknown
1610799201668,200,-129,-2.8344726562500002E-5,0,0,0,255555,16766486,10641,6099,20313,24483,23454,13145,Tag0,unknown
1610799201679,200,-358,-7.8662109375E-5,0,0,0,255555,16766486,10641,6099,20313,24483,23454,13145,Tag0,unknown
1610799201689,200,-164,-3.6035156249999995E-5,0,0,0,255555,16766486,10641,6099,20313,24483,23454,13145,Tag0,unknown
1610799201699,200,52,1.142578125E-5,0,0,0,255555,16766486,10641,6099,20313,24483,23454,13145,Tag0,unknown
1610799201709,200,105,2.30712890625E-5,0,0,0,255555,16766486,10641,6099,20313,24483,23454,13145,Tag0,unknown
1610799201725,200,272,5.9765625000000004E-5,0,0,0,255555,16766486,10641,6099,20313,24483,23454,13145,Tag0,unknown
1610799201761,200,61,1.34033203125E-5,0,0,0,255555,16766486,10641,6099,20313,24483,23454,13145,Tag0,unknown
1610799201778,200,118,2.5927734375E-5,0,0,0,255555,16766486,10641,6099,20313,24483,23454,13145,Tag0,unknown
1610799201788,200,101,2.2192382812500002E-5,0,0,0,255555,16766486,10641,6099,20313,24483,23454,13145,Tag0,unknown
1610799201814,200,-75,-1.64794921875E-5,0,0,0,255555,16766486,10641,6099,20313,24483,23454,13145,Tag0,unknown
1610799201825,200,-109,-2.39501953125E-5,0,0,0,255555,16766486,10641,6099,20313,24483,23454,13145,Tag0,unknown
1610799201835,200,115,2.52685546875E-5,0,0,0,255555,16766486,10641,6099,20313,24483,23454,13145,Tag0,unknown
1610799201845,200,121,2.6586914062500003E-5,0,0,0,255555,16766486,10641,6099,20313,24483,23454,13145,Tag0,unknown
1610799201874,200,-86,-1.8896484375000003E-5,0,0,0,255555,16766486,10641,6099,20313,24483,23454,13145,Tag0,unknown
1610799201891,200,-101,-2.2192382812500002E-5,0,0,0,255555,16766486,10641,6099,20313,24483,23454,13145,Tag0,unknown
1610799201901,200,61,1.34033203125E-5,0,0,0,255555,16766486,10641,6099,20313,24483,23454,13145,Tag0,unknown
1610799201928,200,-103,-2.26318359375E-5,0,0,0,255555,16766486,10641,6099,20313,24483,23454,13145,Tag0,unknown
1610799201943,200,121,2.6586914062500003E-5,0,0,0,255555,16766486,10641,6099,20313,24483,23454,13145,Tag0,unknown
1610799201953,200,82,1.8017578124999998E-5,0,0,0,255555,16766486,10641,6099,20313,24483,23454,13145,Tag0,unknown
1610799201983,200,53,1.1645507812500002E-5,0,0,0,255555,16766486,10641,6099,20313,24483,23454,13145,Tag0,unknown
1610799201993,200,98,2.1533203125E-5,0,0,0,255555,16766486,10641,6099,20313,24483,23454,13145,Tag0,unknown
1610799202003,200,81,1.77978515625E-5,0,0,0,255555,16766486,10641,6099,20313,24483,23454,13145,Tag0,unknown
1610799202013,200,124,2.724609375E-5,0,0,0,255555,16766486,10641,6099,20313,24483,23454,13145,Tag0,unknown
1610799202023,200,86,1.8896484375000003E-5,0,0,0,255555,16766486,10641,6099,20313,24483,23454,13145,Tag0,unknown
1610799202041,200,-64,-1.40625E-5,0,0,0,255555,16766486,10641,6099,20313,24483,23454,13145,Tag0,unknown
1610799202060,200,-103,-2.26318359375E-5,0,0,0,255555,16766486,10641,6099,20313,24483,23454,13145,Tag0,unknown
1610799202074,200,-101,-2.2192382812500002E-5,0,0,0,255555,16766486,10641,6099,20313,24483,23454,13145,Tag0,unknown
1610799202101,200,68,1.4941406250000001E-5,0,0,0,255555,16766486,10641,6099,20313,24483,23454,13145,Tag0,unknown
1610799202111,200,67,1.4721679687500002E-5,0,0,0,255555,16766486,10641,6099,20313,24483,23454,13145,Tag0,unknown
1610799202135,200,-293,-6.43798828125E-5,0,0,0,255555,16766486,10641,6099,20313,24483,23454,13145,Tag0,unknown
1610799202145,200,-260,-5.712890625E-5,0,0,0,255555,16766486,10641,6099,20313,24483,23454,13145,Tag0,unknown
1610799202160,200,-279,-6.13037109375E-5,0,0,0,255555,16766486,10641,6099,20313,24483,23454,13145,Tag0,unknown
1610799202179,200,-262,-5.7568359375E-5,0,0,0,255555,16766486,10641,6099,20313,24483,23454,13145,Tag0,unknown
1610799202193,200,-317,-6.96533203125E-5,0,0,0,255555,16766486,10641,6099,20313,24483,23454,13145,Tag0,unknown
1610799202210,200,-283,-6.218261718750001E-5,0,0,0,255555,16766486,10641,6099,20313,24483,23454,13145,Tag0,unknown
1610799202226,200,91,1.99951171875E-5,0,0,0,255555,16766486,10641,6099,20313,24483,23454,13145,Tag0,unknown
1610799202236,200,69,1.51611328125E-5,0,0,0,255555,16766486,10641,6099,20313,24483,23454,13145,Tag0,unknown
1610799202260,200,38,8.349609375E-6,0,0,0,255555,16766486,10641,6099,20313,24483,23454,13145,Tag0,unknown
1610799202270,200,-293,-6.43798828125E-5,0,0,0,1173230,203042,84129,23930,23843,76097,25115,16751679,Tag0,unknown
1610799202284,200,1,2.197265625E-7,0,0,0,1173230,203042,84129,23930,23843,76097,25115,16751679,Tag0,unknown
1610799202294,200,34,7.4707031250000005E-6,0,0,0,1173230,203042,84129,23930,23843,76097,25115,16751679,Tag0,unknown
1610799202318,200,3,6.591796875E-7,0,0,0,1173230,203042,84129,23930,23843,76097,25115,16751679,Tag0,unknown
1610799202328,200,20,4.39453125E-6,0,0,0,1173230,203042,84129,23930,23843,76097,25115,16751679,Tag0,unknown
1610799202343,200,59,1.29638671875E-5,0,0,0,1173230,203042,84129,23930,23843,76097,25115,16751679,Tag0,unknown
1610799202353,200,-313,-6.87744140625E-5,0,0,0,1173230,203042,84129,23930,23843,76097,25115,16751679,Tag0,unknown
1610799202363,200,6,1.318359375E-6,0,0,0,1173230,203042,84129,23930,23843,76097,25115,16751679,Tag0,unknown
1610799202377,200,49,1.07666015625E-5,0,0,0,1173230,203042,84129,23930,23843,76097,25115,16751679,Tag0,unknown
1610799202394,200,64,1.40625E-5,0,0,0,1173230,203042,84129,23930,23843,76097,25115,16751679,Tag0,unknown
1610799202410,200,102,2.2412109374999998E-5,0,0,0,1173230,203042,84129,23930,23843,76097,25115,16751679,Tag0,unknown
1610799202429,200,90,1.9775390625E-5,0,0,0,1173230,203042,84129,23930,23843,76097,25115,16751679,Tag0,unknown
1610799202444,200,77,1.69189453125E-5,0,0,0,1173230,203042,84129,23930,23843,76097,25115,16751679,Tag0,unknown
1610799202462,200,114,2.5048828125000003E-5,0,0,0,1173230,203042,84129,23930,23843,76097,25115,16751679,Tag0,unknown
1610799202478,200,94,2.0654296875000002E-5,0,0,0,1173230,203042,84129,23930,23843,76097,25115,16751679,Tag0,unknown
1610799202488,200,98,2.1533203125E-5,0,0,0,1173230,203042,84129,23930,23843,76097,25115,16751679,Tag0,unknown
1610799202500,200,61,1.34033203125E-5,0,0,0,1173230,203042,84129,23930,23843,76097,25115,16751679,Tag0,unknown
1610799202510,200,88,1.93359375E-5,0,0,0,1173230,203042,84129,23930,23843,76097,25115,16751679,Tag0,unknown
1610799202533,200,116,2.548828125E-5,0,0,0,1173230,203042,84129,23930,23843,76097,25115,16751679,Tag0,unknown
1610799202543,200,96,2.109375E-5,0,0,0,1173230,203042,84129,23930,23843,76097,25115,16751679,Tag0,unknown
1610799202560,200,-90,-1.9775390625E-5,0,0,0,1173230,203042,84129,23930,23843,76097,25115,16751679,Tag0,unknown
1610799202577,200,35,7.6904296875E-6,0,0,0,1173230,203042,84129,23930,23843,76097,25115,16751679,Tag0,unknown
1610799202595,200,89,1.95556640625E-5,0,0,0,1173230,203042,84129,23930,23843,76097,25115,16751679,Tag0,unknown
1610799202612,200,21,4.614257812500001E-6,0,0,0,1173230,203042,84129,23930,23843,76097,25115,16751679,Tag0,unknown
1610799202628,200,-115,-2.52685546875E-5,0,0,0,1173230,203042,84129,23930,23843,76097,25115,16751679,Tag0,unknown
1610799202638,200,32,7.03125E-6,0,0,0,1173230,203042,84129,23930,23843,76097,25115,16751679,Tag0,unknown
1610799202661,200,28,6.15234375E-6,0,0,0,1173230,203042,84129,23930,23843,76097,25115,16751679,Tag0,unknown
1610799202682,200,-260,-5.712890625E-5,0,0,0,1173230,203042,84129,23930,23843,76097,25115,16751679,Tag0,unknown
1610799202695,200,-281,-6.17431640625E-5,0,0,0,1173230,203042,84129,23930,23843,76097,25115,16751679,Tag0,unknown
1610799202705,200,-264,-5.80078125E-5,0,0,0,1173230,203042,84129,23930,23843,76097,25115,16751679,Tag0,unknown
1610799202720,200,41,9.008789062499999E-6,0,0,0,1173230,203042,84129,23930,23843,76097,25115,16751679,Tag0,unknown
1610799202730,200,11,2.4169921875E-6,0,0,0,1173230,203042,84129,23930,23843,76097,25115,16751679,Tag0,unknown
1610799202754,200,49,1.07666015625E-5,0,0,0,1173230,203042,84129,23930,23843,76097,25115,16751679,Tag0,unknown
1610799202767,200,87,1.91162109375E-5,0,0,0,1173230,203042,84129,23930,23843,76097,25115,16751679,Tag0,unknown
1610799202777,200,81,1.77978515625E-5,0,0,0,1173230,203042,84129,23930,23843,76097,25115,16751679,Tag0,unknown
1610799202791,200,112,2.4609375E-5,0,0,0,1173230,203042,84129,23930,23843,76097,25115,16751679,Tag0,unknown
1610799202809,200,52,1.142578125E-5,0,0,0,1173230,203042,84129,23930,23843,76097,25115,16751679,Tag0,unknown
1610799202825,200,101,2.2192382812500002E-5,0,0,0,1173230,203042,84129,23930,23843,76097,25115,16751679,Tag0,unknown
1610799202844,200,73,1.6040039062500002E-5,0,0,0,1173230,203042,84129,23930,23843,76097,25115,16751679,Tag0,unknown
1610799202854,200,98,2.1533203125E-5,0,0,0,1173230,203042,84129,23930,23843,76097,25115,16751679,Tag0,unknown
1610799202866,200,-119,-2.6147460937500004E-5,0,0,0,1173230,203042,84129,23930,23843,76097,25115,16751679,Tag0,unknown
1610799202879,200,-121,-2.6586914062500003E-5,0,0,0,1173230,203042,84129,23930,23843,76097,25115,16751679,Tag0,unknown
1610799202899,200,41,9.008789062499999E-6,0,0,0,1173230,203042,84129,23930,23843,76097,25115,16751679,Tag0,unknown
1610799202912,200,81,1.77978515625E-5,0,0,0,1173230,203042,84129,23930,23843,76097,25115,16751679,Tag0,unknown
1610799202922,200,113,2.48291015625E-5,0,0,0,1173230,203042,84129,23930,23843,76097,25115,16751679,Tag0,unknown
1610799202932,200,85,1.86767578125E-5,0,0,0,1173230,203042,84129,23930,23843,76097,25115,16751679,Tag0,unknown
1610799202946,200,56,1.23046875E-5,0,0,0,1173230,203042,84129,23930,23843,76097,25115,16751679,Tag0,unknown
1610799202962,200,-88,-1.93359375E-5,0,0,0,1173230,203042,84129,23930,23843,76097,25115,16751679,Tag0,unknown
1610799202979,200,-126,-2.7685546875E-5,0,0,0,1173230,203042,84129,23930,23843,76097,25115,16751679,Tag0,unknown
1610799202996,200,23,5.0537109375E-6,0,0,0,1173230,203042,84129,23930,23843,76097,25115,16751679,Tag0,unknown
1610799203006,200,11,2.4169921875E-6,0,0,0,1173230,203042,84129,23930,23843,76097,25115,16751679,Tag0,unknown
1610799203016,200,-262,-5.7568359375E-5,0,0,0,1173230,203042,84129,23930,23843,76097,25115,16751679,Tag0,unknown
1610799203026,200,81,1.77978515625E-5,0,0,0,1173230,203042,84129,23930,23843,76097,25115,16751679,Tag0,unknown
1610799203047,200,92,2.021484375E-5,0,0,0,1173230,203042,84129,23930,23843,76097,25115,16751679,Tag0,unknown
1610799203060,200,40,8.7890625E-6,0,0,0,1173230,203042,84129,23930,23843,76097,25115,16751679,Tag0,unknown
1610799203085,200,73,1.6040039062500002E-5,0,0,0,1173230,203042,84129,23930,23843,76097,25115,16751679,Tag0,unknown
1610799203096,200,41,9.008789062499999E-6,0,0,0,1173230,203042,84129,23930,23843,76097,25115,16751679,Tag0,unknown
1610799203119,200,85,1.86767578125E-5,0,0,0,1173230,203042,84129,23930,23843,76097,25115,16751679,Tag0,unknown
1610799203129,200,93,2.04345703125E-5,0,0,0,1173230,203042,84129,23930,23843,76097,25115,16751679,Tag0,unknown
1610799203139,200,26,5.712890625E-6,0,0,0,1173230,203042,84129,23930,23843,76097,25115,16751679,Tag0,unknown
1610799203149,200,116,2.548828125E-5,0,0,0,1173230,203042,84129,23930,23843,76097,25115,16751679,Tag0,unknown
1610799203163,200,88,1.93359375E-5,0,0,0,1173230,203042,84129,23930,23843,76097,25115,16751679,Tag0,unknown
1610799203179,200,83,1.82373046875E-5,0,0,0,1173230,203042,84129,23930,23843,76097,25115,16751679,Tag0,unknown
1610799203196,200,57,1.2524414062500001E-5,0,0,0,1173230,203042,84129,23930,23843,76097,25115,16751679,Tag0,unknown
1610799203212,200,93,2.04345703125E-5,0,0,0,1173230,203042,84129,23930,23843,76097,25115,16751679,Tag0,unknown
1610799203222,200,16,3.515625E-6,0,0,0,1173230,203042,84129,23930,23843,76097,25115,16751679,Tag0,unknown
1610799203232,200,19,4.1748046875E-6,0,0,0,1173230,203042,84129,23930,23843,76097,25115,16751679,Tag0,unknown
1610799203246,200,38,8.349609375E-6,0,0,0,1173230,203042,84129,23930,23843,76097,25115,16751679,Tag0,unknown
1610799203256,200,43,9.448242187500001E-6,0,0,0,49291,3757,1607,2416,2410,8487,6064,2854,Tag0,unknown
1610799203274,200,121,2.6586914062500003E-5,0,0,0,49291,3757,1607,2416,2410,8487,6064,2854,Tag0,unknown
1610799203296,200,-110,-2.4169921875E-5,0,0,0,49291,3757,1607,2416,2410,8487,6064,2854,Tag0,unknown
1610799203311,200,-84,-1.8457031250000004E-5,0,0,0,49291,3757,1607,2416,2410,8487,6064,2854,Tag0,unknown
1610799203330,200,257,5.64697265625E-5,0,0,0,49291,3757,1607,2416,2410,8487,6064,2854,Tag0,unknown
1610799203345,200,-13,-2.8564453125E-6,0,0,0,49291,3757,1607,2416,2410,8487,6064,2854,Tag0,unknown
1610799203355,200,115,2.52685546875E-5,0,0,0,49291,3757,1607,2416,2410,8487,6064,2854,Tag0,unknown
1610799203365,200,-53,-1.1645507812500002E-5,0,0,0,49291,3757,1607,2416,2410,8487,6064,2854,Tag0,unknown
1610799203379,200,-93,-2.04345703125E-5,0,0,0,49291,3757,1607,2416,2410,8487,6064,2854,Tag0,unknown
1610799203403,200,-259,-5.69091796875E-5,0,0,0,49291,3757,1607,2416,2410,8487,6064,2854,Tag0,unknown
1610799203413,200,23,5.0537109375E-6,0,0,0,49291,3757,1607,2416,2410,8487,6064,2854,Tag0,unknown
1610799203428,200,-298,-6.5478515625E-5,0,0,0,49291,3757,1607,2416,2410,8487,6064,2854,Tag0,unknown
1610799203445,200,-118,-2.5927734375E-5,0,0,0,49291,3757,1607,2416,2410,8487,6064,2854,Tag0,unknown
1610799203461,200,105,2.30712890625E-5,0,0,0,49291,3757,1607,2416,2410,8487,6064,2854,Tag0,unknown
1610799203479,200,27,5.9326171875000005E-6,0,0,0,49291,3757,1607,2416,2410,8487,6064,2854,Tag0,unknown
1610799203496,200,113,2.48291015625E-5,0,0,0,49291,3757,1607,2416,2410,8487,6064,2854,Tag0,unknown
1610799203506,200,83,1.82373046875E-5,0,0,0,49291,3757,1607,2416,2410,8487,6064,2854,Tag0,unknown
1610799203530,200,39,8.5693359375E-6,0,0,0,49291,3757,1607,2416,2410,8487,6064,2854,Tag0,unknown
1610799203548,200,-355,-7.80029296875E-5,0,0,0,49291,3757,1607,2416,2410,8487,6064,2854,Tag0,unknown
1610799203562,200,-361,-7.93212890625E-5,0,0,0,49291,3757,1607,2416,2410,8487,6064,2854,Tag0,unknown
1610799203572,200,-337,-7.40478515625E-5,0,0,0,49291,3757,1607,2416,2410,8487,6064,2854,Tag0,unknown
1610799203583,200,-341,-7.492675781250002E-5,0,0,0,49291,3757,1607,2416,2410,8487,6064,2854,Tag0,unknown
1610799203597,200,-297,-6.525878906250001E-5,0,0,0,49291,3757,1607,2416,2410,8487,6064,2854,Tag0,unknown
1610799203617,200,-313,-6.87744140625E-5,0,0,0,49291,3757,1607,2416,2410,8487,6064,2854,Tag0,unknown
1610799203628,200,-265,-5.82275390625E-5,0,0,0,49291,3757,1607,2416,2410,8487,6064,2854,Tag0,unknown
1610799203644,200,29,6.3720703125E-6,0,0,0,49291,3757,1607,2416,2410,8487,6064,2854,Tag0,unknown
1610799203663,200,60,1.318359375E-5,0,0,0,49291,3757,1607,2416,2410,8487,6064,2854,Tag0,unknown
1610799203688,200,27,5.9326171875000005E-6,0,0,0,49291,3757,1607,2416,2410,8487,6064,2854,Tag0,unknown
1610799203698,200,17,3.7353515625000003E-6,0,0,0,49291,3757,1607,2416,2410,8487,6064,2854,Tag0,unknown
1610799203722,200,23,5.0537109375E-6,0,0,0,49291,3757,1607,2416,2410,8487,6064,2854,Tag0,unknown
1610799203732,200,76,1.669921875E-5,0,0,0,49291,3757,1607,2416,2410,8487,6064,2854,Tag0,unknown
1610799203747,200,21,4.614257812500001E-6,0,0,0,49291,3757,1607,2416,2410,8487,6064,2854,Tag0,unknown
1610799203763,200,74,1.6259765625E-5,0,0,0,49291,3757,1607,2416,2410,8487,6064,2854,Tag0,unknown
1610799203779,200,59,1.29638671875E-5,0,0,0,49291,3757,1607,2416,2410,8487,6064,2854,Tag0,unknown
1610799203797,200,85,1.86767578125E-5,0,0,0,49291,3757,1607,2416,2410,8487,6064,2854,Tag0,unknown
1610799203813,200,-76,-1.669921875E-5,0,0,0,49291,3757,1607,2416,2410,8487,6064,2854,Tag0,unknown
1610799203831,200,77,1.69189453125E-5,0,0,0,49291,3757,1607,2416,2410,8487,6064,2854,Tag0,unknown
1610799203844,200,39,8.5693359375E-6,0,0,0,49291,3757,1607,2416,2410,8487,6064,2854,Tag0,unknown
1610799203865,200,115,2.52685546875E-5,0,0,0,49291,3757,1607,2416,2410,8487,6064,2854,Tag0,unknown
1610799203879,200,97,2.13134765625E-5,0,0,0,49291,3757,1607,2416,2410,8487,6064,2854,Tag0,unknown
1610799203902,200,-53,-1.1645507812500002E-5,0,0,0,49291,3757,1607,2416,2410,8487,6064,2854,Tag0,unknown
1610799203914,200,-45,-9.8876953125E-6,0,0,0,49291,3757,1607,2416,2410,8487,6064,2854,Tag0,unknown
1610799203924,200,-79,-1.7358398437500003E-5,0,0,0,49291,3757,1607,2416,2410,8487,6064,2854,Tag0,unknown
1610799203936,200,-103,-2.26318359375E-5,0,0,0,49291,3757,1607,2416,2410,8487,6064,2854,Tag0,unknown
1610799203947,200,-87,-1.91162109375E-5,0,0,0,49291,3757,1607,2416,2410,8487,6064,2854,Tag0,unknown
1610799203957,200,113,2.48291015625E-5,0,0,0,49291,3757,1607,2416,2410,8487,6064,2854,Tag0,unknown
1610799203967,200,-262,-5.7568359375E-5,0,0,0,49291,3757,1607,2416,2410,8487,6064,2854,Tag0,unknown
1610799203979,200,-283,-6.218261718750001E-5,0,0,0,49291,3757,1607,2416,2410,8487,6064,2854,Tag0,unknown
1610799203996,200,1,2.197265625E-7,0,0,0,49291,3757,1607,2416,2410,8487,6064,2854,Tag0,unknown
1610799204013,200,17,3.7353515625000003E-6,0,0,0,49291,3757,1607,2416,2410,8487,6064,2854,Tag0,unknown
1610799204031,200,-277,-6.0864257812500005E-5,0,0,0,49291,3757,1607,2416,2410,8487,6064,2854,Tag0,unknown
1610799204041,200,29,6.3720703125E-6,0,0,0,49291,3757,1607,2416,2410,8487,6064,2854,Tag0,unknown
1610799204052,200,-261,-5.73486328125E-5,0,0,0,49291,3757,1607,2416,2410,8487,6064,2854,Tag0,unknown
1610799204064,200,5,1.0986328125E-6,0,0,0,49291,3757,1607,2416,2410,8487,6064,2854,Tag0,unknown
1610799204085,200,-263,-5.7788085937500005E-5,0,0,0,49291,3757,1607,2416,2410,8487,6064,2854,Tag0,unknown
1610799204102,200,35,7.6904296875E-6,0,0,0,49291,3757,1607,2416,2410,8487,6064,2854,Tag0,unknown
1610799204112,200,-262,-5.7568359375E-5,0,0,0,49291,3757,1607,2416,2410,8487,6064,2854,Tag0,unknown
1610799204124,200,32,7.03125E-6,0,0,0,49291,3757,1607,2416,2410,8487,6064,2854,Tag0,unknown
1610799204134,200,55,1.20849609375E-5,0,0,0,49291,3757,1607,2416,2410,8487,6064,2854,Tag0,unknown
1610799204155,200,75,1.64794921875E-5,0,0,0,49291,3757,1607,2416,2410,8487,6064,2854,Tag0,unknown
1610799204165,200,-125,-2.74658203125E-5,0,0,0,49291,3757,1607,2416,2410,8487,6064,2854,Tag0,unknown
1610799204180,200,-127,-2.79052734375E-5,0,0,0,49291,3757,1607,2416,2410,8487,6064,2854,Tag0,unknown
1610799204198,200,115,2.52685546875E-5,0,0,0,49291,3757,1607,2416,2410,8487,6064,2854,Tag0,unknown
1610799204213,200,-118,-2.5927734375E-5,0,0,0,49291,3757,1607,2416,2410,8487,6064,2854,Tag0,unknown
1610799204233,200,10,2.197265625E-6,0,0,0,49291,3757,1607,2416,2410,8487,6064,2854,Tag0,unknown
1610799204249,200,59,1.29638671875E-5,0,0,0,49291,3757,1607,2416,2410,8487,6064,2854,Tag0,unknown
1610799204259,200,-128,-2.8125E-5,0,0,0,1251013,97606,29647,20790,16749908,16746451,10027,10580,Tag0,unknown
1610799204280,200,97,2.13134765625E-5,0,0,0,1251013,97606,29647,20790,16749908,16746451,10027,10580,Tag0,unknown
1610799204290,200,87,1.91162109375E-5,0,0,0,1251013,97606,29647,20790,16749908,16746451,10027,10580,Tag0,unknown
1610799204312,200,-293,-6.43798828125E-5,0,0,0,1251013,97606,29647,20790,16749908,16746451,10027,10580,Tag0,unknown
1610799204329,200,-295,-6.48193359375E-5,0,0,0,1251013,97606,29647,20790,16749908,16746451,10027,10580,Tag0,unknown
1610799204345,200,-295,-6.48193359375E-5,0,0,0,1251013,97606,29647,20790,16749908,16746451,10027,10580,Tag0,unknown
1610799204362,200,43,9.448242187500001E-6,0,0,0,1251013,97606,29647,20790,16749908,16746451,10027,10580,Tag0,unknown
1610799204382,200,56,1.23046875E-5,0,0,0,1251013,97606,29647,20790,16749908,16746451,10027,10580,Tag0,unknown
1610799204398,200,61,1.34033203125E-5,0,0,0,1251013,97606,29647,20790,16749908,16746451,10027,10580,Tag0,unknown
1610799204415,200,59,1.29638671875E-5,0,0,0,1251013,97606,29647,20790,16749908,16746451,10027,10580,Tag0,unknown
1610799204432,200,67,1.4721679687500002E-5,0,0,0,1251013,97606,29647,20790,16749908,16746451,10027,10580,Tag0,unknown
1610799204442,200,27,5.9326171875000005E-6,0,0,0,1251013,97606,29647,20790,16749908,16746451,10027,10580,Tag0,unknown
1610799204456,200,96,2.109375E-5,0,0,0,1251013,97606,29647,20790,16749908,16746451,10027,10580,Tag0,unknown
1610799204466,200,-96,-2.109375E-5,0,0,0,1251013,97606,29647,20790,16749908,16746451,10027,10580,Tag0,unknown
1610799204490,200,61,1.34033203125E-5,0,0,0,1251013,97606,29647,20790,16749908,16746451,10027,10580,Tag0,unknown
1610799204500,200,106,2.3291015625000003E-5,0,0,0,1251013,97606,29647,20790,16749908,16746451,10027,10580,Tag0,unknown
1610799204513,200,59,1.29638671875E-5,0,0,0,1251013,97606,29647,20790,16749908,16746451,10027,10580,Tag0,unknown
1610799204541,200,73,1.6040039062500002E-5,0,0,0,1251013,97606,29647,20790,16749908,16746451,10027,10580,Tag0,unknown
1610799204563,200,102,2.2412109374999998E-5,0,0,0,1251013,97606,29647,20790,16749908,16746451,10027,10580,Tag0,unknown
1610799204580,200,38,8.349609375E-6,0,0,0,1251013,97606,29647,20790,16749908,16746451,10027,10580,Tag0,unknown
1610799204598,200,91,1.99951171875E-5,0,0,0,1251013,97606,29647,20790,16749908,16746451,10027,10580,Tag0,unknown
1610799204615,200,77,1.69189453125E-5,0,0,0,1251013,97606,29647,20790,16749908,16746451,10027,10580,Tag0,unknown
1610799204632,200,103,2.26318359375E-5,0,0,0,1251013,97606,29647,20790,16749908,16746451,10027,10580,Tag0,unknown
1610799204642,200,-289,-6.35009765625E-5,0,0,0,1251013,97606,29647,20790,16749908,16746451,10027,10580,Tag0,unknown
1610799204652,200,101,2.2192382812500002E-5,0,0,0,1251013,97606,29647,20790,16749908,16746451,10027,10580,Tag0,unknown
1610799204664,200,29,6.3720703125E-6,0,0,0,1251013,97606,29647,20790,16749908,16746451,10027,10580,Tag0,unknown
1610799204683,200,-308,-6.767578125E-5,0,0,0,1251013,97606,29647,20790,16749908,16746451,10027,10580,Tag0,unknown
1610799204699,200,-263,-5.7788085937500005E-5,0,0,0,1251013,97606,29647,20790,16749908,16746451,10027,10580,Tag0,unknown
1610799204709,200,77,1.69189453125E-5,0,0,0,1251013,97606,29647,20790,16749908,16746451,10027,10580,Tag0,unknown
1610799204723,200,53,1.1645507812500002E-5,0,0,0,1251013,97606,29647,20790,16749908,16746451,10027,10580,Tag0,unknown
1610799204733,200,68,1.4941406250000001E-5,0,0,0,1251013,97606,29647,20790,16749908,16746451,10027,10580,Tag0,unknown
1610799204756,200,106,2.3291015625000003E-5,0,0,0,1251013,97606,29647,20790,16749908,16746451,10027,10580,Tag0,unknown
1610799204767,200,108,2.3730468750000002E-5,0,0,0,1251013,97606,29647,20790,16749908,16746451,10027,10580,Tag0,unknown
1610799204782,200,69,1.51611328125E-5,0,0,0,1251013,97606,29647,20790,16749908,16746451,10027,10580,Tag0,unknown
1610799204797,200,73,1.6040039062500002E-5,0,0,0,1251013,97606,29647,20790,16749908,16746451,10027,10580,Tag0,unknown
1610799204814,200,37,8.1298828125E-6,0,0,0,1251013,97606,29647,20790,16749908,16746451,10027,10580,Tag0,unknown
1610799204830,200,105,2.30712890625E-5,0,0,0,1251013,97606,29647,20790,16749908,16746451,10027,10580,Tag0,unknown
1610799204847,200,-79,-1.7358398437500003E-5,0,0,0,1251013,97606,29647,20790,16749908,16746451,10027,10580,Tag0,unknown
1610799204871,200,73,1.6040039062500002E-5,0,0,0,1251013,97606,29647,20790,16749908,16746451,10027,10580,Tag0,unknown
1610799204882,200,44,9.66796875E-6,0,0,0,1251013,97606,29647,20790,16749908,16746451,10027,10580,Tag0,unknown
1610799204904,200,-281,-6.17431640625E-5,0,0,0,1251013,97606,29647,20790,16749908,16746451,10027,10580,Tag0,unknown
1610799204916,200,-277,-6.0864257812500005E-5,0,0,0,1251013,97606,29647,20790,16749908,16746451,10027,10580,Tag0,unknown
1610799204926,200,82,1.8017578124999998E-5,0,0,0,1251013,97606,29647,20790,16749908,16746451,10027,10580,Tag0,unknown
1610799204943,200,54,1.1865234375000001E-5,0,0,0,1251013,97606,29647,20790,16749908,16746451,10027,10580,Tag0,unknown
1610799204953,200,58,1.2744140625E-5,0,0,0,1251013,97606,29647,20790,16749908,16746451,10027,10580,Tag0,unknown
1610799204965,200,23,5.0537109375E-6,0,0,0,1251013,97606,29647,20790,16749908,16746451,10027,10580,Tag0,unknown
1610799204983,200,19,4.1748046875E-6,0,0,0,1251013,97606,29647,20790,16749908,16746451,10027,10580,Tag0,unknown
1610799204999,200,-321,-7.053222656250001E-5,0,0,0,1251013,97606,29647,20790,16749908,16746451,10027,10580,Tag0,unknown
1610799205009,200,-281,-6.17431640625E-5,0,0,0,1251013,97606,29647,20790,16749908,16746451,10027,10580,Tag0,unknown
1610799205019,200,42,9.228515625000002E-6,0,0,0,1251013,97606,29647,20790,16749908,16746451,10027,10580,Tag0,unknown
1610799205033,200,41,9.008789062499999E-6,0,0,0,1251013,97606,29647,20790,16749908,16746451,10027,10580,Tag0,unknown
1610799205051,200,90,1.9775390625E-5,0,0,0,1251013,97606,29647,20790,16749908,16746451,10027,10580,Tag0,unknown
1610799205066,200,-103,-2.26318359375E-5,0,0,0,1251013,97606,29647,20790,16749908,16746451,10027,10580,Tag0,unknown
1610799205076,200,-78,-1.7138671875E-5,0,0,0,1251013,97606,29647,20790,16749908,16746451,10027,10580,Tag0,unknown
1610799205099,200,89,1.95556640625E-5,0,0,0,1251013,97606,29647,20790,16749908,16746451,10027,10580,Tag0,unknown
1610799205119,200,83,1.82373046875E-5,0,0,0,1251013,97606,29647,20790,16749908,16746451,10027,10580,Tag0,unknown
1610799205130,200,71,1.56005859375E-5,0,0,0,1251013,97606,29647,20790,16749908,16746451,10027,10580,Tag0,unknown
1610799205147,200,58,1.2744140625E-5,0,0,0,1251013,97606,29647,20790,16749908,16746451,10027,10580,Tag0,unknown
1610799205165,200,89,1.95556640625E-5,0,0,0,1251013,97606,29647,20790,16749908,16746451,10027,10580,Tag0,unknown
1610799205193,200,38,8.349609375E-6,0,0,0,1251013,97606,29647,20790,16749908,16746451,10027,10580,Tag0,unknown
1610799205203,200,120,2.63671875E-5,0,0,0,1251013,97606,29647,20790,16749908,16746451,10027,10580,Tag0,unknown
1610799205215,200,68,1.4941406250000001E-5,0,0,0,1251013,97606,29647,20790,16749908,16746451,10027,10580,Tag0,unknown
1610799205233,200,99,2.1752929687500003E-5,0,0,0,1251013,97606,29647,20790,16749908,16746451,10027,10580,Tag0,unknown
1610799205254,200,101,2.2192382812500002E-5,0,0,0,36970,23058,9181,5530,9150,4860,2202,1953,Tag0,unknown
1610799205264,200,64,1.40625E-5,0,0,0,36970,23058,9181,5530,9150,4860,2202,1953,Tag0,unknown
1610799205281,200,-118,-2.5927734375E-5,0,0,0,36970,23058,9181,5530,9150,4860,2202,1953,Tag0,unknown
1610799205346,200,-127,-2.79052734375E-5,0,0,0,36970,23058,9181,5530,9150,4860,2202,1953,Tag0,unknown
1610799205376,200,-118,-2.5927734375E-5,0,0,0,36970,23058,9181,5530,9150,4860,2202,1953,Tag0,unknown
1610799205387,200,-112,-2.4609375E-5,0,0,0,36970,23058,9181,5530,9150,4860,2202,1953,Tag0,unknown
1610799205413,200,57,1.2524414062500001E-5,0,0,0,36970,23058,9181,5530,9150,4860,2202,1953,Tag0,unknown
1610799205433,200,61,1.34033203125E-5,0,0,0,36970,23058,9181,5530,9150,4860,2202,1953,Tag0,unknown
1610799205480,200,12,2.63671875E-6,0,0,0,36970,23058,9181,5530,9150,4860,2202,1953,Tag0,unknown
1610799205500,200,32,7.03125E-6,0,0,0,36970,23058,9181,5530,9150,4860,2202,1953,Tag0,unknown
1610799205510,200,-295,-6.48193359375E-5,0,0,0,36970,23058,9181,5530,9150,4860,2202,1953,Tag0,unknown
1610799205629,200,-299,-6.56982421875E-5,0,0,0,36970,23058,9181,5530,9150,4860,2202,1953,Tag0,unknown
1610799205650,200,-279,-6.13037109375E-5,0,0,0,36970,23058,9181,5530,9150,4860,2202,1953,Tag0,unknown
1610799205660,200,44,9.66796875E-6,0,0,0,36970,23058,9181,5530,9150,4860,2202,1953,Tag0,unknown
1610799205685,200,57,1.2524414062500001E-5,0,0,0,36970,23058,9181,5530,9150,4860,2202,1953,Tag0,unknown
1610799205700,200,49,1.07666015625E-5,0,0,0,36970,23058,9181,5530,9150,4860,2202,1953,Tag0,unknown
1610799205822,200,-257,-5.64697265625E-5,0,0,0,36970,23058,9181,5530,9150,4860,2202,1953,Tag0,unknown
1610799205834,200,48,1.0546875E-5,0,0,0,36970,23058,9181,5530,9150,4860,2202,1953,Tag0,unknown
1610799205844,200,11,2.4169921875E-6,0,0,0,36970,23058,9181,5530,9150,4860,2202,1953,Tag0,unknown
1610799205871,200,43,9.448242187500001E-6,0,0,0,36970,23058,9181,5530,9150,4860,2202,1953,Tag0,unknown
1610799205884,200,65,1.42822265625E-5,0,0,0,36970,23058,9181,5530,9150,4860,2202,1953,Tag0,unknown
1610799205894,200,37,8.1298828125E-6,0,0,0,36970,23058,9181,5530,9150,4860,2202,1953,Tag0,unknown
1610799205907,200,51,1.1206054687499999E-5,0,0,0,36970,23058,9181,5530,9150,4860,2202,1953,Tag0,unknown
1610799205923,200,118,2.5927734375E-5,0,0,0,36970,23058,9181,5530,9150,4860,2202,1953,Tag0,unknown
1610799205933,200,2,4.39453125E-7,0,0,0,36970,23058,9181,5530,9150,4860,2202,1953,Tag0,unknown
1610799205959,200,81,1.77978515625E-5,0,0,0,36970,23058,9181,5530,9150,4860,2202,1953,Tag0,unknown
1610799205981,200,66,1.4501953125E-5,0,0,0,36970,23058,9181,5530,9150,4860,2202,1953,Tag0,unknown
1610799206013,200,25,5.4931640625E-6,0,0,0,36970,23058,9181,5530,9150,4860,2202,1953,Tag0,unknown
1610799206040,200,37,8.1298828125E-6,0,0,0,36970,23058,9181,5530,9150,4860,2202,1953,Tag0,unknown
1610799206090,200,-75,-1.64794921875E-5,0,0,0,36970,23058,9181,5530,9150,4860,2202,1953,Tag0,unknown
1610799206102,200,-124,-2.724609375E-5,0,0,0,36970,23058,9181,5530,9150,4860,2202,1953,Tag0,unknown
1610799206112,200,-269,-5.9106445312499996E-5,0,0,0,36970,23058,9181,5530,9150,4860,2202,1953,Tag0,unknown
1610799206122,200,-289,-6.35009765625E-5,0,0,0,36970,23058,9181,5530,9150,4860,2202,1953,Tag0,unknown
1610799206132,200,16,3.515625E-6,0,0,0,36970,23058,9181,5530,9150,4860,2202,1953,Tag0,unknown
1610799206142,200,70,1.5380859375E-5,0,0,0,36970,23058,9181,5530,9150,4860,2202,1953,Tag0,unknown
1610799206176,200,106,2.3291015625000003E-5,0,0,0,36970,23058,9181,5530,9150,4860,2202,1953,Tag0,unknown
1610799206186,200,66,1.4501953125E-5,0,0,0,36970,23058,9181,5530,9150,4860,2202,1953,Tag0,unknown
1610799206200,200,35,7.6904296875E-6,0,0,0,36970,23058,9181,5530,9150,4860,2202,1953,Tag0,unknown
1610799206234,200,35,7.6904296875E-6,0,0,0,36970,23058,9181,5530,9150,4860,2202,1953,Tag0,unknown
1610799206252,200,17,3.7353515625000003E-6,0,0,0,36970,23058,9181,5530,9150,4860,2202,1953,Tag0,unknown
1610799206262,200,49,1.07666015625E-5,0,0,0,36970,23058,9181,5530,9150,4860,2202,1953,Tag0,unknown
1610799206272,200,11,2.4169921875E-6,0,0,0,105497,16748199,16133,3288,1750,3181,1979,2004,Tag0,unknown
1610799206287,200,48,1.0546875E-5,0,0,0,105497,16748199,16133,3288,1750,3181,1979,2004,Tag0,unknown
1610799206299,200,65,1.42822265625E-5,0,0,0,105497,16748199,16133,3288,1750,3181,1979,2004,Tag0,unknown
1610799206316,200,-99,-2.1752929687500003E-5,0,0,0,105497,16748199,16133,3288,1750,3181,1979,2004,Tag0,unknown
1610799206333,200,71,1.56005859375E-5,0,0,0,105497,16748199,16133,3288,1750,3181,1979,2004,Tag0,unknown
1610799206350,200,99,2.1752929687500003E-5,0,0,0,105497,16748199,16133,3288,1750,3181,1979,2004,Tag0,unknown
1610799206368,200,105,2.30712890625E-5,0,0,0,105497,16748199,16133,3288,1750,3181,1979,2004,Tag0,unknown
1610799206378,200,65,1.42822265625E-5,0,0,0,105497,16748199,16133,3288,1750,3181,1979,2004,Tag0,unknown
1610799206388,200,51,1.1206054687499999E-5,0,0,0,105497,16748199,16133,3288,1750,3181,1979,2004,Tag0,unknown
1610799206402,200,101,2.2192382812500002E-5,0,0,0,105497,16748199,16133,3288,1750,3181,1979,2004,Tag0,unknown
1610799206422,200,88,1.93359375E-5,0,0,0,105497,16748199,16133,3288,1750,3181,1979,2004,Tag0,unknown
1610799206435,200,117,2.5708007812499998E-5,0,0,0,105497,16748199,16133,3288,1750,3181,1979,2004,Tag0,unknown
1610799206445,200,101,2.2192382812500002E-5,0,0,0,105497,16748199,16133,3288,1750,3181,1979,2004,Tag0,unknown
1610799206460,200,37,8.1298828125E-6,0,0,0,105497,16748199,16133,3288,1750,3181,1979,2004,Tag0,unknown
1610799206470,200,67,1.4721679687500002E-5,0,0,0,105497,16748199,16133,3288,1750,3181,1979,2004,Tag0,unknown
1610799206494,200,73,1.6040039062500002E-5,0,0,0,105497,16748199,16133,3288,1750,3181,1979,2004,Tag0,unknown
1610799206504,200,-258,-5.6689453125000004E-5,0,0,0,105497,16748199,16133,3288,1750,3181,1979,2004,Tag0,unknown
1610799206518,200,70,1.5380859375E-5,0,0,0,105497,16748199,16133,3288,1750,3181,1979,2004,Tag0,unknown
1610799206536,200,115,2.52685546875E-5,0,0,0,105497,16748199,16133,3288,1750,3181,1979,2004,Tag0,unknown
1610799206552,200,65,1.42822265625E-5,0,0,0,105497,16748199,16133,3288,1750,3181,1979,2004,Tag0,unknown
1610799206570,200,108,2.3730468750000002E-5,0,0,0,105497,16748199,16133,3288,1750,3181,1979,2004,Tag0,unknown
1610799206586,200,16,3.515625E-6,0,0,0,105497,16748199,16133,3288,1750,3181,1979,2004,Tag0,unknown
1610799206596,200,61,1.34033203125E-5,0,0,0,105497,16748199,16133,3288,1750,3181,1979,2004,Tag0,unknown
1610799206612,200,119,2.6147460937500004E-5,0,0,0,105497,16748199,16133,3288,1750,3181,1979,2004,Tag0,unknown
1610799206622,200,88,1.93359375E-5,0,0,0,105497,16748199,16133,3288,1750,3181,1979,2004,Tag0,unknown
1610799206635,200,76,1.669921875E-5,0,0,0,105497,16748199,16133,3288,1750,3181,1979,2004,Tag0,unknown
1610799206655,200,-79,-1.7358398437500003E-5,0,0,0,105497,16748199,16133,3288,1750,3181,1979,2004,Tag0,unknown
1610799206669,200,-74,-1.6259765625E-5,0,0,0,105497,16748199,16133,3288,1750,3181,1979,2004,Tag0,unknown
1610799206690,200,-103,-2.26318359375E-5,0,0,0,105497,16748199,16133,3288,1750,3181,1979,2004,Tag0,unknown
1610799206703,200,-53,-1.1645507812500002E-5,0,0,0,105497,16748199,16133,3288,1750,3181,1979,2004,Tag0,unknown
1610799206713,200,16,3.515625E-6,0,0,0,105497,16748199,16133,3288,1750,3181,1979,2004,Tag0,unknown
1610799206724,200,25,5.4931640625E-6,0,0,0,105497,16748199,16133,3288,1750,3181,1979,2004,Tag0,unknown
1610799206736,200,58,1.2744140625E-5,0,0,0,105497,16748199,16133,3288,1750,3181,1979,2004,Tag0,unknown
1610799206753,200,125,2.74658203125E-5,0,0,0,105497,16748199,16133,3288,1750,3181,1979,2004,Tag0,unknown
1610799206771,200,-355,-7.80029296875E-5,0,0,0,105497,16748199,16133,3288,1750,3181,1979,2004,Tag0,unknown
1610799206781,200,-214,-4.7021484375E-5,0,0,0,105497,16748199,16133,3288,1750,3181,1979,2004,Tag0,unknown
1610799206791,200,-337,-7.40478515625E-5,0,0,0,105497,16748199,16133,3288,1750,3181,1979,2004,Tag0,unknown
1610799206801,200,-237,-5.2075195312500004E-5,0,0,0,105497,16748199,16133,3288,1750,3181,1979,2004,Tag0,unknown
1610799206818,200,-253,-5.55908203125E-5,0,0,0,105497,16748199,16133,3288,1750,3181,1979,2004,Tag0,unknown
1610799206834,200,-315,-6.92138671875E-5,0,0,0,105497,16748199,16133,3288,1750,3181,1979,2004,Tag0,unknown
1610799206851,200,-297,-6.525878906250001E-5,0,0,0,105497,16748199,16133,3288,1750,3181,1979,2004,Tag0,unknown
1610799206875,200,-354,-7.778320312500001E-5,0,0,0,105497,16748199,16133,3288,1750,3181,1979,2004,Tag0,unknown
1610799206886,200,-278,-6.108398437500001E-5,0,0,0,105497,16748199,16133,3288,1750,3181,1979,2004,Tag0,unknown
1610799206910,200,-105,-2.30712890625E-5,0,0,0,105497,16748199,16133,3288,1750,3181,1979,2004,Tag0,unknown
1610799206920,200,-96,-2.109375E-5,0,0,0,105497,16748199,16133,3288,1750,3181,1979,2004,Tag0,unknown
1610799206930,200,-15,-3.2958984375E-6,0,0,0,105497,16748199,16133,3288,1750,3181,1979,2004,Tag0,unknown
1610799206940,200,-38,-8.349609375E-6,0,0,0,105497,16748199,16133,3288,1750,3181,1979,2004,Tag0,unknown
1610799206953,200,-58,-1.2744140625E-5,0,0,0,105497,16748199,16133,3288,1750,3181,1979,2004,Tag0,unknown
1610799206983,200,57,1.2524414062500001E-5,0,0,0,105497,16748199,16133,3288,1750,3181,1979,2004,Tag0,unknown
1610799207004,200,115,2.52685546875E-5,0,0,0,105497,16748199,16133,3288,1750,3181,1979,2004,Tag0,unknown
1610799207014,200,-289,-6.35009765625E-5,0,0,0,105497,16748199,16133,3288,1750,3181,1979,2004,Tag0,unknown
1610799207024,200,113,2.48291015625E-5,0,0,0,105497,16748199,16133,3288,1750,3181,1979,2004,Tag0,unknown
1610799207034,200,-118,-2.5927734375E-5,0,0,0,105497,16748199,16133,3288,1750,3181,1979,2004,Tag0,unknown
1610799207054,200,-381,-8.371582031250001E-5,0,0,0,105497,16748199,16133,3288,1750,3181,1979,2004,Tag0,unknown
1610799207069,200,-306,-6.723632812500001E-5,0,0,0,105497,16748199,16133,3288,1750,3181,1979,2004,Tag0,unknown
1610799207079,200,-357,-7.844238281250001E-5,0,0,0,105497,16748199,16133,3288,1750,3181,1979,2004,Tag0,unknown
1610799207106,200,-365,-8.02001953125E-5,0,0,0,105497,16748199,16133,3288,1750,3181,1979,2004,Tag0,unknown
1610799207120,200,-153,-3.3618164062500004E-5,0,0,0,105497,16748199,16133,3288,1750,3181,1979,2004,Tag0,unknown
1610799207130,200,-277,-6.0864257812500005E-5,0,0,0,105497,16748199,16133,3288,1750,3181,1979,2004,Tag0,unknown
1610799207142,200,-44,-9.66796875E-6,0,0,0,105497,16748199,16133,3288,1750,3181,1979,2004,Tag0,unknown
1610799207153,200,-53,-1.1645507812500002E-5,0,0,0,105497,16748199,16133,3288,1750,3181,1979,2004,Tag0,unknown
1610799207175,200,-162,-3.5595703125E-5,0,0,0,105497,16748199,16133,3288,1750,3181,1979,2004,Tag0,unknown
1610799207187,200,-152,-3.33984375E-5,0,0,0,105497,16748199,16133,3288,1750,3181,1979,2004,Tag0,unknown
1610799207197,200,-503,-1.105224609375E-4,0,0,0,105497,16748199,16133,3288,1750,3181,1979,2004,Tag0,unknown
1610799207208,200,-705,-1.549072265625E-4,0,0,0,105497,16748199,16133,3288,1750,3181,1979,2004,Tag0,unknown
1610799207222,200,-1061,-2.331298828125E-4,0,0,0,105497,16748199,16133,3288,1750,3181,1979,2004,Tag0,unknown
1610799207246,200,-1079,-2.3708496093750002E-4,0,0,0,218382,74815,28909,25860,4163,9610,11427,7163,Tag0,unknown
1610799207268,200,33,7.2509765625E-6,0,0,0,218382,74815,28909,25860,4163,9610,11427,7163,Tag0,unknown
1610799207291,200,1033,2.2697753906250002E-4,0,0,0,218382,74815,28909,25860,4163,9610,11427,7163,Tag0,unknown
1610799207302,200,1101,2.419189453125E-4,0,0,0,218382,74815,28909,25860,4163,9610,11427,7163,Tag0,unknown
1610799207328,200,1608,3.533203125E-4,0,0,0,218382,74815,28909,25860,4163,9610,11427,7163,Tag0,unknown
1610799207339,200,1573,3.456298828125E-4,0,0,0,218382,74815,28909,25860,4163,9610,11427,7163,Tag0,unknown
1610799207364,200,642,1.4106445312500002E-4,0,0,0,218382,74815,28909,25860,4163,9610,11427,7163,Tag0,unknown
1610799207374,200,778,1.70947265625E-4,0,0,0,218382,74815,28909,25860,4163,9610,11427,7163,Tag0,unknown
1610799207388,200,515,1.131591796875E-4,0,0,0,218382,74815,28909,25860,4163,9610,11427,7163,Tag0,unknown
1610799207398,200,18,3.955078125E-6,0,0,0,218382,74815,28909,25860,4163,9610,11427,7163,Tag0,unknown
1610799207408,200,-593,-1.3029785156250002E-4,0,0,0,218382,74815,28909,25860,4163,9610,11427,7163,Tag0,unknown
1610799207422,200,-413,-9.07470703125E-5,0,0,0,218382,74815,28909,25860,4163,9610,11427,7163,Tag0,unknown
1610799207439,200,-573,-1.259033203125E-4,0,0,0,218382,74815,28909,25860,4163,9610,11427,7163,Tag0,unknown
1610799207455,200,-401,-8.811035156250001E-5,0,0,0,218382,74815,28909,25860,4163,9610,11427,7163,Tag0,unknown
1610799207465,200,-813,-1.786376953125E-4,0,0,0,218382,74815,28909,25860,4163,9610,11427,7163,Tag0,unknown
1610799207487,200,-647,-1.421630859375E-4,0,0,0,218382,74815,28909,25860,4163,9610,11427,7163,Tag0,unknown
1610799207506,200,-1105,-2.427978515625E-4,0,0,0,218382,74815,28909,25860,4163,9610,11427,7163,Tag0,unknown
1610799207520,200,-749,-1.645751953125E-4,0,0,0,218382,74815,28909,25860,4163,9610,11427,7163,Tag0,unknown
1610799207546,200,-598,-1.31396484375E-4,0,0,0,218382,74815,28909,25860,4163,9610,11427,7163,Tag0,unknown
1610799207556,200,-610,-1.34033203125E-4,0,0,0,218382,74815,28909,25860,4163,9610,11427,7163,Tag0,unknown
1610799207581,200,-1211,-2.660888671875E-4,0,0,0,218382,74815,28909,25860,4163,9610,11427,7163,Tag0,unknown
1610799207591,200,-1209,-2.656494140625E-4,0,0,0,218382,74815,28909,25860,4163,9610,11427,7163,Tag0,unknown
1610799207606,200,-1511,-3.320068359375E-4,0,0,0,218382,74815,28909,25860,4163,9610,11427,7163,Tag0,unknown
1610799207623,200,-1581,-3.473876953125E-4,0,0,0,218382,74815,28909,25860,4163,9610,11427,7163,Tag0,unknown
1610799207639,200,-930,-2.04345703125E-4,0,0,0,218382,74815,28909,25860,4163,9610,11427,7163,Tag0,unknown
1610799207657,200,-663,-1.456787109375E-4,0,0,0,218382,74815,28909,25860,4163,9610,11427,7163,Tag0,unknown
1610799207673,200,1580,3.4716796875E-4,0,0,0,218382,74815,28909,25860,4163,9610,11427,7163,Tag0,unknown
1610799207684,200,1791,3.935302734375E-4,0,0,0,218382,74815,28909,25860,4163,9610,11427,7163,Tag0,unknown
1610799207703,200,1791,3.935302734375E-4,0,0,0,218382,74815,28909,25860,4163,9610,11427,7163,Tag0,unknown
1610799207726,200,1617,3.552978515625E-4,0,0,0,218382,74815,28909,25860,4163,9610,11427,7163,Tag0,unknown
1610799207737,200,1553,3.412353515625E-4,0,0,0,218382,74815,28909,25860,4163,9610,11427,7163,Tag0,unknown
1610799207753,200,370,8.1298828125E-5,0,0,0,218382,74815,28909,25860,4163,9610,11427,7163,Tag0,unknown
1610799207771,200,358,7.8662109375E-5,0,0,0,218382,74815,28909,25860,4163,9610,11427,7163,Tag0,unknown
1610799207789,200,-25,-5.4931640625E-6,0,0,0,218382,74815,28909,25860,4163,9610,11427,7163,Tag0,unknown
1610799207805,200,99,2.1752929687500003E-5,0,0,0,218382,74815,28909,25860,4163,9610,11427,7163,Tag0,unknown
1610799207823,200,-1112,-2.4433593750000003E-4,0,0,0,218382,74815,28909,25860,4163,9610,11427,7163,Tag0,unknown
1610799207833,200,-1795,-3.944091796875E-4,0,0,0,218382,74815,28909,25860,4163,9610,11427,7163,Tag0,unknown
1610799207844,200,-1793,-3.9396972656250003E-4,0,0,0,218382,74815,28909,25860,4163,9610,11427,7163,Tag0,unknown
1610799207856,200,-1665,-3.658447265625E-4,0,0,0,218382,74815,28909,25860,4163,9610,11427,7163,Tag0,unknown
1610799207874,200,-1493,-3.2805175781250003E-4,0,0,0,218382,74815,28909,25860,4163,9610,11427,7163,Tag0,unknown
1610799207890,200,-1417,-3.1135253906249997E-4,0,0,0,218382,74815,28909,25860,4163,9610,11427,7163,Tag0,unknown
1610799207901,200,-663,-1.456787109375E-4,0,0,0,218382,74815,28909,25860,4163,9610,11427,7163,Tag0,unknown
1610799207919,200,369,8.10791015625E-5,0,0,0,218382,74815,28909,25860,4163,9610,11427,7163,Tag0,unknown
1610799207939,200,197,4.32861328125E-5,0,0,0,218382,74815,28909,25860,4163,9610,11427,7163,Tag0,unknown
1610799207949,200,651,1.430419921875E-4,0,0,0,218382,74815,28909,25860,4163,9610,11427,7163,Tag0,unknown
1610799207961,200,-45,-9.8876953125E-6,0,0,0,218382,74815,28909,25860,4163,9610,11427,7163,Tag0,unknown
1610799207985,200,-1349,-2.9641113281250004E-4,0,0,0,218382,74815,28909,25860,4163,9610,11427,7163,Tag0,unknown
1610799208003,200,-1545,-3.394775390625E-4,0,0,0,218382,74815,28909,25860,4163,9610,11427,7163,Tag0,unknown
1610799208021,200,1791,3.935302734375E-4,0,0,0,218382,74815,28909,25860,4163,9610,11427,7163,Tag0,unknown
1610799208039,200,1791,3.935302734375E-4,0,0,0,218382,74815,28909,25860,4163,9610,11427,7163,Tag0,unknown
1610799208055,200,1399,3.073974609375E-4,0,0,0,218382,74815,28909,25860,4163,9610,11427,7163,Tag0,unknown
1610799208065,200,1101,2.419189453125E-4,0,0,0,218382,74815,28909,25860,4163,9610,11427,7163,Tag0,unknown
1610799208075,200,1305,2.867431640625E-4,0,0,0,218382,74815,28909,25860,4163,9610,11427,7163,Tag0,unknown
1610799208094,200,1107,2.4323730468750002E-4,0,0,0,218382,74815,28909,25860,4163,9610,11427,7163,Tag0,unknown
1610799208106,200,1073,2.357666015625E-4,0,0,0,218382,74815,28909,25860,4163,9610,11427,7163,Tag0,unknown
1610799208131,200,-73,-1.6040039062500002E-5,0,0,0,218382,74815,28909,25860,4163,9610,11427,7163,Tag0,unknown
1610799208165,200,-393,-8.63525390625E-5,0,0,0,218382,74815,28909,25860,4163,9610,11427,7163,Tag0,unknown
1610799208187,200,-1289,-2.8322753906250003E-4,0,0,0,218382,74815,28909,25860,4163,9610,11427,7163,Tag0,unknown
1610799208206,200,-1813,-3.9836425781250004E-4,0,0,0,218382,74815,28909,25860,4163,9610,11427,7163,Tag0,unknown
1610799208222,200,-1521,-3.342041015625E-4,0,0,0,218382,74815,28909,25860,4163,9610,11427,7163,Tag0,unknown
1610799208232,200,-1732,-3.8056640625E-4,0,0,0,1560071,148880,16763626,182640,75124,95667,16773481,28992,Tag0,unknown
1610799208246,200,-1897,-4.168212890625E-4,0,0,0,1560071,148880,16763626,182640,75124,95667,16773481,28992,Tag0,unknown
1610799208256,200,-1511,-3.320068359375E-4,0,0,0,1560071,148880,16763626,182640,75124,95667,16773481,28992,Tag0,unknown
1610799208280,200,-1107,-2.4323730468750002E-4,0,0,0,1560071,148880,16763626,182640,75124,95667,16773481,28992,Tag0,unknown
1610799208290,200,278,6.108398437500001E-5,0,0,0,1560071,148880,16763626,182640,75124,95667,16773481,28992,Tag0,unknown
1610799208304,200,688,1.5117187500000002E-4,0,0,0,1560071,148880,16763626,182640,75124,95667,16773481,28992,Tag0,unknown
1610799208321,200,742,1.6303710937500001E-4,0,0,0,1560071,148880,16763626,182640,75124,95667,16773481,28992,Tag0,unknown
1610799208338,200,824,1.810546875E-4,0,0,0,1560071,148880,16763626,182640,75124,95667,16773481,28992,Tag0,unknown
1610799208356,200,-35,-7.6904296875E-6,0,0,0,1560071,148880,16763626,182640,75124,95667,16773481,28992,Tag0,unknown
1610799208372,200,-617,-1.355712890625E-4,0,0,0,1560071,148880,16763626,182640,75124,95667,16773481,28992,Tag0,unknown
1610799208382,200,-1222,-2.6850585937499997E-4,0,0,0,1560071,148880,16763626,182640,75124,95667,16773481,28992,Tag0,unknown
1610799208393,200,-1531,-3.3640136718750003E-4,0,0,0,1560071,148880,16763626,182640,75124,95667,16773481,28992,Tag0,unknown
1610799208403,200,-1580,-3.4716796875E-4,0,0,0,1560071,148880,16763626,182640,75124,95667,16773481,28992,Tag0,unknown
1610799208418,200,-1228,-2.6982421875E-4,0,0,0,1560071,148880,16763626,182640,75124,95667,16773481,28992,Tag0,unknown
1610799208439,200,-1153,-2.533447265625E-4,0,0,0,1560071,148880,16763626,182640,75124,95667,16773481,28992,Tag0,unknown
1610799208456,200,1891,4.1550292968750005E-4,0,0,0,1560071,148880,16763626,182640,75124,95667,16773481,28992,Tag0,unknown
1610799208472,200,1791,3.935302734375E-4,0,0,0,1560071,148880,16763626,182640,75124,95667,16773481,28992,Tag0,unknown
1610799208482,200,1791,3.935302734375E-4,0,0,0,1560071,148880,16763626,182640,75124,95667,16773481,28992,Tag0,unknown
1610799208495,200,1895,4.163818359375E-4,0,0,0,1560071,148880,16763626,182640,75124,95667,16773481,28992,Tag0,unknown
1610799208507,200,1329,2.9201660156250004E-4,0,0,0,1560071,148880,16763626,182640,75124,95667,16773481,28992,Tag0,unknown
1610799208524,200,914,2.00830078125E-4,0,0,0,1560071,148880,16763626,182640,75124,95667,16773481,28992,Tag0,unknown
1610799208542,200,1110,2.43896484375E-4,0,0,0,1560071,148880,16763626,182640,75124,95667,16773481,28992,Tag0,unknown
1610799208552,200,-360,-7.91015625E-5,0,0,0,1560071,148880,16763626,182640,75124,95667,16773481,28992,Tag0,unknown
1610799208570,200,-583,-1.281005859375E-4,0,0,0,1560071,148880,16763626,182640,75124,95667,16773481,28992,Tag0,unknown
1610799208593,200,-1001,-2.1994628906249998E-4,0,0,0,1560071,148880,16763626,182640,75124,95667,16773481,28992,Tag0,unknown
1610799208604,200,-1306,-2.86962890625E-4,0,0,0,1560071,148880,16763626,182640,75124,95667,16773481,28992,Tag0,unknown
1610799208632,200,-1233,-2.7092285156250003E-4,0,0,0,1560071,148880,16763626,182640,75124,95667,16773481,28992,Tag0,unknown
1610799208642,200,-1161,-2.5510253906250004E-4,0,0,0,1560071,148880,16763626,182640,75124,95667,16773481,28992,Tag0,unknown
1610799208667,200,-828,-1.8193359375000002E-4,0,0,0,1560071,148880,16763626,182640,75124,95667,16773481,28992,Tag0,unknown
1610799208677,200,-406,-8.920898437500001E-5,0,0,0,1560071,148880,16763626,182640,75124,95667,16773481,28992,Tag0,unknown
1610799208692,200,359,7.88818359375E-5,0,0,0,1560071,148880,16763626,182640,75124,95667,16773481,28992,Tag0,unknown
1610799208707,200,515,1.131591796875E-4,0,0,0,1560071,148880,16763626,182640,75124,95667,16773481,28992,Tag0,unknown
1610799208723,200,187,4.10888671875E-5,0,0,0,1560071,148880,16763626,182640,75124,95667,16773481,28992,Tag0,unknown
1610799208741,200,75,1.64794921875E-5,0,0,0,1560071,148880,16763626,182640,75124,95667,16773481,28992,Tag0,unknown
1610799208756,200,-618,-1.35791015625E-4,0,0,0,1560071,148880,16763626,182640,75124,95667,16773481,28992,Tag0,unknown
1610799208767,200,-1658,-3.64306640625E-4,0,0,0,1560071,148880,16763626,182640,75124,95667,16773481,28992,Tag0,unknown
1610799208780,200,-1557,-3.421142578125E-4,0,0,0,1560071,148880,16763626,182640,75124,95667,16773481,28992,Tag0,unknown
1610799208790,200,-1038,-2.28076171875E-4,0,0,0,1560071,148880,16763626,182640,75124,95667,16773481,28992,Tag0,unknown
1610799208816,200,1132,2.4873046875000004E-4,0,0,0,1560071,148880,16763626,182640,75124,95667,16773481,28992,Tag0,unknown
1610799208839,200,1791,3.935302734375E-4,0,0,0,1560071,148880,16763626,182640,75124,95667,16773481,28992,Tag0,unknown
1610799208858,200,1717,3.772705078125E-4,0,0,0,1560071,148880,16763626,182640,75124,95667,16773481,28992,Tag0,unknown
1610799208873,200,1597,3.509033203125E-4,0,0,0,1560071,148880,16763626,182640,75124,95667,16773481,28992,Tag0,unknown
1610799208890,200,1018,2.23681640625E-4,0,0,0,1560071,148880,16763626,182640,75124,95667,16773481,28992,Tag0,unknown
1610799208908,200,728,1.599609375E-4,0,0,0,1560071,148880,16763626,182640,75124,95667,16773481,28992,Tag0,unknown
1610799208918,200,9,1.9775390625E-6,0,0,0,1560071,148880,16763626,182640,75124,95667,16773481,28992,Tag0,unknown
1610799208941,200,-426,-9.3603515625E-5,0,0,0,1560071,148880,16763626,182640,75124,95667,16773481,28992,Tag0,unknown
1610799208959,200,-1220,-2.6806640625E-4,0,0,0,1560071,148880,16763626,182640,75124,95667,16773481,28992,Tag0,unknown
1610799208975,200,-1159,-2.5466308593750003E-4,0,0,0,1560071,148880,16763626,182640,75124,95667,16773481,28992,Tag0,unknown
1610799208985,200,-1405,-3.087158203125E-4,0,0,0,1560071,148880,16763626,182640,75124,95667,16773481,28992,Tag0,unknown
1610799208998,200,-1121,-2.463134765625E-4,0,0,0,1560071,148880,16763626,182640,75124,95667,16773481,28992,Tag0,unknown
1610799209008,200,-565,-1.241455078125E-4,0,0,0,1560071,148880,16763626,182640,75124,95667,16773481,28992,Tag0,unknown
1610799209031,200,-534,-1.17333984375E-4,0,0,0,1560071,148880,16763626,182640,75124,95667,16773481,28992,Tag0,unknown
1610799209041,200,-520,-1.142578125E-4,0,0,0,1560071,148880,16763626,182640,75124,95667,16773481,28992,Tag0,unknown
1610799209058,200,314,6.8994140625E-5,0,0,0,1560071,148880,16763626,182640,75124,95667,16773481,28992,Tag0,unknown
1610799209078,200,274,6.0205078124999997E-5,0,0,0,1560071,148880,16763626,182640,75124,95667,16773481,28992,Tag0,unknown
1610799209088,200,71,1.56005859375E-5,0,0,0,1560071,148880,16763626,182640,75124,95667,16773481,28992,Tag0,unknown
1610799209108,200,49,1.07666015625E-5,0,0,0,1560071,148880,16763626,182640,75124,95667,16773481,28992,Tag0,unknown
1610799209128,200,-54,-1.1865234375000001E-5,0,0,0,1560071,148880,16763626,182640,75124,95667,16773481,28992,Tag0,unknown
1610799209138,200,-403,-8.854980468749999E-5,0,0,0,1560071,148880,16763626,182640,75124,95667,16773481,28992,Tag0,unknown
1610799209148,200,-1643,-3.6101074218750003E-4,0,0,0,1560071,148880,16763626,182640,75124,95667,16773481,28992,Tag0,unknown
1610799209158,200,-1179,-2.5905761718750004E-4,0,0,0,1560071,148880,16763626,182640,75124,95667,16773481,28992,Tag0,unknown
1610799209178,200,-1562,-3.43212890625E-4,0,0,0,1560071,148880,16763626,182640,75124,95667,16773481,28992,Tag0,unknown
1610799209188,200,-1189,-2.612548828125E-4,0,0,0,1560071,148880,16763626,182640,75124,95667,16773481,28992,Tag0,unknown
1610799209214,200,1791,3.935302734375E-4,0,0,0,1560071,148880,16763626,182640,75124,95667,16773481,28992,Tag0,unknown
1610799209224,200,1791,3.935302734375E-4,0,0,0,771396,70094,44098,16762926,26032,16770397,16747710,14570,Tag0,unknown
1610799209241,200,1791,3.935302734375E-4,0,0,0,771396,70094,44098,16762926,26032,16770397,16747710,14570,Tag0,unknown
1610799209256,200,1313,2.885009765625E-4,0,0,0,771396,70094,44098,16762926,26032,16770397,16747710,14570,Tag0,unknown
1610799209274,200,1005,2.208251953125E-4,0,0,0,771396,70094,44098,16762926,26032,16770397,16747710,14570,Tag0,unknown
1610799209291,200,549,1.2062988281250001E-4,0,0,0,771396,70094,44098,16762926,26032,16770397,16747710,14570,Tag0,unknown
1610799209307,200,539,1.1843261718750001E-4,0,0,0,771396,70094,44098,16762926,26032,16770397,16747710,14570,Tag0,unknown
1610799209317,200,-1596,-3.5068359375000003E-4,0,0,0,771396,70094,44098,16762926,26032,16770397,16747710,14570,Tag0,unknown
1610799209330,200,-1335,-2.933349609375E-4,0,0,0,771396,70094,44098,16762926,26032,16770397,16747710,14570,Tag0,unknown
1610799209341,200,-970,-2.13134765625E-4,0,0,0,771396,70094,44098,16762926,26032,16770397,16747710,14570,Tag0,unknown
1610799209364,200,-411,-9.03076171875E-5,0,0,0,771396,70094,44098,16762926,26032,16770397,16747710,14570,Tag0,unknown
1610799209374,200,-627,-1.377685546875E-4,0,0,0,771396,70094,44098,16762926,26032,16770397,16747710,14570,Tag0,unknown
1610799209384,200,-265,-5.82275390625E-5,0,0,0,771396,70094,44098,16762926,26032,16770397,16747710,14570,Tag0,unknown
1610799209405,200,75,1.64794921875E-5,0,0,0,771396,70094,44098,16762926,26032,16770397,16747710,14570,Tag0,unknown
1610799209422,200,-41,-9.008789062499999E-6,0,0,0,771396,70094,44098,16762926,26032,16770397,16747710,14570,Tag0,unknown
1610799209438,200,-40,-8.7890625E-6,0,0,0,771396,70094,44098,16762926,26032,16770397,16747710,14570,Tag0,unknown
1610799209458,200,280,6.15234375E-5,0,0,0,771396,70094,44098,16762926,26032,16770397,16747710,14570,Tag0,unknown
1610799209468,200,121,2.6586914062500003E-5,0,0,0,771396,70094,44098,16762926,26032,16770397,16747710,14570,Tag0,unknown
1610799209479,200,-124,-2.724609375E-5,0,0,0,771396,70094,44098,16762926,26032,16770397,16747710,14570,Tag0,unknown
1610799209491,200,56,1.23046875E-5,0,0,0,771396,70094,44098,16762926,26032,16770397,16747710,14570,Tag0,unknown
1610799209511,200,43,9.448242187500001E-6,0,0,0,771396,70094,44098,16762926,26032,16770397,16747710,14570,Tag0,unknown
1610799209524,200,71,1.56005859375E-5,0,0,0,771396,70094,44098,16762926,26032,16770397,16747710,14570,Tag0,unknown
1610799209534,200,-165,-3.62548828125E-5,0,0,0,771396,70094,44098,16762926,26032,16770397,16747710,14570,Tag0,unknown
1610799209549,200,-327,-7.18505859375E-5,0,0,0,771396,70094,44098,16762926,26032,16770397,16747710,14570,Tag0,unknown
1610799209559,200,-173,-3.80126953125E-5,0,0,0,771396,70094,44098,16762926,26032,16770397,16747710,14570,Tag0,unknown
1610799209584,200,309,6.78955078125E-5,0,0,0,771396,70094,44098,16762926,26032,16770397,16747710,14570,Tag0,unknown
1610799209594,200,25,5.4931640625E-6,0,0,0,771396,70094,44098,16762926,26032,16770397,16747710,14570,Tag0,unknown
1610799209609,200,340,7.470703125E-5,0,0,0,771396,70094,44098,16762926,26032,16770397,16747710,14570,Tag0,unknown
1610799209624,200,-277,-6.0864257812500005E-5,0,0,0,771396,70094,44098,16762926,26032,16770397,16747710,14570,Tag0,unknown
1610799209639,200,93,2.04345703125E-5,0,0,0,771396,70094,44098,16762926,26032,16770397,16747710,14570,Tag0,unknown
1610799209661,200,-183,-4.02099609375E-5,0,0,0,771396,70094,44098,16762926,26032,16770397,16747710,14570,Tag0,unknown
1610799209673,200,-136,-2.9882812500000002E-5,0,0,0,771396,70094,44098,16762926,26032,16770397,16747710,14570,Tag0,unknown
1610799209698,200,261,5.73486328125E-5,0,0,0,771396,70094,44098,16762926,26032,16770397,16747710,14570,Tag0,unknown
1610799209708,200,285,6.26220703125E-5,0,0,0,771396,70094,44098,16762926,26032,16770397,16747710,14570,Tag0,unknown
1610799209732,200,-277,-6.0864257812500005E-5,0,0,0,771396,70094,44098,16762926,26032,16770397,16747710,14570,Tag0,unknown
1610799209742,200,-315,-6.92138671875E-5,0,0,0,771396,70094,44098,16762926,26032,16770397,16747710,14570,Tag0,unknown
1610799209752,200,-467,-1.026123046875E-4,0,0,0,771396,70094,44098,16762926,26032,16770397,16747710,14570,Tag0,unknown
1610799209762,200,-530,-1.16455078125E-4,0,0,0,771396,70094,44098,16762926,26032,16770397,16747710,14570,Tag0,unknown
1610799209775,200,-347,-7.62451171875E-5,0,0,0,771396,70094,44098,16762926,26032,16770397,16747710,14570,Tag0,unknown
1610799209792,200,-339,-7.448730468750001E-5,0,0,0,771396,70094,44098,16762926,26032,16770397,16747710,14570,Tag0,unknown
1610799209809,200,-321,-7.053222656250001E-5,0,0,0,771396,70094,44098,16762926,26032,16770397,16747710,14570,Tag0,unknown
1610799209828,200,-79,-1.7358398437500003E-5,0,0,0,771396,70094,44098,16762926,26032,16770397,16747710,14570,Tag0,unknown
1610799209838,200,-309,-6.78955078125E-5,0,0,0,771396,70094,44098,16762926,26032,16770397,16747710,14570,Tag0,unknown
1610799209848,200,109,2.39501953125E-5,0,0,0,771396,70094,44098,16762926,26032,16770397,16747710,14570,Tag0,unknown
1610799209873,200,145,3.18603515625E-5,0,0,0,771396,70094,44098,16762926,26032,16770397,16747710,14570,Tag0,unknown
1610799209889,200,355,7.80029296875E-5,0,0,0,771396,70094,44098,16762926,26032,16770397,16747710,14570,Tag0,unknown
1610799209914,200,-69,-1.51611328125E-5,0,0,0,771396,70094,44098,16762926,26032,16770397,16747710,14570,Tag0,unknown
1610799209929,200,-75,-1.64794921875E-5,0,0,0,771396,70094,44098,16762926,26032,16770397,16747710,14570,Tag0,unknown
1610799209940,200,-7,-1.5380859375E-6,0,0,0,771396,70094,44098,16762926,26032,16770397,16747710,14570,Tag0,unknown
1610799209960,200,-127,-2.79052734375E-5,0,0,0,771396,70094,44098,16762926,26032,16770397,16747710,14570,Tag0,unknown
1610799209975,200,-132,-2.900390625E-5,0,0,0,771396,70094,44098,16762926,26032,16770397,16747710,14570,Tag0,unknown
1610799209992,200,-814,-1.78857421875E-4,0,0,0,771396,70094,44098,16762926,26032,16770397,16747710,14570,Tag0,unknown
1610799210009,200,-1597,-3.509033203125E-4,0,0,0,771396,70094,44098,16762926,26032,16770397,16747710,14570,Tag0,unknown
1610799210026,200,-1467,-3.223388671875E-4,0,0,0,771396,70094,44098,16762926,26032,16770397,16747710,14570,Tag0,unknown
1610799210041,200,-1513,-3.3244628906250003E-4,0,0,0,771396,70094,44098,16762926,26032,16770397,16747710,14570,Tag0,unknown
1610799210051,200,-1345,-2.955322265625E-4,0,0,0,771396,70094,44098,16762926,26032,16770397,16747710,14570,Tag0,unknown
1610799210070,200,-963,-2.115966796875E-4,0,0,0,771396,70094,44098,16762926,26032,16770397,16747710,14570,Tag0,unknown
1610799210080,200,-635,-1.395263671875E-4,0,0,0,771396,70094,44098,16762926,26032,16770397,16747710,14570,Tag0,unknown
1610799210090,200,-128,-2.8125E-5,0,0,0,771396,70094,44098,16762926,26032,16770397,16747710,14570,Tag0,unknown
1610799210109,200,1460,3.2080078125E-4,0,0,0,771396,70094,44098,16762926,26032,16770397,16747710,14570,Tag0,unknown
1610799210133,200,1810,3.97705078125E-4,0,0,0,771396,70094,44098,16762926,26032,16770397,16747710,14570,Tag0,unknown
1610799210156,200,1791,3.935302734375E-4,0,0,0,771396,70094,44098,16762926,26032,16770397,16747710,14570,Tag0,unknown
1610799210166,200,759,1.667724609375E-4,0,0,0,771396,70094,44098,16762926,26032,16770397,16747710,14570,Tag0,unknown
1610799210180,200,689,1.513916015625E-4,0,0,0,771396,70094,44098,16762926,26032,16770397,16747710,14570,Tag0,unknown
1610799210191,200,888,1.951171875E-4,0,0,0,771396,70094,44098,16762926,26032,16770397,16747710,14570,Tag0,unknown
1610799210214,200,-89,-1.95556640625E-5,0,0,0,771396,70094,44098,16762926,26032,16770397,16747710,14570,Tag0,unknown
1610799210225,200,122,2.6806640625E-5,0,0,0,771396,70094,44098,16762926,26032,16770397,16747710,14570,Tag0,unknown
1610799210235,200,-1078,-2.3686523437500002E-4,0,0,0,380769,320632,279266,33525,16757082,17756,13265,11650,Tag0,unknown
1610799210252,200,-676,-1.4853515624999999E-4,0,0,0,380769,320632,279266,33525,16757082,17756,13265,11650,Tag0,unknown
1610799210273,200,-612,-1.3447265625000002E-4,0,0,0,380769,320632,279266,33525,16757082,17756,13265,11650,Tag0,unknown
1610799210295,200,-726,-1.59521484375E-4,0,0,0,380769,320632,279266,33525,16757082,17756,13265,11650,Tag0,unknown
1610799210310,200,-681,-1.496337890625E-4,0,0,0,380769,320632,279266,33525,16757082,17756,13265,11650,Tag0,unknown
1610799210320,200,-609,-1.338134765625E-4,0,0,0,380769,320632,279266,33525,16757082,17756,13265,11650,Tag0,unknown
1610799210365,200,-168,-3.691406250000001E-5,0,0,0,380769,320632,279266,33525,16757082,17756,13265,11650,Tag0,unknown
1610799210376,200,-341,-7.492675781250002E-5,0,0,0,380769,320632,279266,33525,16757082,17756,13265,11650,Tag0,unknown
1610799210435,200,826,1.81494140625E-4,0,0,0,380769,320632,279266,33525,16757082,17756,13265,11650,Tag0,unknown
1610799210445,200,1048,2.302734375E-4,0,0,0,380769,320632,279266,33525,16757082,17756,13265,11650,Tag0,unknown
1610799210506,200,228,5.0097656250000005E-5,0,0,0,380769,320632,279266,33525,16757082,17756,13265,11650,Tag0,unknown
1610799210527,200,133,2.92236328125E-5,0,0,0,380769,320632,279266,33525,16757082,17756,13265,11650,Tag0,unknown
1610799210643,200,-589,-1.294189453125E-4,0,0,0,380769,320632,279266,33525,16757082,17756,13265,11650,Tag0,unknown
1610799210670,200,-777,-1.707275390625E-4,0,0,0,380769,320632,279266,33525,16757082,17756,13265,11650,Tag0,unknown
1610799210680,200,-1547,-3.3991699218749997E-4,0,0,0,380769,320632,279266,33525,16757082,17756,13265,11650,Tag0,unknown
1610799210691,200,-1667,-3.662841796875E-4,0,0,0,380769,320632,279266,33525,16757082,17756,13265,11650,Tag0,unknown
1610799210711,200,-1672,-3.673828125E-4,0,0,0,380769,320632,279266,33525,16757082,17756,13265,11650,Tag0,unknown
1610799210726,200,-1531,-3.3640136718750003E-4,0,0,0,380769,320632,279266,33525,16757082,17756,13265,11650,Tag0,unknown
1610799210778,200,-1545,-3.394775390625E-4,0,0,0,380769,320632,279266,33525,16757082,17756,13265,11650,Tag0,unknown
1610799210797,200,-1157,-2.542236328125E-4,0,0,0,380769,320632,279266,33525,16757082,17756,13265,11650,Tag0,unknown
1610799210807,200,-230,-5.0537109375E-5,0,0,0,380769,320632,279266,33525,16757082,17756,13265,11650,Tag0,unknown
1610799210841,200,1430,3.14208984375E-4,0,0,0,380769,320632,279266,33525,16757082,17756,13265,11650,Tag0,unknown
1610799210866,200,1713,3.763916015625E-4,0,0,0,380769,320632,279266,33525,16757082,17756,13265,11650,Tag0,unknown
1610799210877,200,1791,3.935302734375E-4,0,0,0,380769,320632,279266,33525,16757082,17756,13265,11650,Tag0,unknown
1610799210892,200,1791,3.935302734375E-4,0,0,0,380769,320632,279266,33525,16757082,17756,13265,11650,Tag0,unknown
1610799210902,200,1207,2.652099609375E-4,0,0,0,380769,320632,279266,33525,16757082,17756,13265,11650,Tag0,unknown
1610799210912,200,871,1.9138183593749998E-4,0,0,0,380769,320632,279266,33525,16757082,17756,13265,11650,Tag0,unknown
1610799210922,200,-1495,-3.284912109375E-4,0,0,0,380769,320632,279266,33525,16757082,17756,13265,11650,Tag0,unknown
1610799210933,200,1130,2.48291015625E-4,0,0,0,380769,320632,279266,33525,16757082,17756,13265,11650,Tag0,unknown
1610799210943,200,-1225,-2.691650390625E-4,0,0,0,380769,320632,279266,33525,16757082,17756,13265,11650,Tag0,unknown
1610799210953,200,1791,3.935302734375E-4,0,0,0,380769,320632,279266,33525,16757082,17756,13265,11650,Tag0,unknown
1610799210980,200,1008,2.21484375E-4,0,0,0,380769,320632,279266,33525,16757082,17756,13265,11650,Tag0,unknown
1610799210992,200,1098,2.4125976562500002E-4,0,0,0,380769,320632,279266,33525,16757082,17756,13265,11650,Tag0,unknown
1610799211010,200,801,1.760009765625E-4,0,0,0,380769,320632,279266,33525,16757082,17756,13265,11650,Tag0,unknown
1610799211032,200,215,4.72412109375E-5,0,0,0,380769,320632,279266,33525,16757082,17756,13265,11650,Tag0,unknown
1610799211048,200,183,4.02099609375E-5,0,0,0,380769,320632,279266,33525,16757082,17756,13265,11650,Tag0,unknown
1610799211058,200,84,1.8457031250000004E-5,0,0,0,380769,320632,279266,33525,16757082,17756,13265,11650,Tag0,unknown
1610799211077,200,60,1.318359375E-5,0,0,0,380769,320632,279266,33525,16757082,17756,13265,11650,Tag0,unknown
1610799211087,200,-819,-1.799560546875E-4,0,0,0,380769,320632,279266,33525,16757082,17756,13265,11650,Tag0,unknown
1610799211097,200,-1565,-3.438720703125E-4,0,0,0,380769,320632,279266,33525,16757082,17756,13265,11650,Tag0,unknown
1610799211114,200,-1640,-3.603515625E-4,0,0,0,380769,320632,279266,33525,16757082,17756,13265,11650,Tag0,unknown
1610799211125,200,-2048,-4.5E-4,0,0,0,380769,320632,279266,33525,16757082,17756,13265,11650,Tag0,unknown
1610799211147,200,-2148,-4.7197265625E-4,0,0,0,380769,320632,279266,33525,16757082,17756,13265,11650,Tag0,unknown
1610799211159,200,-1748,-3.8408203125000004E-4,0,0,0,380769,320632,279266,33525,16757082,17756,13265,11650,Tag0,unknown
1610799211181,200,-946,-2.0786132812499998E-4,0,0,0,380769,320632,279266,33525,16757082,17756,13265,11650,Tag0,unknown
1610799211195,200,-920,-2.021484375E-4,0,0,0,380769,320632,279266,33525,16757082,17756,13265,11650,Tag0,unknown
1610799211205,200,1113,2.445556640625E-4,0,0,0,380769,320632,279266,33525,16757082,17756,13265,11650,Tag0,unknown
1610799211240,200,1791,3.935302734375E-4,0,0,0,1031414,32263,69778,16768801,16757981,29381,22186,13775,Tag0,unknown
1610799211250,200,1791,3.935302734375E-4,0,0,0,1031414,32263,69778,16768801,16757981,29381,22186,13775,Tag0,unknown
1610799211260,200,1801,3.957275390625E-4,0,0,0,1031414,32263,69778,16768801,16757981,29381,22186,13775,Tag0,unknown
1610799211286,200,905,1.988525390625E-4,0,0,0,1031414,32263,69778,16768801,16757981,29381,22186,13775,Tag0,unknown
1610799211296,200,507,1.1140136718750001E-4,0,0,0,1031414,32263,69778,16768801,16757981,29381,22186,13775,Tag0,unknown
1610799211310,200,481,1.056884765625E-4,0,0,0,1031414,32263,69778,16768801,16757981,29381,22186,13775,Tag0,unknown
1610799211333,200,327,7.18505859375E-5,0,0,0,1031414,32263,69778,16768801,16757981,29381,22186,13775,Tag0,unknown
1610799211344,200,275,6.04248046875E-5,0,0,0,1031414,32263,69778,16768801,16757981,29381,22186,13775,Tag0,unknown
1610799211354,200,-213,-4.68017578125E-5,0,0,0,1031414,32263,69778,16768801,16757981,29381,22186,13775,Tag0,unknown
1610799211367,200,-535,-1.175537109375E-4,0,0,0,1031414,32263,69778,16768801,16757981,29381,22186,13775,Tag0,unknown
1610799211378,200,-534,-1.17333984375E-4,0,0,0,1031414,32263,69778,16768801,16757981,29381,22186,13775,Tag0,unknown
1610799211388,200,-1337,-2.937744140625E-4,0,0,0,1031414,32263,69778,16768801,16757981,29381,22186,13775,Tag0,unknown
1610799211398,200,-1128,-2.478515625E-4,0,0,0,1031414,32263,69778,16768801,16757981,29381,22186,13775,Tag0,unknown
1610799211411,200,-1000,-2.197265625E-4,0,0,0,1031414,32263,69778,16768801,16757981,29381,22186,13775,Tag0,unknown
1610799211427,200,-435,-9.55810546875E-5,0,0,0,1031414,32263,69778,16768801,16757981,29381,22186,13775,Tag0,unknown
1610799211444,200,-796,-1.7490234374999998E-4,0,0,0,1031414,32263,69778,16768801,16757981,29381,22186,13775,Tag0,unknown
1610799211461,200,-493,-1.083251953125E-4,0,0,0,1031414,32263,69778,16768801,16757981,29381,22186,13775,Tag0,unknown
1610799211480,200,-1028,-2.2587890625E-4,0,0,0,1031414,32263,69778,16768801,16757981,29381,22186,13775,Tag0,unknown
1610799211494,200,-745,-1.636962890625E-4,0,0,0,1031414,32263,69778,16768801,16757981,29381,22186,13775,Tag0,unknown
1610799211514,200,-1323,-2.906982421875E-4,0,0,0,1031414,32263,69778,16768801,16757981,29381,22186,13775,Tag0,unknown
1610799211530,200,-962,-2.11376953125E-4,0,0,0,1031414,32263,69778,16768801,16757981,29381,22186,13775,Tag0,unknown
1610799211540,200,-841,-1.847900390625E-4,0,0,0,1031414,32263,69778,16768801,16757981,29381,22186,13775,Tag0,unknown
1610799211551,200,-1141,-2.5070800781250004E-4,0,0,0,1031414,32263,69778,16768801,16757981,29381,22186,13775,Tag0,unknown
1610799211561,200,-1163,-2.555419921875E-4,0,0,0,1031414,32263,69778,16768801,16757981,29381,22186,13775,Tag0,unknown
1610799211585,200,-661,-1.452392578125E-4,0,0,0,1031414,32263,69778,16768801,16757981,29381,22186,13775,Tag0,unknown
1610799211595,200,-925,-2.032470703125E-4,0,0,0,1031414,32263,69778,16768801,16757981,29381,22186,13775,Tag0,unknown
1610799211611,200,-503,-1.105224609375E-4,0,0,0,1031414,32263,69778,16768801,16757981,29381,22186,13775,Tag0,unknown
1610799211628,200,-91,-1.99951171875E-5,0,0,0,1031414,32263,69778,16768801,16757981,29381,22186,13775,Tag0,unknown
1610799211645,200,467,1.026123046875E-4,0,0,0,1031414,32263,69778,16768801,16757981,29381,22186,13775,Tag0,unknown
1610799211662,200,1075,2.362060546875E-4,0,0,0,1031414,32263,69778,16768801,16757981,29381,22186,13775,Tag0,unknown
1610799211679,200,1117,2.454345703125E-4,0,0,0,1031414,32263,69778,16768801,16757981,29381,22186,13775,Tag0,unknown
1610799211689,200,681,1.496337890625E-4,0,0,0,1031414,32263,69778,16768801,16757981,29381,22186,13775,Tag0,unknown
1610799211699,200,1052,2.3115234375000002E-4,0,0,0,1031414,32263,69778,16768801,16757981,29381,22186,13775,Tag0,unknown
1610799211711,200,981,2.155517578125E-4,0,0,0,1031414,32263,69778,16768801,16757981,29381,22186,13775,Tag0,unknown
1610799211732,200,659,1.4479980468750002E-4,0,0,0,1031414,32263,69778,16768801,16757981,29381,22186,13775,Tag0,unknown
1610799211745,200,838,1.8413085937500002E-4,0,0,0,1031414,32263,69778,16768801,16757981,29381,22186,13775,Tag0,unknown
1610799211755,200,643,1.412841796875E-4,0,0,0,1031414,32263,69778,16768801,16757981,29381,22186,13775,Tag0,unknown
1610799211772,200,737,1.6193847656250003E-4,0,0,0,1031414,32263,69778,16768801,16757981,29381,22186,13775,Tag0,unknown
1610799211793,200,566,1.2436523437500002E-4,0,0,0,1031414,32263,69778,16768801,16757981,29381,22186,13775,Tag0,unknown
1610799211810,200,545,1.197509765625E-4,0,0,0,1031414,32263,69778,16768801,16757981,29381,22186,13775,Tag0,unknown
1610799211827,200,177,3.8891601562500006E-5,0,0,0,1031414,32263,69778,16768801,16757981,29381,22186,13775,Tag0,unknown
1610799211837,200,-15,-3.2958984375E-6,0,0,0,1031414,32263,69778,16768801,16757981,29381,22186,13775,Tag0,unknown
1610799211847,200,165,3.62548828125E-5,0,0,0,1031414,32263,69778,16768801,16757981,29381,22186,13775,Tag0,unknown
1610799211862,200,-4,-8.7890625E-7,0,0,0,1031414,32263,69778,16768801,16757981,29381,22186,13775,Tag0,unknown
1610799211879,200,-362,-7.954101562500001E-5,0,0,0,1031414,32263,69778,16768801,16757981,29381,22186,13775,Tag0,unknown
1610799211896,200,-293,-6.43798828125E-5,0,0,0,1031414,32263,69778,16768801,16757981,29381,22186,13775,Tag0,unknown
1610799211906,200,-372,-8.173828125E-5,0,0,0,1031414,32263,69778,16768801,16757981,29381,22186,13775,Tag0,unknown
1610799211919,200,-373,-8.19580078125E-5,0,0,0,1031414,32263,69778,16768801,16757981,29381,22186,13775,Tag0,unknown
1610799211929,200,-213,-4.68017578125E-5,0,0,0,1031414,32263,69778,16768801,16757981,29381,22186,13775,Tag0,unknown
1610799211953,200,-249,-5.47119140625E-5,0,0,0,1031414,32263,69778,16768801,16757981,29381,22186,13775,Tag0,unknown
1610799211963,200,-394,-8.6572265625E-5,0,0,0,1031414,32263,69778,16768801,16757981,29381,22186,13775,Tag0,unknown
1610799211973,200,-519,-1.140380859375E-4,0,0,0,1031414,32263,69778,16768801,16757981,29381,22186,13775,Tag0,unknown
1610799212036,200,-521,-1.1447753906250001E-4,0,0,0,1031414,32263,69778,16768801,16757981,29381,22186,13775,Tag0,unknown
1610799212046,200,-151,-3.31787109375E-5,0,0,0,1031414,32263,69778,16768801,16757981,29381,22186,13775,Tag0,unknown
1610799212056,200,109,2.39501953125E-5,0,0,0,1031414,32263,69778,16768801,16757981,29381,22186,13775,Tag0,unknown
1610799212066,200,124,2.724609375E-5,0,0,0,1031414,32263,69778,16768801,16757981,29381,22186,13775,Tag0,unknown
1610799212076,200,517,1.135986328125E-4,0,0,0,1031414,32263,69778,16768801,16757981,29381,22186,13775,Tag0,unknown
1610799212096,200,-27,-5.9326171875000005E-6,0,0,0,1031414,32263,69778,16768801,16757981,29381,22186,13775,Tag0,unknown
1610799212122,200,-62,-1.3623046875E-5,0,0,0,1031414,32263,69778,16768801,16757981,29381,22186,13775,Tag0,unknown
1610799212132,200,-625,-1.373291015625E-4,0,0,0,1031414,32263,69778,16768801,16757981,29381,22186,13775,Tag0,unknown
1610799212142,200,-530,-1.16455078125E-4,0,0,0,1031414,32263,69778,16768801,16757981,29381,22186,13775,Tag0,unknown
1610799212160,200,-333,-7.316894531249999E-5,0,0,0,1031414,32263,69778,16768801,16757981,29381,22186,13775,Tag0,unknown
1610799212177,200,-120,-2.63671875E-5,0,0,0,1031414,32263,69778,16768801,16757981,29381,22186,13775,Tag0,unknown
1610799212222,200,69,1.51611328125E-5,0,0,0,1031414,32263,69778,16768801,16757981,29381,22186,13775,Tag0,unknown
1610799212232,200,-95,-2.08740234375E-5,0,0,0,1031414,32263,69778,16768801,16757981,29381,22186,13775,Tag0,unknown
1610799212243,200,49,1.07666015625E-5,0,0,0,1031414,32263,69778,16768801,16757981,29381,22186,13775,Tag0,unknown
1610799212254,200,309,6.78955078125E-5,0,0,0,718776,16755845,16756029,16755910,32060,6128,9366,4680,Tag0,unknown
1610799212264,200,161,3.53759765625E-5,0,0,0,718776,16755845,16756029,16755910,32060,6128,9366,4680,Tag0,unknown
1610799212279,200,282,6.1962890625E-5,0,0,0,718776,16755845,16756029,16755910,32060,6128,9366,4680,Tag0,unknown
1610799212289,200,-311,-6.833496093750001E-5,0,0,0,718776,16755845,16756029,16755910,32060,6128,9366,4680,Tag0,unknown
1610799212300,200,112,2.4609375E-5,0,0,0,718776,16755845,16756029,16755910,32060,6128,9366,4680,Tag0,unknown
1610799212311,200,-178,-3.9111328125E-5,0,0,0,718776,16755845,16756029,16755910,32060,6128,9366,4680,Tag0,unknown
1610799212328,200,96,2.109375E-5,0,0,0,718776,16755845,16756029,16755910,32060,6128,9366,4680,Tag0,unknown
1610799212345,200,-323,-7.09716796875E-5,0,0,0,718776,16755845,16756029,16755910,32060,6128,9366,4680,Tag0,unknown
1610799212361,200,-275,-6.04248046875E-5,0,0,0,718776,16755845,16756029,16755910,32060,6128,9366,4680,Tag0,unknown
1610799212382,200,35,7.6904296875E-6,0,0,0,718776,16755845,16756029,16755910,32060,6128,9366,4680,Tag0,unknown
1610799212397,200,67,1.4721679687500002E-5,0,0,0,718776,16755845,16756029,16755910,32060,6128,9366,4680,Tag0,unknown
1610799212407,200,-118,-2.5927734375E-5,0,0,0,718776,16755845,16756029,16755910,32060,6128,9366,4680,Tag0,unknown
1610799212421,200,33,7.2509765625E-6,0,0,0,718776,16755845,16756029,16755910,32060,6128,9366,4680,Tag0,unknown
1610799212431,200,-115,-2.52685546875E-5,0,0,0,718776,16755845,16756029,16755910,32060,6128,9366,4680,Tag0,unknown
1610799212454,200,-107,-2.35107421875E-5,0,0,0,718776,16755845,16756029,16755910,32060,6128,9366,4680,Tag0,unknown
1610799212464,200,-278,-6.108398437500001E-5,0,0,0,718776,16755845,16756029,16755910,32060,6128,9366,4680,Tag0,unknown
1610799212479,200,-283,-6.218261718750001E-5,0,0,0,718776,16755845,16756029,16755910,32060,6128,9366,4680,Tag0,unknown
1610799212512,200,113,2.48291015625E-5,0,0,0,718776,16755845,16756029,16755910,32060,6128,9366,4680,Tag0,unknown
1610799212528,200,-284,-6.240234375E-5,0,0,0,718776,16755845,16756029,16755910,32060,6128,9366,4680,Tag0,unknown
1610799212575,200,-260,-5.712890625E-5,0,0,0,718776,16755845,16756029,16755910,32060,6128,9366,4680,Tag0,unknown
1610799212603,200,5,1.0986328125E-6,0,0,0,718776,16755845,16756029,16755910,32060,6128,9366,4680,Tag0,unknown
1610799212613,200,-321,-7.053222656250001E-5,0,0,0,718776,16755845,16756029,16755910,32060,6128,9366,4680,Tag0,unknown
1610799212623,200,-290,-6.3720703125E-5,0,0,0,718776,16755845,16756029,16755910,32060,6128,9366,4680,Tag0,unknown
1610799212633,200,101,2.2192382812500002E-5,0,0,0,718776,16755845,16756029,16755910,32060,6128,9366,4680,Tag0,unknown
1610799212646,200,1,2.197265625E-7,0,0,0,718776,16755845,16756029,16755910,32060,6128,9366,4680,Tag0,unknown
1610799212656,200,354,7.778320312500001E-5,0,0,0,718776,16755845,16756029,16755910,32060,6128,9366,4680,Tag0,unknown
1610799212693,200,-47,-1.0327148437500001E-5,0,0,0,718776,16755845,16756029,16755910,32060,6128,9366,4680,Tag0,unknown
1610799212712,200,-75,-1.64794921875E-5,0,0,0,718776,16755845,16756029,16755910,32060,6128,9366,4680,Tag0,unknown
1610799212722,200,21,4.614257812500001E-6,0,0,0,718776,16755845,16756029,16755910,32060,6128,9366,4680,Tag0,unknown
1610799212736,200,51,1.1206054687499999E-5,0,0,0,718776,16755845,16756029,16755910,32060,6128,9366,4680,Tag0,unknown
1610799212746,200,-269,-5.9106445312499996E-5,0,0,0,718776,16755845,16756029,16755910,32060,6128,9366,4680,Tag0,unknown
1610799212771,200,13,2.8564453125E-6,0,0,0,718776,16755845,16756029,16755910,32060,6128,9366,4680,Tag0,unknown
1610799212782,200,17,3.7353515625000003E-6,0,0,0,718776,16755845,16756029,16755910,32060,6128,9366,4680,Tag0,unknown
1610799212792,200,69,1.51611328125E-5,0,0,0,718776,16755845,16756029,16755910,32060,6128,9366,4680,Tag0,unknown
1610799212802,200,-265,-5.82275390625E-5,0,0,0,718776,16755845,16756029,16755910,32060,6128,9366,4680,Tag0,unknown
1610799212814,200,-285,-6.26220703125E-5,0,0,0,718776,16755845,16756029,16755910,32060,6128,9366,4680,Tag0,unknown
1610799212831,200,-261,-5.73486328125E-5,0,0,0,718776,16755845,16756029,16755910,32060,6128,9366,4680,Tag0,unknown
1610799212848,200,17,3.7353515625000003E-6,0,0,0,718776,16755845,16756029,16755910,32060,6128,9366,4680,Tag0,unknown
1610799212865,200,-307,-6.74560546875E-5,0,0,0,718776,16755845,16756029,16755910,32060,6128,9366,4680,Tag0,unknown
1610799212875,200,-293,-6.43798828125E-5,0,0,0,718776,16755845,16756029,16755910,32060,6128,9366,4680,Tag0,unknown
1610799212898,200,-313,-6.87744140625E-5,0,0,0,718776,16755845,16756029,16755910,32060,6128,9366,4680,Tag0,unknown
1610799212915,200,1,2.197265625E-7,0,0,0,718776,16755845,16756029,16755910,32060,6128,9366,4680,Tag0,unknown
1610799212932,200,39,8.5693359375E-6,0,0,0,718776,16755845,16756029,16755910,32060,6128,9366,4680,Tag0,unknown
1610799212942,200,101,2.2192382812500002E-5,0,0,0,718776,16755845,16756029,16755910,32060,6128,9366,4680,Tag0,unknown
1610799212958,200,-91,-1.99951171875E-5,0,0,0,718776,16755845,16756029,16755910,32060,6128,9366,4680,Tag0,unknown
1610799212979,200,-301,-6.613769531250001E-5,0,0,0,718776,16755845,16756029,16755910,32060,6128,9366,4680,Tag0,unknown
1610799212996,200,268,5.8886718750000006E-5,0,0,0,718776,16755845,16756029,16755910,32060,6128,9366,4680,Tag0,unknown
1610799213013,200,-43,-9.448242187500001E-6,0,0,0,718776,16755845,16756029,16755910,32060,6128,9366,4680,Tag0,unknown
1610799213023,200,321,7.053222656250001E-5,0,0,0,718776,16755845,16756029,16755910,32060,6128,9366,4680,Tag0,unknown
1610799213033,200,275,6.04248046875E-5,0,0,0,718776,16755845,16756029,16755910,32060,6128,9366,4680,Tag0,unknown
1610799213048,200,-340,-7.470703125E-5,0,0,0,718776,16755845,16756029,16755910,32060,6128,9366,4680,Tag0,unknown
1610799213065,200,96,2.109375E-5,0,0,0,718776,16755845,16756029,16755910,32060,6128,9366,4680,Tag0,unknown
1610799213081,200,1,2.197265625E-7,0,0,0,718776,16755845,16756029,16755910,32060,6128,9366,4680,Tag0,unknown
1610799213101,200,-95,-2.08740234375E-5,0,0,0,718776,16755845,16756029,16755910,32060,6128,9366,4680,Tag0,unknown
1610799213115,200,-79,-1.7358398437500003E-5,0,0,0,718776,16755845,16756029,16755910,32060,6128,9366,4680,Tag0,unknown
1610799213134,200,92,2.021484375E-5,0,0,0,718776,16755845,16756029,16755910,32060,6128,9366,4680,Tag0,unknown
1610799213148,200,49,1.07666015625E-5,0,0,0,718776,16755845,16756029,16755910,32060,6128,9366,4680,Tag0,unknown
1610799213158,200,-74,-1.6259765625E-5,0,0,0,718776,16755845,16756029,16755910,32060,6128,9366,4680,Tag0,unknown
1610799213175,200,-48,-1.0546875E-5,0,0,0,718776,16755845,16756029,16755910,32060,6128,9366,4680,Tag0,unknown
1610799213196,200,-69,-1.51611328125E-5,0,0,0,718776,16755845,16756029,16755910,32060,6128,9366,4680,Tag0,unknown
1610799213216,200,26,5.712890625E-6,0,0,0,90544,17598,2155,7918,2992,1823,2071,1673,Tag0,unknown
1610799213231,200,70,1.5380859375E-5,0,0,0,90544,17598,2155,7918,2992,1823,2071,1673,Tag0,unknown
1610799213253,200,37,8.1298828125E-6,0,0,0,90544,17598,2155,7918,2992,1823,2071,1673,Tag0,unknown
1610799213266,200,48,1.0546875E-5,0,0,0,90544,17598,2155,7918,2992,1823,2071,1673,Tag0,unknown
1610799213276,200,-123,-2.70263671875E-5,0,0,0,90544,17598,2155,7918,2992,1823,2071,1673,Tag0,unknown
1610799213286,200,-74,-1.6259765625E-5,0,0,0,90544,17598,2155,7918,2992,1823,2071,1673,Tag0,unknown
1610799213300,200,-75,-1.64794921875E-5,0,0,0,90544,17598,2155,7918,2992,1823,2071,1673,Tag0,unknown
1610799213321,200,117,2.5708007812499998E-5,0,0,0,90544,17598,2155,7918,2992,1823,2071,1673,Tag0,unknown
1610799213332,200,-292,-6.416015625000001E-5,0,0,0,90544,17598,2155,7918,2992,1823,2071,1673,Tag0,unknown
1610799213342,200,-79,-1.7358398437500003E-5,0,0,0,90544,17598,2155,7918,2992,1823,2071,1673,Tag0,unknown
1610799213363,200,68,1.4941406250000001E-5,0,0,0,90544,17598,2155,7918,2992,1823,2071,1673,Tag0,unknown
1610799213381,200,18,3.955078125E-6,0,0,0,90544,17598,2155,7918,2992,1823,2071,1673,Tag0,unknown
1610799213399,200,97,2.13134765625E-5,0,0,0,90544,17598,2155,7918,2992,1823,2071,1673,Tag0,unknown
1610799213414,200,-13,-2.8564453125E-6,0,0,0,90544,17598,2155,7918,2992,1823,2071,1673,Tag0,unknown
1610799213424,200,93,2.04345703125E-5,0,0,0,90544,17598,2155,7918,2992,1823,2071,1673,Tag0,unknown
1610799213434,200,265,5.82275390625E-5,0,0,0,90544,17598,2155,7918,2992,1823,2071,1673,Tag0,unknown
1610799213449,200,-94,-2.0654296875000002E-5,0,0,0,90544,17598,2155,7918,2992,1823,2071,1673,Tag0,unknown
1610799213468,200,257,5.64697265625E-5,0,0,0,90544,17598,2155,7918,2992,1823,2071,1673,Tag0,unknown
1610799213483,200,291,6.39404296875E-5,0,0,0,90544,17598,2155,7918,2992,1823,2071,1673,Tag0,unknown
1610799213493,200,-263,-5.7788085937500005E-5,0,0,0,90544,17598,2155,7918,2992,1823,2071,1673,Tag0,unknown
1610799213504,200,83,1.82373046875E-5,0,0,0,90544,17598,2155,7918,2992,1823,2071,1673,Tag0,unknown
1610799213517,200,-263,-5.7788085937500005E-5,0,0,0,90544,17598,2155,7918,2992,1823,2071,1673,Tag0,unknown
1610799213536,200,-59,-1.29638671875E-5,0,0,0,90544,17598,2155,7918,2992,1823,2071,1673,Tag0,unknown
1610799213550,200,-105,-2.30712890625E-5,0,0,0,90544,17598,2155,7918,2992,1823,2071,1673,Tag0,unknown
1610799213566,200,-117,-2.5708007812499998E-5,0,0,0,90544,17598,2155,7918,2992,1823,2071,1673,Tag0,unknown
1610799213588,200,-46,-1.0107421875E-5,0,0,0,90544,17598,2155,7918,2992,1823,2071,1673,Tag0,unknown
1610799213602,200,-57,-1.2524414062500001E-5,0,0,0,90544,17598,2155,7918,2992,1823,2071,1673,Tag0,unknown
1610799213612,200,56,1.23046875E-5,0,0,0,90544,17598,2155,7918,2992,1823,2071,1673,Tag0,unknown
1610799213624,200,11,2.4169921875E-6,0,0,0,90544,17598,2155,7918,2992,1823,2071,1673,Tag0,unknown
1610799213634,200,83,1.82373046875E-5,0,0,0,90544,17598,2155,7918,2992,1823,2071,1673,Tag0,unknown
1610799213648,200,-360,-7.91015625E-5,0,0,0,90544,17598,2155,7918,2992,1823,2071,1673,Tag0,unknown
1610799213664,200,68,1.4941406250000001E-5,0,0,0,90544,17598,2155,7918,2992,1823,2071,1673,Tag0,unknown
1610799213681,200,66,1.4501953125E-5,0,0,0,90544,17598,2155,7918,2992,1823,2071,1673,Tag0,unknown
1610799213700,200,77,1.69189453125E-5,0,0,0,90544,17598,2155,7918,2992,1823,2071,1673,Tag0,unknown
1610799213716,200,61,1.34033203125E-5,0,0,0,90544,17598,2155,7918,2992,1823,2071,1673,Tag0,unknown
1610799213734,200,20,4.39453125E-6,0,0,0,90544,17598,2155,7918,2992,1823,2071,1673,Tag0,unknown
1610799213751,200,16,3.515625E-6,0,0,0,90544,17598,2155,7918,2992,1823,2071,1673,Tag0,unknown
1610799213762,200,-307,-6.74560546875E-5,0,0,0,90544,17598,2155,7918,2992,1823,2071,1673,Tag0,unknown
1610799213776,200,-57,-1.2524414062500001E-5,0,0,0,90544,17598,2155,7918,2992,1823,2071,1673,Tag0,unknown
1610799213786,200,-73,-1.6040039062500002E-5,0,0,0,90544,17598,2155,7918,2992,1823,2071,1673,Tag0,unknown
1610799213803,200,9,1.9775390625E-6,0,0,0,90544,17598,2155,7918,2992,1823,2071,1673,Tag0,unknown
1610799213817,200,101,2.2192382812500002E-5,0,0,0,90544,17598,2155,7918,2992,1823,2071,1673,Tag0,unknown
1610799213833,200,89,1.95556640625E-5,0,0,0,90544,17598,2155,7918,2992,1823,2071,1673,Tag0,unknown
1610799213851,200,43,9.448242187500001E-6,0,0,0,90544,17598,2155,7918,2992,1823,2071,1673,Tag0,unknown
1610799213864,200,41,9.008789062499999E-6,0,0,0,90544,17598,2155,7918,2992,1823,2071,1673,Tag0,unknown
1610799213881,200,-353,-7.75634765625E-5,0,0,0,90544,17598,2155,7918,2992,1823,2071,1673,Tag0,unknown
1610799213898,200,-289,-6.35009765625E-5,0,0,0,90544,17598,2155,7918,2992,1823,2071,1673,Tag0,unknown
1610799213920,200,117,2.5708007812499998E-5,0,0,0,90544,17598,2155,7918,2992,1823,2071,1673,Tag0,unknown
1610799213932,200,74,1.6259765625E-5,0,0,0,90544,17598,2155,7918,2992,1823,2071,1673,Tag0,unknown
1610799213942,200,-274,-6.0205078124999997E-5,0,0,0,90544,17598,2155,7918,2992,1823,2071,1673,Tag0,unknown
1610799213956,200,101,2.2192382812500002E-5,0,0,0,90544,17598,2155,7918,2992,1823,2071,1673,Tag0,unknown
1610799213968,200,37,8.1298828125E-6,0,0,0,90544,17598,2155,7918,2992,1823,2071,1673,Tag0,unknown
1610799213984,200,108,2.3730468750000002E-5,0,0,0,90544,17598,2155,7918,2992,1823,2071,1673,Tag0,unknown
1610799214000,200,67,1.4721679687500002E-5,0,0,0,90544,17598,2155,7918,2992,1823,2071,1673,Tag0,unknown
1610799214016,200,-96,-2.109375E-5,0,0,0,90544,17598,2155,7918,2992,1823,2071,1673,Tag0,unknown
1610799214034,200,99,2.1752929687500003E-5,0,0,0,90544,17598,2155,7918,2992,1823,2071,1673,Tag0,unknown
1610799214051,200,119,2.6147460937500004E-5,0,0,0,90544,17598,2155,7918,2992,1823,2071,1673,Tag0,unknown
1610799214061,200,123,2.70263671875E-5,0,0,0,90544,17598,2155,7918,2992,1823,2071,1673,Tag0,unknown
1610799214071,200,24,5.2734375E-6,0,0,0,90544,17598,2155,7918,2992,1823,2071,1673,Tag0,unknown
1610799214084,200,-262,-5.7568359375E-5,0,0,0,90544,17598,2155,7918,2992,1823,2071,1673,Tag0,unknown
1610799214102,200,44,9.66796875E-6,0,0,0,90544,17598,2155,7918,2992,1823,2071,1673,Tag0,unknown
1610799214115,200,5,1.0986328125E-6,0,0,0,90544,17598,2155,7918,2992,1823,2071,1673,Tag0,unknown
1610799214139,200,98,2.1533203125E-5,0,0,0,90544,17598,2155,7918,2992,1823,2071,1673,Tag0,unknown
1610799214149,200,50,1.0986328125E-5,0,0,0,90544,17598,2155,7918,2992,1823,2071,1673,Tag0,unknown
1610799214172,200,-295,-6.48193359375E-5,0,0,0,90544,17598,2155,7918,2992,1823,2071,1673,Tag0,unknown
1610799214182,200,54,1.1865234375000001E-5,0,0,0,90544,17598,2155,7918,2992,1823,2071,1673,Tag0,unknown
1610799214218,200,91,1.99951171875E-5,0,0,0,128271,28687,6655,6627,4657,3425,5742,3110,Tag0,unknown
1610799214240,200,119,2.6147460937500004E-5,0,0,0,128271,28687,6655,6627,4657,3425,5742,3110,Tag0,unknown
1610799214250,200,-307,-6.74560546875E-5,0,0,0,128271,28687,6655,6627,4657,3425,5742,3110,Tag0,unknown
1610799214260,200,9,1.9775390625E-6,0,0,0,128271,28687,6655,6627,4657,3425,5742,3110,Tag0,unknown
1610799214270,200,-93,-2.04345703125E-5,0,0,0,128271,28687,6655,6627,4657,3425,5742,3110,Tag0,unknown
1610799214282,200,27,5.9326171875000005E-6,0,0,0,128271,28687,6655,6627,4657,3425,5742,3110,Tag0,unknown
1610799214298,200,40,8.7890625E-6,0,0,0,128271,28687,6655,6627,4657,3425,5742,3110,Tag0,unknown
1610799214315,200,-85,-1.86767578125E-5,0,0,0,128271,28687,6655,6627,4657,3425,5742,3110,Tag0,unknown
1610799214332,200,-69,-1.51611328125E-5,0,0,0,128271,28687,6655,6627,4657,3425,5742,3110,Tag0,unknown
1610799214354,200,-103,-2.26318359375E-5,0,0,0,128271,28687,6655,6627,4657,3425,5742,3110,Tag0,unknown
1610799214364,200,-313,-6.87744140625E-5,0,0,0,128271,28687,6655,6627,4657,3425,5742,3110,Tag0,unknown
1610799214381,200,-321,-7.053222656250001E-5,0,0,0,128271,28687,6655,6627,4657,3425,5742,3110,Tag0,unknown
1610799214400,200,-279,-6.13037109375E-5,0,0,0,128271,28687,6655,6627,4657,3425,5742,3110,Tag0,unknown
1610799214410,200,-127,-2.79052734375E-5,0,0,0,128271,28687,6655,6627,4657,3425,5742,3110,Tag0,unknown
1610799214421,200,3,6.591796875E-7,0,0,0,128271,28687,6655,6627,4657,3425,5742,3110,Tag0,unknown
1610799214433,200,27,5.9326171875000005E-6,0,0,0,128271,28687,6655,6627,4657,3425,5742,3110,Tag0,unknown
1610799214459,200,60,1.318359375E-5,0,0,0,128271,28687,6655,6627,4657,3425,5742,3110,Tag0,unknown
1610799214469,200,-311,-6.833496093750001E-5,0,0,0,128271,28687,6655,6627,4657,3425,5742,3110,Tag0,unknown
1610799214484,200,-267,-5.86669921875E-5,0,0,0,128271,28687,6655,6627,4657,3425,5742,3110,Tag0,unknown
1610799214502,200,100,2.197265625E-5,0,0,0,128271,28687,6655,6627,4657,3425,5742,3110,Tag0,unknown
1610799214515,200,116,2.548828125E-5,0,0,0,128271,28687,6655,6627,4657,3425,5742,3110,Tag0,unknown
1610799214540,200,-286,-6.2841796875E-5,0,0,0,128271,28687,6655,6627,4657,3425,5742,3110,Tag0,unknown
1610799214550,200,126,2.7685546875E-5,0,0,0,128271,28687,6655,6627,4657,3425,5742,3110,Tag0,unknown
1610799214592,200,-89,-1.95556640625E-5,0,0,0,128271,28687,6655,6627,4657,3425,5742,3110,Tag0,unknown
1610799214602,200,285,6.26220703125E-5,0,0,0,128271,28687,6655,6627,4657,3425,5742,3110,Tag0,unknown
1610799214612,200,103,2.26318359375E-5,0,0,0,128271,28687,6655,6627,4657,3425,5742,3110,Tag0,unknown
1610799214622,200,82,1.8017578124999998E-5,0,0,0,128271,28687,6655,6627,4657,3425,5742,3110,Tag0,unknown
1610799214649,200,-88,-1.93359375E-5,0,0,0,128271,28687,6655,6627,4657,3425,5742,3110,Tag0,unknown
1610799214668,200,116,2.548828125E-5,0,0,0,128271,28687,6655,6627,4657,3425,5742,3110,Tag0,unknown
1610799214678,200,97,2.13134765625E-5,0,0,0,128271,28687,6655,6627,4657,3425,5742,3110,Tag0,unknown
1610799214688,200,101,2.2192382812500002E-5,0,0,0,128271,28687,6655,6627,4657,3425,5742,3110,Tag0,unknown
1610799214698,200,58,1.2744140625E-5,0,0,0,128271,28687,6655,6627,4657,3425,5742,3110,Tag0,unknown
1610799214709,200,-380,-8.349609375E-5,0,0,0,128271,28687,6655,6627,4657,3425,5742,3110,Tag0,unknown
1610799214732,200,-364,-7.998046875E-5,0,0,0,128271,28687,6655,6627,4657,3425,5742,3110,Tag0,unknown
1610799214782,200,54,1.1865234375000001E-5,0,0,0,128271,28687,6655,6627,4657,3425,5742,3110,Tag0,unknown
1610799214805,200,41,9.008789062499999E-6,0,0,0,128271,28687,6655,6627,4657,3425,5742,3110,Tag0,unknown
1610799214815,200,-79,-1.7358398437500003E-5,0,0,0,128271,28687,6655,6627,4657,3425,5742,3110,Tag0,unknown
1610799214832,200,-264,-5.80078125E-5,0,0,0,128271,28687,6655,6627,4657,3425,5742,3110,Tag0,unknown
1610799214854,200,-294,-6.4599609375E-5,0,0,0,128271,28687,6655,6627,4657,3425,5742,3110,Tag0,unknown
1610799214864,200,-300,-6.591796875E-5,0,0,0,128271,28687,6655,6627,4657,3425,5742,3110,Tag0,unknown
1610799214874,200,2,4.39453125E-7,0,0,0,128271,28687,6655,6627,4657,3425,5742,3110,Tag0,unknown
1610799214891,200,-31,-6.8115234375E-6,0,0,0,128271,28687,6655,6627,4657,3425,5742,3110,Tag0,unknown
1610799214901,200,41,9.008789062499999E-6,0,0,0,128271,28687,6655,6627,4657,3425,5742,3110,Tag0,unknown
1610799214915,200,-305,-6.70166015625E-5,0,0,0,128271,28687,6655,6627,4657,3425,5742,3110,Tag0,unknown
1610799214953,200,363,7.97607421875E-5,0,0,0,128271,28687,6655,6627,4657,3425,5742,3110,Tag0,unknown
1610799214966,200,317,6.96533203125E-5,0,0,0,128271,28687,6655,6627,4657,3425,5742,3110,Tag0,unknown
1610799214976,200,304,6.6796875E-5,0,0,0,128271,28687,6655,6627,4657,3425,5742,3110,Tag0,unknown
1610799215015,200,369,8.10791015625E-5,0,0,0,128271,28687,6655,6627,4657,3425,5742,3110,Tag0,unknown
1610799215033,200,128,2.8125E-5,0,0,0,128271,28687,6655,6627,4657,3425,5742,3110,Tag0,unknown
1610799215043,200,-1340,-2.9443359375E-4,0,0,0,128271,28687,6655,6627,4657,3425,5742,3110,Tag0,unknown
1610799215075,200,-1638,-3.59912109375E-4,0,0,0,128271,28687,6655,6627,4657,3425,5742,3110,Tag0,unknown
1610799215087,200,-1651,-3.627685546875E-4,0,0,0,128271,28687,6655,6627,4657,3425,5742,3110,Tag0,unknown
1610799215098,200,-1283,-2.819091796875E-4,0,0,0,128271,28687,6655,6627,4657,3425,5742,3110,Tag0,unknown
1610799215113,200,-727,-1.5974121093750003E-4,0,0,0,128271,28687,6655,6627,4657,3425,5742,3110,Tag0,unknown
1610799215133,200,-729,-1.601806640625E-4,0,0,0,128271,28687,6655,6627,4657,3425,5742,3110,Tag0,unknown
1610799215150,200,-706,-1.55126953125E-4,0,0,0,128271,28687,6655,6627,4657,3425,5742,3110,Tag0,unknown
1610799215160,200,515,1.131591796875E-4,0,0,0,128271,28687,6655,6627,4657,3425,5742,3110,Tag0,unknown
1610799215193,200,865,1.900634765625E-4,0,0,0,128271,28687,6655,6627,4657,3425,5742,3110,Tag0,unknown
1610799215203,200,534,1.17333984375E-4,0,0,0,128271,28687,6655,6627,4657,3425,5742,3110,Tag0,unknown
1610799215220,200,-129,-2.8344726562500002E-5,0,0,0,806623,16773757,8421,3817,4400,5288,7996,6702,Tag0,unknown
1610799215234,200,-471,-1.0349121093750001E-4,0,0,0,806623,16773757,8421,3817,4400,5288,7996,6702,Tag0,unknown
1610799215250,200,-845,-1.856689453125E-4,0,0,0,806623,16773757,8421,3817,4400,5288,7996,6702,Tag0,unknown
1610799215260,200,-409,-8.986816406250001E-5,0,0,0,806623,16773757,8421,3817,4400,5288,7996,6702,Tag0,unknown
1610799215270,200,-78,-1.7138671875E-5,0,0,0,806623,16773757,8421,3817,4400,5288,7996,6702,Tag0,unknown
1610799215286,200,1369,3.0080566406250005E-4,0,0,0,806623,16773757,8421,3817,4400,5288,7996,6702,Tag0,unknown
1610799215341,200,1592,3.4980468749999996E-4,0,0,0,806623,16773757,8421,3817,4400,5288,7996,6702,Tag0,unknown
1610799215358,200,1190,2.61474609375E-4,0,0,0,806623,16773757,8421,3817,4400,5288,7996,6702,Tag0,unknown
1610799215369,200,470,1.03271484375E-4,0,0,0,806623,16773757,8421,3817,4400,5288,7996,6702,Tag0,unknown
1610799215482,200,264,5.80078125E-5,0,0,0,806623,16773757,8421,3817,4400,5288,7996,6702,Tag0,unknown
1610799215512,200,-43,-9.448242187500001E-6,0,0,0,806623,16773757,8421,3817,4400,5288,7996,6702,Tag0,unknown
1610799215523,200,-166,-3.6474609375E-5,0,0,0,806623,16773757,8421,3817,4400,5288,7996,6702,Tag0,unknown
1610799215548,200,-931,-2.045654296875E-4,0,0,0,806623,16773757,8421,3817,4400,5288,7996,6702,Tag0,unknown
1610799215570,200,-995,-2.186279296875E-4,0,0,0,806623,16773757,8421,3817,4400,5288,7996,6702,Tag0,unknown
1610799215580,200,173,3.80126953125E-5,0,0,0,806623,16773757,8421,3817,4400,5288,7996,6702,Tag0,unknown
1610799215619,200,1575,3.460693359375E-4,0,0,0,806623,16773757,8421,3817,4400,5288,7996,6702,Tag0,unknown
1610799215640,200,1605,3.526611328125E-4,0,0,0,806623,16773757,8421,3817,4400,5288,7996,6702,Tag0,unknown
1610799215651,200,1440,3.1640625E-4,0,0,0,806623,16773757,8421,3817,4400,5288,7996,6702,Tag0,unknown
1610799215691,200,1364,2.9970703125000006E-4,0,0,0,806623,16773757,8421,3817,4400,5288,7996,6702,Tag0,unknown
1610799215708,200,909,1.997314453125E-4,0,0,0,806623,16773757,8421,3817,4400,5288,7996,6702,Tag0,unknown
1610799215719,200,425,9.33837890625E-5,0,0,0,806623,16773757,8421,3817,4400,5288,7996,6702,Tag0,unknown
1610799215757,200,477,1.048095703125E-4,0,0,0,806623,16773757,8421,3817,4400,5288,7996,6702,Tag0,unknown
1610799215770,200,403,8.854980468749999E-5,0,0,0,806623,16773757,8421,3817,4400,5288,7996,6702,Tag0,unknown
1610799215827,200,659,1.4479980468750002E-4,0,0,0,806623,16773757,8421,3817,4400,5288,7996,6702,Tag0,unknown
1610799215837,200,679,1.491943359375E-4,0,0,0,806623,16773757,8421,3817,4400,5288,7996,6702,Tag0,unknown
1610799215855,200,1078,2.3686523437500002E-4,0,0,0,806623,16773757,8421,3817,4400,5288,7996,6702,Tag0,unknown
1610799215871,200,825,1.812744140625E-4,0,0,0,806623,16773757,8421,3817,4400,5288,7996,6702,Tag0,unknown
1610799215881,200,445,9.77783203125E-5,0,0,0,806623,16773757,8421,3817,4400,5288,7996,6702,Tag0,unknown
1610799215893,200,375,8.23974609375E-5,0,0,0,806623,16773757,8421,3817,4400,5288,7996,6702,Tag0,unknown
1610799215903,200,-161,-3.53759765625E-5,0,0,0,806623,16773757,8421,3817,4400,5288,7996,6702,Tag0,unknown
1610799215913,200,-999,-2.195068359375E-4,0,0,0,806623,16773757,8421,3817,4400,5288,7996,6702,Tag0,unknown
1610799215934,200,-867,-1.9050292968750003E-4,0,0,0,806623,16773757,8421,3817,4400,5288,7996,6702,Tag0,unknown
1610799215950,200,-771,-1.694091796875E-4,0,0,0,806623,16773757,8421,3817,4400,5288,7996,6702,Tag0,unknown
1610799215975,200,1313,2.885009765625E-4,0,0,0,806623,16773757,8421,3817,4400,5288,7996,6702,Tag0,unknown
1610799215988,200,1399,3.073974609375E-4,0,0,0,806623,16773757,8421,3817,4400,5288,7996,6702,Tag0,unknown
1610799216010,200,1153,2.533447265625E-4,0,0,0,806623,16773757,8421,3817,4400,5288,7996,6702,Tag0,unknown
1610799216022,200,1159,2.5466308593750003E-4,0,0,0,806623,16773757,8421,3817,4400,5288,7996,6702,Tag0,unknown
1610799216032,200,1330,2.92236328125E-4,0,0,0,806623,16773757,8421,3817,4400,5288,7996,6702,Tag0,unknown
1610799216042,200,705,1.549072265625E-4,0,0,0,806623,16773757,8421,3817,4400,5288,7996,6702,Tag0,unknown
1610799216061,200,790,1.73583984375E-4,0,0,0,806623,16773757,8421,3817,4400,5288,7996,6702,Tag0,unknown
1610799216072,200,470,1.03271484375E-4,0,0,0,806623,16773757,8421,3817,4400,5288,7996,6702,Tag0,unknown
1610799216082,200,152,3.33984375E-5,0,0,0,806623,16773757,8421,3817,4400,5288,7996,6702,Tag0,unknown
1610799216104,200,-124,-2.724609375E-5,0,0,0,806623,16773757,8421,3817,4400,5288,7996,6702,Tag0,unknown
1610799216136,200,-266,-5.8447265625E-5,0,0,0,806623,16773757,8421,3817,4400,5288,7996,6702,Tag0,unknown
1610799216154,200,-331,-7.272949218750001E-5,0,0,0,806623,16773757,8421,3817,4400,5288,7996,6702,Tag0,unknown
1610799216164,200,-323,-7.09716796875E-5,0,0,0,806623,16773757,8421,3817,4400,5288,7996,6702,Tag0,unknown
1610799216177,200,-215,-4.72412109375E-5,0,0,0,806623,16773757,8421,3817,4400,5288,7996,6702,Tag0,unknown
1610799216205,200,-147,-3.22998046875E-5,0,0,0,806623,16773757,8421,3817,4400,5288,7996,6702,Tag0,unknown
1610799216220,200,-312,-6.85546875E-5,0,0,0,63769,14964,15407,4569,2618,13551,2814,1671,Tag0,unknown
1610799216242,200,-186,-4.0869140625E-5,0,0,0,63769,14964,15407,4569,2618,13551,2814,1671,Tag0,unknown
1610799216253,200,-197,-4.32861328125E-5,0,0,0,63769,14964,15407,4569,2618,13551,2814,1671,Tag0,unknown
1610799216270,200,-614,-1.34912109375E-4,0,0,0,63769,14964,15407,4569,2618,13551,2814,1671,Tag0,unknown
1610799216288,200,-554,-1.2172851562500001E-4,0,0,0,63769,14964,15407,4569,2618,13551,2814,1671,Tag0,unknown
1610799216304,200,-201,-4.41650390625E-5,0,0,0,63769,14964,15407,4569,2618,13551,2814,1671,Tag0,unknown
1610799216321,200,-293,-6.43798828125E-5,0,0,0,63769,14964,15407,4569,2618,13551,2814,1671,Tag0,unknown
1610799216331,200,-316,-6.943359375000001E-5,0,0,0,63769,14964,15407,4569,2618,13551,2814,1671,Tag0,unknown
1610799216341,200,77,1.69189453125E-5,0,0,0,63769,14964,15407,4569,2618,13551,2814,1671,Tag0,unknown
1610799216364,200,90,1.9775390625E-5,0,0,0,63769,14964,15407,4569,2618,13551,2814,1671,Tag0,unknown
1610799216374,200,-77,-1.69189453125E-5,0,0,0,63769,14964,15407,4569,2618,13551,2814,1671,Tag0,unknown
1610799216387,200,-270,-5.9326171875E-5,0,0,0,63769,14964,15407,4569,2618,13551,2814,1671,Tag0,unknown
1610799216406,200,122,2.6806640625E-5,0,0,0,63769,14964,15407,4569,2618,13551,2814,1671,Tag0,unknown
1610799216419,200,116,2.548828125E-5,0,0,0,63769,14964,15407,4569,2618,13551,2814,1671,Tag0,unknown
1610799216440,200,-117,-2.5708007812499998E-5,0,0,0,63769,14964,15407,4569,2618,13551,2814,1671,Tag0,unknown
1610799216454,200,-120,-2.63671875E-5,0,0,0,63769,14964,15407,4569,2618,13551,2814,1671,Tag0,unknown
1610799216464,200,-42,-9.228515625000002E-6,0,0,0,63769,14964,15407,4569,2618,13551,2814,1671,Tag0,unknown
1610799216477,200,-111,-2.43896484375E-5,0,0,0,63769,14964,15407,4569,2618,13551,2814,1671,Tag0,unknown
1610799216489,200,121,2.6586914062500003E-5,0,0,0,63769,14964,15407,4569,2618,13551,2814,1671,Tag0,unknown
1610799216511,200,-300,-6.591796875E-5,0,0,0,63769,14964,15407,4569,2618,13551,2814,1671,Tag0,unknown
1610799216522,200,20,4.39453125E-6,0,0,0,63769,14964,15407,4569,2618,13551,2814,1671,Tag0,unknown
1610799216532,200,-276,-6.064453125E-5,0,0,0,63769,14964,15407,4569,2618,13551,2814,1671,Tag0,unknown
1610799216543,200,-145,-3.18603515625E-5,0,0,0,63769,14964,15407,4569,2618,13551,2814,1671,Tag0,unknown
1610799216560,200,-137,-3.0102539062499998E-5,0,0,0,63769,14964,15407,4569,2618,13551,2814,1671,Tag0,unknown
1610799216583,200,-178,-3.9111328125E-5,0,0,0,63769,14964,15407,4569,2618,13551,2814,1671,Tag0,unknown
1610799216603,200,-186,-4.0869140625E-5,0,0,0,63769,14964,15407,4569,2618,13551,2814,1671,Tag0,unknown
1610799216622,200,6,1.318359375E-6,0,0,0,63769,14964,15407,4569,2618,13551,2814,1671,Tag0,unknown
1610799216637,200,27,5.9326171875000005E-6,0,0,0,63769,14964,15407,4569,2618,13551,2814,1671,Tag0,unknown
1610799216658,200,-268,-5.8886718750000006E-5,0,0,0,63769,14964,15407,4569,2618,13551,2814,1671,Tag0,unknown
1610799216673,200,22,4.833984375E-6,0,0,0,63769,14964,15407,4569,2618,13551,2814,1671,Tag0,unknown
1610799216683,200,-75,-1.64794921875E-5,0,0,0,63769,14964,15407,4569,2618,13551,2814,1671,Tag0,unknown
1610799216696,200,345,7.58056640625E-5,0,0,0,63769,14964,15407,4569,2618,13551,2814,1671,Tag0,unknown
1610799216706,200,371,8.151855468750001E-5,0,0,0,63769,14964,15407,4569,2618,13551,2814,1671,Tag0,unknown
1610799216729,200,-45,-9.8876953125E-6,0,0,0,63769,14964,15407,4569,2618,13551,2814,1671,Tag0,unknown
1610799216740,200,267,5.86669921875E-5,0,0,0,63769,14964,15407,4569,2618,13551,2814,1671,Tag0,unknown
1610799216750,200,-95,-2.08740234375E-5,0,0,0,63769,14964,15407,4569,2618,13551,2814,1671,Tag0,unknown
1610799216760,200,-38,-8.349609375E-6,0,0,0,63769,14964,15407,4569,2618,13551,2814,1671,Tag0,unknown
1610799216773,200,-61,-1.34033203125E-5,0,0,0,63769,14964,15407,4569,2618,13551,2814,1671,Tag0,unknown
1610799216788,200,-257,-5.64697265625E-5,0,0,0,63769,14964,15407,4569,2618,13551,2814,1671,Tag0,unknown
1610799216805,200,59,1.29638671875E-5,0,0,0,63769,14964,15407,4569,2618,13551,2814,1671,Tag0,unknown
1610799216822,200,6,1.318359375E-6,0,0,0,63769,14964,15407,4569,2618,13551,2814,1671,Tag0,unknown
1610799216832,200,-337,-7.40478515625E-5,0,0,0,63769,14964,15407,4569,2618,13551,2814,1671,Tag0,unknown
1610799216842,200,-365,-8.02001953125E-5,0,0,0,63769,14964,15407,4569,2618,13551,2814,1671,Tag0,unknown
1610799216855,200,-375,-8.23974609375E-5,0,0,0,63769,14964,15407,4569,2618,13551,2814,1671,Tag0,unknown
1610799216876,200,-293,-6.43798828125E-5,0,0,0,63769,14964,15407,4569,2618,13551,2814,1671,Tag0,unknown
1610799216890,200,-283,-6.218261718750001E-5,0,0,0,63769,14964,15407,4569,2618,13551,2814,1671,Tag0,unknown
1610799216900,200,-264,-5.80078125E-5,0,0,0,63769,14964,15407,4569,2618,13551,2814,1671,Tag0,unknown
1610799216918,200,34,7.4707031250000005E-6,0,0,0,63769,14964,15407,4569,2618,13551,2814,1671,Tag0,unknown
1610799216939,200,16,3.515625E-6,0,0,0,63769,14964,15407,4569,2618,13551,2814,1671,Tag0,unknown
1610799216958,200,-354,-7.778320312500001E-5,0,0,0,63769,14964,15407,4569,2618,13551,2814,1671,Tag0,unknown
1610799216972,200,-327,-7.18505859375E-5,0,0,0,63769,14964,15407,4569,2618,13551,2814,1671,Tag0,unknown
1610799216989,200,2,4.39453125E-7,0,0,0,63769,14964,15407,4569,2618,13551,2814,1671,Tag0,unknown
1610799217005,200,49,1.07666015625E-5,0,0,0,63769,14964,15407,4569,2618,13551,2814,1671,Tag0,unknown
1610799217025,200,21,4.614257812500001E-6,0,0,0,63769,14964,15407,4569,2618,13551,2814,1671,Tag0,unknown
1610799217040,200,83,1.82373046875E-5,0,0,0,63769,14964,15407,4569,2618,13551,2814,1671,Tag0,unknown
1610799217074,200,84,1.8457031250000004E-5,0,0,0,63769,14964,15407,4569,2618,13551,2814,1671,Tag0,unknown
1610799217090,200,59,1.29638671875E-5,0,0,0,63769,14964,15407,4569,2618,13551,2814,1671,Tag0,unknown
1610799217100,200,-293,-6.43798828125E-5,0,0,0,63769,14964,15407,4569,2618,13551,2814,1671,Tag0,unknown
1610799217110,200,40,8.7890625E-6,0,0,0,63769,14964,15407,4569,2618,13551,2814,1671,Tag0,unknown
