timestampMs,poorSignal,eegRawValue,eegRawValueVolts,attention,meditation,blinkStrength,delta,theta,alphaLow,alphaHigh,betaLow,betaHigh,gammaLow,gammaMid,tagEvent,location
1610799135417,200,-73,-1.6040039062500002E-5,0,0,0,754485,91515,22135,12464,9277,8471,10621,3232,Tag0,unknown
1610799135435,200,-63,-1.38427734375E-5,0,0,0,754485,91515,22135,12464,9277,8471,10621,3232,Tag0,unknown
1610799135553,200,125,2.74658203125E-5,0,0,0,754485,91515,22135,12464,9277,8471,10621,3232,Tag0,unknown
1610799135568,200,-124,-2.724609375E-5,0,0,0,754485,91515,22135,12464,9277,8471,10621,3232,Tag0,unknown
1610799135625,200,-76,-1.669921875E-5,0,0,0,754485,91515,22135,12464,9277,8471,10621,3232,Tag0,unknown
1610799135635,200,-93,-2.04345703125E-5,0,0,0,754485,91515,22135,12464,9277,8471,10621,3232,Tag0,unknown
1610799135695,200,-301,-6.613769531250001E-5,0,0,0,754485,91515,22135,12464,9277,8471,10621,3232,Tag0,unknown
1610799135762,200,-333,-7.316894531249999E-5,0,0,0,754485,91515,22135,12464,9277,8471,10621,3232,Tag0,unknown
1610799135852,200,-377,-8.28369140625E-5,0,0,0,754485,91515,22135,12464,9277,8471,10621,3232,Tag0,unknown
1610799135868,200,-149,-3.27392578125E-5,0,0,0,754485,91515,22135,12464,9277,8471,10621,3232,Tag0,unknown
1610799135935,200,-374,-8.2177734375E-5,0,0,0,248694,53896,22197,16750513,16746042,31735,13666,8102,Tag0,unknown
1610799135953,200,-356,-7.822265625E-5,0,0,0,248694,53896,22197,16750513,16746042,31735,13666,8102,Tag0,unknown
1610799135969,200,-260,-5.712890625E-5,0,0,0,248694,53896,22197,16750513,16746042,31735,13666,8102,Tag0,unknown
1610799135985,200,67,1.4721679687500002E-5,0,0,0,248694,53896,22197,16750513,16746042,31735,13666,8102,Tag0,unknown
1610799136027,200,58,1.2744140625E-5,0,0,0,248694,53896,22197,16750513,16746042,31735,13666,8102,Tag0,unknown
1610799136037,200,-53,-1.1645507812500002E-5,0,0,0,248694,53896,22197,16750513,16746042,31735,13666,8102,Tag0,unknown
1610799136052,200,-78,-1.7138671875E-5,0,0,0,248694,53896,22197,16750513,16746042,31735,13666,8102,Tag0,unknown
1610799136087,200,66,1.4501953125E-5,0,0,0,248694,53896,22197,16750513,16746042,31735,13666,8102,Tag0,unknown
1610799136102,200,93,2.04345703125E-5,0,0,0,248694,53896,22197,16750513,16746042,31735,13666,8102,Tag0,unknown
1610799136145,200,64,1.40625E-5,0,0,0,248694,53896,22197,16750513,16746042,31735,13666,8102,Tag0,unknown
1610799136155,200,-285,-6.26220703125E-5,0,0,0,248694,53896,22197,16750513,16746042,31735,13666,8102,Tag0,unknown
1610799136203,200,-367,-8.063964843750001E-5,0,0,0,248694,53896,22197,16750513,16746042,31735,13666,8102,Tag0,unknown
1610799136219,200,-330,-7.2509765625E-5,0,0,0,248694,53896,22197,16750513,16746042,31735,13666,8102,Tag0,unknown
1610799136255,200,-284,-6.240234375E-5,0,0,0,248694,53896,22197,16750513,16746042,31735,13666,8102,Tag0,unknown
1610799136269,200,-263,-5.7788085937500005E-5,0,0,0,248694,53896,22197,16750513,16746042,31735,13666,8102,Tag0,unknown
1610799136312,200,119,2.6147460937500004E-5,0,0,0,248694,53896,22197,16750513,16746042,31735,13666,8102,Tag0,unknown
1610799136322,200,-373,-8.19580078125E-5,0,0,0,248694,53896,22197,16750513,16746042,31735,13666,8102,Tag0,unknown
1610799136370,200,-133,-2.92236328125E-5,0,0,0,248694,53896,22197,16750513,16746042,31735,13666,8102,Tag0,unknown
1610799136386,200,-381,-8.371582031250001E-5,0,0,0,248694,53896,22197,16750513,16746042,31735,13666,8102,Tag0,unknown
1610799136430,200,337,7.40478515625E-5,0,0,0,248694,53896,22197,16750513,16746042,31735,13666,8102,Tag0,unknown
1610799136480,200,349,7.668457031250001E-5,0,0,0,248694,53896,22197,16750513,16746042,31735,13666,8102,Tag0,unknown
1610799136504,200,-106,-2.3291015625000003E-5,0,0,0,864966,406085,37291,16754899,12289,16251,20518,10213,Tag0,unknown
1610799136520,200,81,1.77978515625E-5,0,0,0,864966,406085,37291,16754899,12289,16251,20518,10213,Tag0,unknown
1610799136550,200,86,1.8896484375000003E-5,0,0,0,864966,406085,37291,16754899,12289,16251,20518,10213,Tag0,unknown
1610799136584,200,-259,-5.69091796875E-5,0,0,0,864966,406085,37291,16754899,12289,16251,20518,10213,Tag0,unknown
1610799136603,200,-128,-2.8125E-5,0,0,0,864966,406085,37291,16754899,12289,16251,20518,10213,Tag0,unknown
1610799136622,200,23,5.0537109375E-6,0,0,0,864966,406085,37291,16754899,12289,16251,20518,10213,Tag0,unknown
1610799136636,200,3,6.591796875E-7,0,0,0,864966,406085,37291,16754899,12289,16251,20518,10213,Tag0,unknown
1610799136656,200,-293,-6.43798828125E-5,0,0,0,864966,406085,37291,16754899,12289,16251,20518,10213,Tag0,unknown
1610799136670,200,-312,-6.85546875E-5,0,0,0,864966,406085,37291,16754899,12289,16251,20518,10213,Tag0,unknown
1610799136695,200,29,6.3720703125E-6,0,0,0,864966,406085,37291,16754899,12289,16251,20518,10213,Tag0,unknown
1610799136720,200,-323,-7.09716796875E-5,0,0,0,864966,406085,37291,16754899,12289,16251,20518,10213,Tag0,unknown
1610799136737,200,-290,-6.3720703125E-5,0,0,0,864966,406085,37291,16754899,12289,16251,20518,10213,Tag0,unknown
1610799136756,200,55,1.20849609375E-5,0,0,0,864966,406085,37291,16754899,12289,16251,20518,10213,Tag0,unknown
1610799136770,200,45,9.8876953125E-6,0,0,0,864966,406085,37291,16754899,12289,16251,20518,10213,Tag0,unknown
1610799136792,200,-71,-1.56005859375E-5,0,0,0,864966,406085,37291,16754899,12289,16251,20518,10213,Tag0,unknown
1610799136803,200,-61,-1.34033203125E-5,0,0,0,864966,406085,37291,16754899,12289,16251,20518,10213,Tag0,unknown
1610799136826,200,33,7.2509765625E-6,0,0,0,864966,406085,37291,16754899,12289,16251,20518,10213,Tag0,unknown
1610799136837,200,-261,-5.73486328125E-5,0,0,0,864966,406085,37291,16754899,12289,16251,20518,10213,Tag0,unknown
1610799136865,200,-200,-4.39453125E-5,0,0,0,864966,406085,37291,16754899,12289,16251,20518,10213,Tag0,unknown
1610799136901,200,-377,-8.28369140625E-5,0,0,0,864966,406085,37291,16754899,12289,16251,20518,10213,Tag0,unknown
1610799136920,200,-91,-1.99951171875E-5,0,0,0,864966,406085,37291,16754899,12289,16251,20518,10213,Tag0,unknown
1610799136940,200,-282,-6.1962890625E-5,0,0,0,864966,406085,37291,16754899,12289,16251,20518,10213,Tag0,unknown
1610799136954,200,39,8.5693359375E-6,0,0,0,864966,406085,37291,16754899,12289,16251,20518,10213,Tag0,unknown
1610799136974,200,89,1.95556640625E-5,0,0,0,864966,406085,37291,16754899,12289,16251,20518,10213,Tag0,unknown
1610799136987,200,93,2.04345703125E-5,0,0,0,864966,406085,37291,16754899,12289,16251,20518,10213,Tag0,unknown
1610799137010,200,153,3.3618164062500004E-5,0,0,0,864966,406085,37291,16754899,12289,16251,20518,10213,Tag0,unknown
1610799137021,200,155,3.40576171875E-5,0,0,0,864966,406085,37291,16754899,12289,16251,20518,10213,Tag0,unknown
1610799137044,200,299,6.56982421875E-5,0,0,0,864966,406085,37291,16754899,12289,16251,20518,10213,Tag0,unknown
1610799137054,200,291,6.39404296875E-5,0,0,0,864966,406085,37291,16754899,12289,16251,20518,10213,Tag0,unknown
1610799137086,200,-92,-2.021484375E-5,0,0,0,864966,406085,37291,16754899,12289,16251,20518,10213,Tag0,unknown
1610799137120,200,102,2.2412109374999998E-5,0,0,0,864966,406085,37291,16754899,12289,16251,20518,10213,Tag0,unknown
1610799137137,200,65,1.42822265625E-5,0,0,0,864966,406085,37291,16754899,12289,16251,20518,10213,Tag0,unknown
1610799137157,200,60,1.318359375E-5,0,0,0,864966,406085,37291,16754899,12289,16251,20518,10213,Tag0,unknown
1610799137171,200,87,1.91162109375E-5,0,0,0,864966,406085,37291,16754899,12289,16251,20518,10213,Tag0,unknown
1610799137191,200,26,5.712890625E-6,0,0,0,864966,406085,37291,16754899,12289,16251,20518,10213,Tag0,unknown
1610799137204,200,8,1.7578125E-6,0,0,0,864966,406085,37291,16754899,12289,16251,20518,10213,Tag0,unknown
1610799137230,200,-311,-6.833496093750001E-5,0,0,0,864966,406085,37291,16754899,12289,16251,20518,10213,Tag0,unknown
1610799137264,200,-263,-5.7788085937500005E-5,0,0,0,864966,406085,37291,16754899,12289,16251,20518,10213,Tag0,unknown
1610799137288,200,53,1.1645507812500002E-5,0,0,0,864966,406085,37291,16754899,12289,16251,20518,10213,Tag0,unknown
1610799137304,200,56,1.23046875E-5,0,0,0,864966,406085,37291,16754899,12289,16251,20518,10213,Tag0,unknown
1610799137321,200,37,8.1298828125E-6,0,0,0,864966,406085,37291,16754899,12289,16251,20518,10213,Tag0,unknown
1610799137338,200,11,2.4169921875E-6,0,0,0,864966,406085,37291,16754899,12289,16251,20518,10213,Tag0,unknown
1610799137366,200,-261,-5.73486328125E-5,0,0,0,864966,406085,37291,16754899,12289,16251,20518,10213,Tag0,unknown
1610799137402,200,-41,-9.008789062499999E-6,0,0,0,864966,406085,37291,16754899,12289,16251,20518,10213,Tag0,unknown
1610799137436,200,89,1.95556640625E-5,0,0,0,864966,406085,37291,16754899,12289,16251,20518,10213,Tag0,unknown
1610799137455,200,71,1.56005859375E-5,0,0,0,864966,406085,37291,16754899,12289,16251,20518,10213,Tag0,unknown
1610799137476,200,42,9.228515625000002E-6,0,0,0,864966,406085,37291,16754899,12289,16251,20518,10213,Tag0,unknown
1610799137488,200,38,8.349609375E-6,0,0,0,864966,406085,37291,16754899,12289,16251,20518,10213,Tag0,unknown
1610799137514,200,80,1.7578125E-5,0,0,0,799725,22783,619,9211,6817,15075,2248,2182,Tag0,unknown
1610799137547,200,42,9.228515625000002E-6,0,0,0,799725,22783,619,9211,6817,15075,2248,2182,Tag0,unknown
1610799137572,200,59,1.29638671875E-5,0,0,0,799725,22783,619,9211,6817,15075,2248,2182,Tag0,unknown
1610799137589,200,68,1.4941406250000001E-5,0,0,0,799725,22783,619,9211,6817,15075,2248,2182,Tag0,unknown
1610799137605,200,70,1.5380859375E-5,0,0,0,799725,22783,619,9211,6817,15075,2248,2182,Tag0,unknown
1610799137622,200,121,2.6586914062500003E-5,0,0,0,799725,22783,619,9211,6817,15075,2248,2182,Tag0,unknown
1610799137638,200,117,2.5708007812499998E-5,0,0,0,799725,22783,619,9211,6817,15075,2248,2182,Tag0,unknown
1610799137659,200,-55,-1.20849609375E-5,0,0,0,799725,22783,619,9211,6817,15075,2248,2182,Tag0,unknown
1610799137672,200,-77,-1.69189453125E-5,0,0,0,799725,22783,619,9211,6817,15075,2248,2182,Tag0,unknown
1610799137688,200,-32,-7.03125E-6,0,0,0,799725,22783,619,9211,6817,15075,2248,2182,Tag0,unknown
1610799137709,200,-60,-1.318359375E-5,0,0,0,799725,22783,619,9211,6817,15075,2248,2182,Tag0,unknown
1610799137722,200,-62,-1.3623046875E-5,0,0,0,799725,22783,619,9211,6817,15075,2248,2182,Tag0,unknown
1610799137742,200,89,1.95556640625E-5,0,0,0,799725,22783,619,9211,6817,15075,2248,2182,Tag0,unknown
1610799137755,200,101,2.2192382812500002E-5,0,0,0,799725,22783,619,9211,6817,15075,2248,2182,Tag0,unknown
1610799137781,200,3,6.591796875E-7,0,0,0,799725,22783,619,9211,6817,15075,2248,2182,Tag0,unknown
1610799137791,200,-374,-8.2177734375E-5,0,0,0,799725,22783,619,9211,6817,15075,2248,2182,Tag0,unknown
1610799137834,200,-146,-3.2080078125000004E-5,0,0,0,799725,22783,619,9211,6817,15075,2248,2182,Tag0,unknown
1610799137856,200,43,9.448242187500001E-6,0,0,0,799725,22783,619,9211,6817,15075,2248,2182,Tag0,unknown
1610799137894,200,-292,-6.416015625000001E-5,0,0,0,799725,22783,619,9211,6817,15075,2248,2182,Tag0,unknown
1610799137905,200,-296,-6.50390625E-5,0,0,0,799725,22783,619,9211,6817,15075,2248,2182,Tag0,unknown
1610799137954,200,-295,-6.48193359375E-5,0,0,0,799725,22783,619,9211,6817,15075,2248,2182,Tag0,unknown
1610799137972,200,-308,-6.767578125E-5,0,0,0,799725,22783,619,9211,6817,15075,2248,2182,Tag0,unknown
1610799138000,200,33,7.2509765625E-6,0,0,0,799725,22783,619,9211,6817,15075,2248,2182,Tag0,unknown
1610799138048,200,-75,-1.64794921875E-5,0,0,0,799725,22783,619,9211,6817,15075,2248,2182,Tag0,unknown
1610799138058,200,-88,-1.93359375E-5,0,0,0,799725,22783,619,9211,6817,15075,2248,2182,Tag0,unknown
1610799138074,200,-19,-4.1748046875E-6,0,0,0,799725,22783,619,9211,6817,15075,2248,2182,Tag0,unknown
1610799138090,200,-54,-1.1865234375000001E-5,0,0,0,799725,22783,619,9211,6817,15075,2248,2182,Tag0,unknown
1610799138113,200,98,2.1533203125E-5,0,0,0,799725,22783,619,9211,6817,15075,2248,2182,Tag0,unknown
1610799138123,200,69,1.51611328125E-5,0,0,0,799725,22783,619,9211,6817,15075,2248,2182,Tag0,unknown
1610799138146,200,22,4.833984375E-6,0,0,0,799725,22783,619,9211,6817,15075,2248,2182,Tag0,unknown
1610799138156,200,51,1.1206054687499999E-5,0,0,0,799725,22783,619,9211,6817,15075,2248,2182,Tag0,unknown
1610799138183,200,-89,-1.95556640625E-5,0,0,0,799725,22783,619,9211,6817,15075,2248,2182,Tag0,unknown
1610799138193,200,17,3.7353515625000003E-6,0,0,0,799725,22783,619,9211,6817,15075,2248,2182,Tag0,unknown
1610799138241,200,85,1.86767578125E-5,0,0,0,799725,22783,619,9211,6817,15075,2248,2182,Tag0,unknown
1610799138257,200,57,1.2524414062500001E-5,0,0,0,799725,22783,619,9211,6817,15075,2248,2182,Tag0,unknown
1610799138299,200,54,1.1865234375000001E-5,0,0,0,799725,22783,619,9211,6817,15075,2248,2182,Tag0,unknown
1610799138309,200,80,1.7578125E-5,0,0,0,799725,22783,619,9211,6817,15075,2248,2182,Tag0,unknown
1610799138323,200,-124,-2.724609375E-5,0,0,0,799725,22783,619,9211,6817,15075,2248,2182,Tag0,unknown
1610799138362,200,-110,-2.4169921875E-5,0,0,0,799725,22783,619,9211,6817,15075,2248,2182,Tag0,unknown
1610799138382,200,-111,-2.43896484375E-5,0,0,0,799725,22783,619,9211,6817,15075,2248,2182,Tag0,unknown
1610799138392,200,48,1.0546875E-5,0,0,0,799725,22783,619,9211,6817,15075,2248,2182,Tag0,unknown
1610799138405,200,83,1.82373046875E-5,0,0,0,799725,22783,619,9211,6817,15075,2248,2182,Tag0,unknown
1610799138421,200,7,1.5380859375E-6,0,0,0,799725,22783,619,9211,6817,15075,2248,2182,Tag0,unknown
1610799138431,200,35,7.6904296875E-6,0,0,0,799725,22783,619,9211,6817,15075,2248,2182,Tag0,unknown
1610799138447,200,56,1.23046875E-5,0,0,0,799725,22783,619,9211,6817,15075,2248,2182,Tag0,unknown
1610799138457,200,41,9.008789062499999E-6,0,0,0,799725,22783,619,9211,6817,15075,2248,2182,Tag0,unknown
1610799138476,200,-299,-6.56982421875E-5,0,0,0,799725,22783,619,9211,6817,15075,2248,2182,Tag0,unknown
1610799138503,200,5,1.0986328125E-6,0,0,0,2010664,200133,8508,31255,19831,20575,17840,9674,Tag0,unknown
1610799138538,200,82,1.8017578124999998E-5,0,0,0,2010664,200133,8508,31255,19831,20575,17840,9674,Tag0,unknown
1610799138548,200,48,1.0546875E-5,0,0,0,2010664,200133,8508,31255,19831,20575,17840,9674,Tag0,unknown
1610799138562,200,-111,-2.43896484375E-5,0,0,0,2010664,200133,8508,31255,19831,20575,17840,9674,Tag0,unknown
1610799138572,200,-107,-2.35107421875E-5,0,0,0,2010664,200133,8508,31255,19831,20575,17840,9674,Tag0,unknown
1610799138582,200,-73,-1.6040039062500002E-5,0,0,0,2010664,200133,8508,31255,19831,20575,17840,9674,Tag0,unknown
1610799138594,200,-125,-2.74658203125E-5,0,0,0,2010664,200133,8508,31255,19831,20575,17840,9674,Tag0,unknown
1610799138613,200,-111,-2.43896484375E-5,0,0,0,2010664,200133,8508,31255,19831,20575,17840,9674,Tag0,unknown
1610799138629,200,104,2.28515625E-5,0,0,0,2010664,200133,8508,31255,19831,20575,17840,9674,Tag0,unknown
1610799138639,200,35,7.6904296875E-6,0,0,0,2010664,200133,8508,31255,19831,20575,17840,9674,Tag0,unknown
1610799138651,200,89,1.95556640625E-5,0,0,0,2010664,200133,8508,31255,19831,20575,17840,9674,Tag0,unknown
1610799138661,200,89,1.95556640625E-5,0,0,0,2010664,200133,8508,31255,19831,20575,17840,9674,Tag0,unknown
1610799138684,200,65,1.42822265625E-5,0,0,0,2010664,200133,8508,31255,19831,20575,17840,9674,Tag0,unknown
1610799138694,200,84,1.8457031250000004E-5,0,0,0,2010664,200133,8508,31255,19831,20575,17840,9674,Tag0,unknown
1610799138711,200,83,1.82373046875E-5,0,0,0,2010664,200133,8508,31255,19831,20575,17840,9674,Tag0,unknown
1610799138727,200,-122,-2.6806640625E-5,0,0,0,2010664,200133,8508,31255,19831,20575,17840,9674,Tag0,unknown
1610799138746,200,90,1.9775390625E-5,0,0,0,2010664,200133,8508,31255,19831,20575,17840,9674,Tag0,unknown
1610799138765,200,28,6.15234375E-6,0,0,0,2010664,200133,8508,31255,19831,20575,17840,9674,Tag0,unknown
1610799138778,200,98,2.1533203125E-5,0,0,0,2010664,200133,8508,31255,19831,20575,17840,9674,Tag0,unknown
1610799138788,200,61,1.34033203125E-5,0,0,0,2010664,200133,8508,31255,19831,20575,17840,9674,Tag0,unknown
1610799138798,200,0,0.0,0,0,0,2010664,200133,8508,31255,19831,20575,17840,9674,Tag0,unknown
1610799138808,200,-297,-6.525878906250001E-5,0,0,0,2010664,200133,8508,31255,19831,20575,17840,9674,Tag0,unknown
1610799138826,200,-384,-8.4375E-5,0,0,0,2010664,200133,8508,31255,19831,20575,17840,9674,Tag0,unknown
1610799138842,200,-270,-5.9326171875E-5,0,0,0,2010664,200133,8508,31255,19831,20575,17840,9674,Tag0,unknown
1610799138858,200,-236,-5.185546875E-5,0,0,0,2010664,200133,8508,31255,19831,20575,17840,9674,Tag0,unknown
1610799138876,200,-513,-1.127197265625E-4,0,0,0,2010664,200133,8508,31255,19831,20575,17840,9674,Tag0,unknown
1610799138901,200,-23,-5.0537109375E-6,0,0,0,2010664,200133,8508,31255,19831,20575,17840,9674,Tag0,unknown
1610799138917,200,272,5.9765625000000004E-5,0,0,0,2010664,200133,8508,31255,19831,20575,17840,9674,Tag0,unknown
1610799138927,200,353,7.75634765625E-5,0,0,0,2010664,200133,8508,31255,19831,20575,17840,9674,Tag0,unknown
1610799138939,200,115,2.52685546875E-5,0,0,0,2010664,200133,8508,31255,19831,20575,17840,9674,Tag0,unknown
1610799138959,200,-275,-6.04248046875E-5,0,0,0,2010664,200133,8508,31255,19831,20575,17840,9674,Tag0,unknown
1610799138994,200,-525,-1.153564453125E-4,0,0,0,2010664,200133,8508,31255,19831,20575,17840,9674,Tag0,unknown
1610799139012,200,-577,-1.2678222656250002E-4,0,0,0,2010664,200133,8508,31255,19831,20575,17840,9674,Tag0,unknown
1610799139022,200,-429,-9.42626953125E-5,0,0,0,2010664,200133,8508,31255,19831,20575,17840,9674,Tag0,unknown
1610799139032,200,-507,-1.1140136718750001E-4,0,0,0,2010664,200133,8508,31255,19831,20575,17840,9674,Tag0,unknown
1610799139057,200,113,2.48291015625E-5,0,0,0,2010664,200133,8508,31255,19831,20575,17840,9674,Tag0,unknown
1610799139080,200,-105,-2.30712890625E-5,0,0,0,2010664,200133,8508,31255,19831,20575,17840,9674,Tag0,unknown
1610799139114,200,1041,2.287353515625E-4,0,0,0,2010664,200133,8508,31255,19831,20575,17840,9674,Tag0,unknown
1610799139127,200,1047,2.300537109375E-4,0,0,0,2010664,200133,8508,31255,19831,20575,17840,9674,Tag0,unknown
1610799139137,200,1121,2.463134765625E-4,0,0,0,2010664,200133,8508,31255,19831,20575,17840,9674,Tag0,unknown
1610799139152,200,881,1.9357910156249998E-4,0,0,0,2010664,200133,8508,31255,19831,20575,17840,9674,Tag0,unknown
1610799139162,200,-62,-1.3623046875E-5,0,0,0,2010664,200133,8508,31255,19831,20575,17840,9674,Tag0,unknown
1610799139193,200,-633,-1.3908691406250002E-4,0,0,0,2010664,200133,8508,31255,19831,20575,17840,9674,Tag0,unknown
1610799139211,200,-430,-9.4482421875E-5,0,0,0,2010664,200133,8508,31255,19831,20575,17840,9674,Tag0,unknown
1610799139232,200,-495,-1.087646484375E-4,0,0,0,2010664,200133,8508,31255,19831,20575,17840,9674,Tag0,unknown
1610799139244,200,-429,-9.42626953125E-5,0,0,0,2010664,200133,8508,31255,19831,20575,17840,9674,Tag0,unknown
1610799139280,200,-185,-4.06494140625E-5,0,0,0,2010664,200133,8508,31255,19831,20575,17840,9674,Tag0,unknown
1610799139294,200,-181,-3.9770507812500004E-5,0,0,0,2010664,200133,8508,31255,19831,20575,17840,9674,Tag0,unknown
1610799139331,200,-122,-2.6806640625E-5,0,0,0,2010664,200133,8508,31255,19831,20575,17840,9674,Tag0,unknown
1610799139345,200,-89,-1.95556640625E-5,0,0,0,2010664,200133,8508,31255,19831,20575,17840,9674,Tag0,unknown
1610799139355,200,-91,-1.99951171875E-5,0,0,0,2010664,200133,8508,31255,19831,20575,17840,9674,Tag0,unknown
1610799139365,200,99,2.1752929687500003E-5,0,0,0,2010664,200133,8508,31255,19831,20575,17840,9674,Tag0,unknown
1610799139392,200,69,1.51611328125E-5,0,0,0,2010664,200133,8508,31255,19831,20575,17840,9674,Tag0,unknown
1610799139411,200,53,1.1645507812500002E-5,0,0,0,2010664,200133,8508,31255,19831,20575,17840,9674,Tag0,unknown
1610799139421,200,-257,-5.64697265625E-5,0,0,0,2010664,200133,8508,31255,19831,20575,17840,9674,Tag0,unknown
1610799139454,200,59,1.29638671875E-5,0,0,0,2010664,200133,8508,31255,19831,20575,17840,9674,Tag0,unknown
1610799139464,200,97,2.13134765625E-5,0,0,0,2010664,200133,8508,31255,19831,20575,17840,9674,Tag0,unknown
1610799139479,200,117,2.5708007812499998E-5,0,0,0,2010664,200133,8508,31255,19831,20575,17840,9674,Tag0,unknown
1610799139518,200,-37,-8.1298828125E-6,0,0,0,791286,138667,22711,7357,8336,16407,4982,1954,Tag0,unknown
1610799139528,200,-93,-2.04345703125E-5,0,0,0,791286,138667,22711,7357,8336,16407,4982,1954,Tag0,unknown
1610799139544,200,-79,-1.7358398437500003E-5,0,0,0,791286,138667,22711,7357,8336,16407,4982,1954,Tag0,unknown
1610799139590,200,99,2.1752929687500003E-5,0,0,0,791286,138667,22711,7357,8336,16407,4982,1954,Tag0,unknown
1610799139613,200,70,1.5380859375E-5,0,0,0,791286,138667,22711,7357,8336,16407,4982,1954,Tag0,unknown
1610799139623,200,96,2.109375E-5,0,0,0,791286,138667,22711,7357,8336,16407,4982,1954,Tag0,unknown
1610799139633,200,77,1.69189453125E-5,0,0,0,791286,138667,22711,7357,8336,16407,4982,1954,Tag0,unknown
1610799139643,200,42,9.228515625000002E-6,0,0,0,791286,138667,22711,7357,8336,16407,4982,1954,Tag0,unknown
1610799139653,200,-305,-6.70166015625E-5,0,0,0,791286,138667,22711,7357,8336,16407,4982,1954,Tag0,unknown
1610799139673,200,-313,-6.87744140625E-5,0,0,0,791286,138667,22711,7357,8336,16407,4982,1954,Tag0,unknown
1610799139693,200,33,7.2509765625E-6,0,0,0,791286,138667,22711,7357,8336,16407,4982,1954,Tag0,unknown
1610799139750,200,-127,-2.79052734375E-5,0,0,0,791286,138667,22711,7357,8336,16407,4982,1954,Tag0,unknown
1610799139768,200,104,2.28515625E-5,0,0,0,791286,138667,22711,7357,8336,16407,4982,1954,Tag0,unknown
1610799139778,200,121,2.6586914062500003E-5,0,0,0,791286,138667,22711,7357,8336,16407,4982,1954,Tag0,unknown
1610799139790,200,86,1.8896484375000003E-5,0,0,0,791286,138667,22711,7357,8336,16407,4982,1954,Tag0,unknown
1610799139800,200,67,1.4721679687500002E-5,0,0,0,791286,138667,22711,7357,8336,16407,4982,1954,Tag0,unknown
1610799139811,200,117,2.5708007812499998E-5,0,0,0,791286,138667,22711,7357,8336,16407,4982,1954,Tag0,unknown
1610799139831,200,88,1.93359375E-5,0,0,0,791286,138667,22711,7357,8336,16407,4982,1954,Tag0,unknown
1610799139841,200,-263,-5.7788085937500005E-5,0,0,0,791286,138667,22711,7357,8336,16407,4982,1954,Tag0,unknown
1610799139861,200,56,1.23046875E-5,0,0,0,791286,138667,22711,7357,8336,16407,4982,1954,Tag0,unknown
1610799139882,200,69,1.51611328125E-5,0,0,0,791286,138667,22711,7357,8336,16407,4982,1954,Tag0,unknown
1610799139893,200,93,2.04345703125E-5,0,0,0,791286,138667,22711,7357,8336,16407,4982,1954,Tag0,unknown
1610799139903,200,-305,-6.70166015625E-5,0,0,0,791286,138667,22711,7357,8336,16407,4982,1954,Tag0,unknown
1610799139928,200,53,1.1645507812500002E-5,0,0,0,791286,138667,22711,7357,8336,16407,4982,1954,Tag0,unknown
1610799139980,200,85,1.86767578125E-5,0,0,0,791286,138667,22711,7357,8336,16407,4982,1954,Tag0,unknown
1610799140001,200,85,1.86767578125E-5,0,0,0,791286,138667,22711,7357,8336,16407,4982,1954,Tag0,unknown
1610799140011,200,-89,-1.95556640625E-5,0,0,0,791286,138667,22711,7357,8336,16407,4982,1954,Tag0,unknown
1610799140037,200,-101,-2.2192382812500002E-5,0,0,0,791286,138667,22711,7357,8336,16407,4982,1954,Tag0,unknown
1610799140049,200,-83,-1.82373046875E-5,0,0,0,791286,138667,22711,7357,8336,16407,4982,1954,Tag0,unknown
1610799140059,200,-121,-2.6586914062500003E-5,0,0,0,791286,138667,22711,7357,8336,16407,4982,1954,Tag0,unknown
1610799140069,200,98,2.1533203125E-5,0,0,0,791286,138667,22711,7357,8336,16407,4982,1954,Tag0,unknown
1610799140079,200,-125,-2.74658203125E-5,0,0,0,791286,138667,22711,7357,8336,16407,4982,1954,Tag0,unknown
1610799140096,200,85,1.86767578125E-5,0,0,0,791286,138667,22711,7357,8336,16407,4982,1954,Tag0,unknown
1610799140112,200,81,1.77978515625E-5,0,0,0,791286,138667,22711,7357,8336,16407,4982,1954,Tag0,unknown
1610799140153,200,117,2.5708007812499998E-5,0,0,0,791286,138667,22711,7357,8336,16407,4982,1954,Tag0,unknown
1610799140167,200,-119,-2.6147460937500004E-5,0,0,0,791286,138667,22711,7357,8336,16407,4982,1954,Tag0,unknown
1610799140178,200,71,1.56005859375E-5,0,0,0,791286,138667,22711,7357,8336,16407,4982,1954,Tag0,unknown
1610799140188,200,-265,-5.82275390625E-5,0,0,0,791286,138667,22711,7357,8336,16407,4982,1954,Tag0,unknown
1610799140214,200,50,1.0986328125E-5,0,0,0,791286,138667,22711,7357,8336,16407,4982,1954,Tag0,unknown
1610799140227,200,49,1.07666015625E-5,0,0,0,791286,138667,22711,7357,8336,16407,4982,1954,Tag0,unknown
1610799140272,200,3,6.591796875E-7,0,0,0,791286,138667,22711,7357,8336,16407,4982,1954,Tag0,unknown
1610799140282,200,19,4.1748046875E-6,0,0,0,791286,138667,22711,7357,8336,16407,4982,1954,Tag0,unknown
1610799140292,200,43,9.448242187500001E-6,0,0,0,791286,138667,22711,7357,8336,16407,4982,1954,Tag0,unknown
1610799140356,200,13,2.8564453125E-6,0,0,0,791286,138667,22711,7357,8336,16407,4982,1954,Tag0,unknown
1610799140388,200,9,1.9775390625E-6,0,0,0,791286,138667,22711,7357,8336,16407,4982,1954,Tag0,unknown
1610799140416,200,-45,-9.8876953125E-6,0,0,0,791286,138667,22711,7357,8336,16407,4982,1954,Tag0,unknown
1610799140430,200,-47,-1.0327148437500001E-5,0,0,0,791286,138667,22711,7357,8336,16407,4982,1954,Tag0,unknown
1610799140531,200,-77,-1.69189453125E-5,0,0,0,791286,138667,22711,7357,8336,16407,4982,1954,Tag0,unknown
1610799140550,200,-108,-2.3730468750000002E-5,0,0,0,791286,138667,22711,7357,8336,16407,4982,1954,Tag0,unknown
1610799140560,200,72,1.58203125E-5,0,0,0,791286,138667,22711,7357,8336,16407,4982,1954,Tag0,unknown
1610799140602,200,104,2.28515625E-5,0,0,0,791286,138667,22711,7357,8336,16407,4982,1954,Tag0,unknown
1610799140613,200,87,1.91162109375E-5,0,0,0,791286,138667,22711,7357,8336,16407,4982,1954,Tag0,unknown
1610799140669,200,90,1.9775390625E-5,0,0,0,791286,138667,22711,7357,8336,16407,4982,1954,Tag0,unknown
1610799140682,200,69,1.51611328125E-5,0,0,0,791286,138667,22711,7357,8336,16407,4982,1954,Tag0,unknown
1610799140808,200,25,5.4931640625E-6,0,0,0,791286,138667,22711,7357,8336,16407,4982,1954,Tag0,unknown
1610799140820,200,33,7.2509765625E-6,0,0,0,791286,138667,22711,7357,8336,16407,4982,1954,Tag0,unknown
1610799140830,200,64,1.40625E-5,0,0,0,791286,138667,22711,7357,8336,16407,4982,1954,Tag0,unknown
1610799140840,200,67,1.4721679687500002E-5,0,0,0,791286,138667,22711,7357,8336,16407,4982,1954,Tag0,unknown
1610799140876,200,90,1.9775390625E-5,0,0,0,791286,138667,22711,7357,8336,16407,4982,1954,Tag0,unknown
1610799140899,200,92,2.021484375E-5,0,0,0,791286,138667,22711,7357,8336,16407,4982,1954,Tag0,unknown
1610799140909,200,69,1.51611328125E-5,0,0,0,16748869,16750112,9129,5820,3913,5084,6187,2817,Tag0,unknown
1610799140937,200,-275,-6.04248046875E-5,0,0,0,16748869,16750112,9129,5820,3913,5084,6187,2817,Tag0,unknown
1610799140948,200,-267,-5.86669921875E-5,0,0,0,16748869,16750112,9129,5820,3913,5084,6187,2817,Tag0,unknown
1610799140966,200,-279,-6.13037109375E-5,0,0,0,16748869,16750112,9129,5820,3913,5084,6187,2817,Tag0,unknown
1610799140976,200,96,2.109375E-5,0,0,0,16748869,16750112,9129,5820,3913,5084,6187,2817,Tag0,unknown
1610799140988,200,-72,-1.58203125E-5,0,0,0,16748869,16750112,9129,5820,3913,5084,6187,2817,Tag0,unknown
1610799140998,200,118,2.5927734375E-5,0,0,0,16748869,16750112,9129,5820,3913,5084,6187,2817,Tag0,unknown
1610799141009,200,57,1.2524414062500001E-5,0,0,0,16748869,16750112,9129,5820,3913,5084,6187,2817,Tag0,unknown
1610799141019,200,-285,-6.26220703125E-5,0,0,0,16748869,16750112,9129,5820,3913,5084,6187,2817,Tag0,unknown
1610799141037,200,27,5.9326171875000005E-6,0,0,0,16748869,16750112,9129,5820,3913,5084,6187,2817,Tag0,unknown
1610799141047,200,32,7.03125E-6,0,0,0,16748869,16750112,9129,5820,3913,5084,6187,2817,Tag0,unknown
1610799141073,200,87,1.91162109375E-5,0,0,0,16748869,16750112,9129,5820,3913,5084,6187,2817,Tag0,unknown
1610799141084,200,73,1.6040039062500002E-5,0,0,0,16748869,16750112,9129,5820,3913,5084,6187,2817,Tag0,unknown
1610799141119,200,56,1.23046875E-5,0,0,0,16748869,16750112,9129,5820,3913,5084,6187,2817,Tag0,unknown
1610799141134,200,72,1.58203125E-5,0,0,0,16748869,16750112,9129,5820,3913,5084,6187,2817,Tag0,unknown
1610799141152,200,-120,-2.63671875E-5,0,0,0,16748869,16750112,9129,5820,3913,5084,6187,2817,Tag0,unknown
1610799141177,200,-257,-5.64697265625E-5,0,0,0,16748869,16750112,9129,5820,3913,5084,6187,2817,Tag0,unknown
1610799141197,200,-294,-6.4599609375E-5,0,0,0,16748869,16750112,9129,5820,3913,5084,6187,2817,Tag0,unknown
1610799141215,200,-129,-2.8344726562500002E-5,0,0,0,16748869,16750112,9129,5820,3913,5084,6187,2817,Tag0,unknown
1610799141232,200,-153,-3.3618164062500004E-5,0,0,0,16748869,16750112,9129,5820,3913,5084,6187,2817,Tag0,unknown
1610799141251,200,-299,-6.56982421875E-5,0,0,0,16748869,16750112,9129,5820,3913,5084,6187,2817,Tag0,unknown
1610799141266,200,-265,-5.82275390625E-5,0,0,0,16748869,16750112,9129,5820,3913,5084,6187,2817,Tag0,unknown
1610799141276,200,125,2.74658203125E-5,0,0,0,16748869,16750112,9129,5820,3913,5084,6187,2817,Tag0,unknown
1610799141286,200,-80,-1.7578125E-5,0,0,0,16748869,16750112,9129,5820,3913,5084,6187,2817,Tag0,unknown
1610799141299,200,-78,-1.7138671875E-5,0,0,0,16748869,16750112,9129,5820,3913,5084,6187,2817,Tag0,unknown
1610799141323,200,-118,-2.5927734375E-5,0,0,0,16748869,16750112,9129,5820,3913,5084,6187,2817,Tag0,unknown
1610799141333,200,-106,-2.3291015625000003E-5,0,0,0,16748869,16750112,9129,5820,3913,5084,6187,2817,Tag0,unknown
1610799141343,200,-123,-2.70263671875E-5,0,0,0,16748869,16750112,9129,5820,3913,5084,6187,2817,Tag0,unknown
1610799141353,200,292,6.416015625000001E-5,0,0,0,16748869,16750112,9129,5820,3913,5084,6187,2817,Tag0,unknown
1610799141366,200,-8,-1.7578125E-6,0,0,0,16748869,16750112,9129,5820,3913,5084,6187,2817,Tag0,unknown
1610799141383,200,119,2.6147460937500004E-5,0,0,0,16748869,16750112,9129,5820,3913,5084,6187,2817,Tag0,unknown
1610799141400,200,-291,-6.39404296875E-5,0,0,0,16748869,16750112,9129,5820,3913,5084,6187,2817,Tag0,unknown
1610799141417,200,-169,-3.7133789062499996E-5,0,0,0,16748869,16750112,9129,5820,3913,5084,6187,2817,Tag0,unknown
1610799141427,200,-589,-1.294189453125E-4,0,0,0,16748869,16750112,9129,5820,3913,5084,6187,2817,Tag0,unknown
1610799141449,200,-245,-5.38330078125E-5,0,0,0,16748869,16750112,9129,5820,3913,5084,6187,2817,Tag0,unknown
1610799141468,200,-356,-7.822265625E-5,0,0,0,16748869,16750112,9129,5820,3913,5084,6187,2817,Tag0,unknown
1610799141483,200,-335,-7.36083984375E-5,0,0,0,16748869,16750112,9129,5820,3913,5084,6187,2817,Tag0,unknown
1610799141493,200,113,2.48291015625E-5,0,0,0,104411,16762414,7323,5443,1989,4130,3492,2587,Tag0,unknown
1610799141504,200,-121,-2.6586914062500003E-5,0,0,0,104411,16762414,7323,5443,1989,4130,3492,2587,Tag0,unknown
1610799141515,200,-105,-2.30712890625E-5,0,0,0,104411,16762414,7323,5443,1989,4130,3492,2587,Tag0,unknown
1610799141538,200,-15,-3.2958984375E-6,0,0,0,104411,16762414,7323,5443,1989,4130,3492,2587,Tag0,unknown
1610799141550,200,267,5.86669921875E-5,0,0,0,104411,16762414,7323,5443,1989,4130,3492,2587,Tag0,unknown
1610799141565,200,375,8.23974609375E-5,0,0,0,104411,16762414,7323,5443,1989,4130,3492,2587,Tag0,unknown
1610799141583,200,342,7.5146484375E-5,0,0,0,104411,16762414,7323,5443,1989,4130,3492,2587,Tag0,unknown
1610799141608,200,-22,-4.833984375E-6,0,0,0,104411,16762414,7323,5443,1989,4130,3492,2587,Tag0,unknown
1610799141618,200,259,5.69091796875E-5,0,0,0,104411,16762414,7323,5443,1989,4130,3492,2587,Tag0,unknown
1610799141628,200,-127,-2.79052734375E-5,0,0,0,104411,16762414,7323,5443,1989,4130,3492,2587,Tag0,unknown
1610799141638,200,-265,-5.82275390625E-5,0,0,0,104411,16762414,7323,5443,1989,4130,3492,2587,Tag0,unknown
1610799141651,200,-275,-6.04248046875E-5,0,0,0,104411,16762414,7323,5443,1989,4130,3492,2587,Tag0,unknown
1610799141678,200,-297,-6.525878906250001E-5,0,0,0,104411,16762414,7323,5443,1989,4130,3492,2587,Tag0,unknown
1610799141688,200,-281,-6.17431640625E-5,0,0,0,104411,16762414,7323,5443,1989,4130,3492,2587,Tag0,unknown
1610799141700,200,87,1.91162109375E-5,0,0,0,104411,16762414,7323,5443,1989,4130,3492,2587,Tag0,unknown
1610799141710,200,-263,-5.7788085937500005E-5,0,0,0,104411,16762414,7323,5443,1989,4130,3492,2587,Tag0,unknown
1610799141721,200,-282,-6.1962890625E-5,0,0,0,104411,16762414,7323,5443,1989,4130,3492,2587,Tag0,unknown
1610799141734,200,21,4.614257812500001E-6,0,0,0,104411,16762414,7323,5443,1989,4130,3492,2587,Tag0,unknown
1610799141755,200,-98,-2.1533203125E-5,0,0,0,104411,16762414,7323,5443,1989,4130,3492,2587,Tag0,unknown
1610799141768,200,125,2.74658203125E-5,0,0,0,104411,16762414,7323,5443,1989,4130,3492,2587,Tag0,unknown
1610799141778,200,39,8.5693359375E-6,0,0,0,104411,16762414,7323,5443,1989,4130,3492,2587,Tag0,unknown
1610799141799,200,55,1.20849609375E-5,0,0,0,104411,16762414,7323,5443,1989,4130,3492,2587,Tag0,unknown
1610799141815,200,49,1.07666015625E-5,0,0,0,104411,16762414,7323,5443,1989,4130,3492,2587,Tag0,unknown
1610799141841,200,72,1.58203125E-5,0,0,0,104411,16762414,7323,5443,1989,4130,3492,2587,Tag0,unknown
1610799141851,200,59,1.29638671875E-5,0,0,0,104411,16762414,7323,5443,1989,4130,3492,2587,Tag0,unknown
1610799141877,200,-284,-6.240234375E-5,0,0,0,104411,16762414,7323,5443,1989,4130,3492,2587,Tag0,unknown
1610799141890,200,-265,-5.82275390625E-5,0,0,0,104411,16762414,7323,5443,1989,4130,3492,2587,Tag0,unknown
1610799141900,200,67,1.4721679687500002E-5,0,0,0,104411,16762414,7323,5443,1989,4130,3492,2587,Tag0,unknown
1610799141910,200,61,1.34033203125E-5,0,0,0,104411,16762414,7323,5443,1989,4130,3492,2587,Tag0,unknown
1610799141925,200,40,8.7890625E-6,0,0,0,104411,16762414,7323,5443,1989,4130,3492,2587,Tag0,unknown
1610799141947,200,43,9.448242187500001E-6,0,0,0,104411,16762414,7323,5443,1989,4130,3492,2587,Tag0,unknown
1610799141967,200,57,1.2524414062500001E-5,0,0,0,104411,16762414,7323,5443,1989,4130,3492,2587,Tag0,unknown
1610799141977,200,94,2.0654296875000002E-5,0,0,0,104411,16762414,7323,5443,1989,4130,3492,2587,Tag0,unknown
1610799141993,200,35,7.6904296875E-6,0,0,0,104411,16762414,7323,5443,1989,4130,3492,2587,Tag0,unknown
1610799142003,200,65,1.42822265625E-5,0,0,0,104411,16762414,7323,5443,1989,4130,3492,2587,Tag0,unknown
1610799142016,200,114,2.5048828125000003E-5,0,0,0,104411,16762414,7323,5443,1989,4130,3492,2587,Tag0,unknown
1610799142034,200,81,1.77978515625E-5,0,0,0,104411,16762414,7323,5443,1989,4130,3492,2587,Tag0,unknown
1610799142049,200,105,2.30712890625E-5,0,0,0,104411,16762414,7323,5443,1989,4130,3492,2587,Tag0,unknown
1610799142070,200,20,4.39453125E-6,0,0,0,104411,16762414,7323,5443,1989,4130,3492,2587,Tag0,unknown
1610799142083,200,35,7.6904296875E-6,0,0,0,104411,16762414,7323,5443,1989,4130,3492,2587,Tag0,unknown
1610799142100,200,-314,-6.8994140625E-5,0,0,0,104411,16762414,7323,5443,1989,4130,3492,2587,Tag0,unknown
1610799142119,200,114,2.5048828125000003E-5,0,0,0,104411,16762414,7323,5443,1989,4130,3492,2587,Tag0,unknown
1610799142136,200,35,7.6904296875E-6,0,0,0,104411,16762414,7323,5443,1989,4130,3492,2587,Tag0,unknown
1610799142150,200,-357,-7.844238281250001E-5,0,0,0,104411,16762414,7323,5443,1989,4130,3492,2587,Tag0,unknown
1610799142160,200,41,9.008789062499999E-6,0,0,0,104411,16762414,7323,5443,1989,4130,3492,2587,Tag0,unknown
1610799142178,200,-119,-2.6147460937500004E-5,0,0,0,104411,16762414,7323,5443,1989,4130,3492,2587,Tag0,unknown
1610799142199,200,57,1.2524414062500001E-5,0,0,0,104411,16762414,7323,5443,1989,4130,3492,2587,Tag0,unknown
1610799142215,200,70,1.5380859375E-5,0,0,0,104411,16762414,7323,5443,1989,4130,3492,2587,Tag0,unknown
1610799142235,200,85,1.86767578125E-5,0,0,0,104411,16762414,7323,5443,1989,4130,3492,2587,Tag0,unknown
1610799142245,200,55,1.20849609375E-5,0,0,0,104411,16762414,7323,5443,1989,4130,3492,2587,Tag0,unknown
1610799142268,200,116,2.548828125E-5,0,0,0,104411,16762414,7323,5443,1989,4130,3492,2587,Tag0,unknown
1610799142289,200,-108,-2.3730468750000002E-5,0,0,0,104411,16762414,7323,5443,1989,4130,3492,2587,Tag0,unknown
1610799142302,200,-93,-2.04345703125E-5,0,0,0,104411,16762414,7323,5443,1989,4130,3492,2587,Tag0,unknown
1610799142312,200,-79,-1.7358398437500003E-5,0,0,0,104411,16762414,7323,5443,1989,4130,3492,2587,Tag0,unknown
1610799142325,200,-105,-2.30712890625E-5,0,0,0,104411,16762414,7323,5443,1989,4130,3492,2587,Tag0,unknown
1610799142335,200,-121,-2.6586914062500003E-5,0,0,0,104411,16762414,7323,5443,1989,4130,3492,2587,Tag0,unknown
1610799142358,200,87,1.91162109375E-5,0,0,0,104411,16762414,7323,5443,1989,4130,3492,2587,Tag0,unknown
1610799142368,200,23,5.0537109375E-6,0,0,0,104411,16762414,7323,5443,1989,4130,3492,2587,Tag0,unknown
1610799142382,200,113,2.48291015625E-5,0,0,0,104411,16762414,7323,5443,1989,4130,3492,2587,Tag0,unknown
1610799142405,200,120,2.63671875E-5,0,0,0,104411,16762414,7323,5443,1989,4130,3492,2587,Tag0,unknown
1610799142424,200,-120,-2.63671875E-5,0,0,0,104411,16762414,7323,5443,1989,4130,3492,2587,Tag0,unknown
1610799142434,200,9,1.9775390625E-6,0,0,0,104411,16762414,7323,5443,1989,4130,3492,2587,Tag0,unknown
1610799142444,200,-302,-6.6357421875E-5,0,0,0,104411,16762414,7323,5443,1989,4130,3492,2587,Tag0,unknown
1610799142454,200,103,2.26318359375E-5,0,0,0,104411,16762414,7323,5443,1989,4130,3492,2587,Tag0,unknown
1610799142467,200,-270,-5.9326171875E-5,0,0,0,104411,16762414,7323,5443,1989,4130,3492,2587,Tag0,unknown
1610799142488,200,-123,-2.70263671875E-5,0,0,0,398627,16753637,1640,16407,21415,16747854,30252,11341,Tag0,unknown
1610799142500,200,-102,-2.2412109374999998E-5,0,0,0,398627,16753637,1640,16407,21415,16747854,30252,11341,Tag0,unknown
1610799142521,200,48,1.0546875E-5,0,0,0,398627,16753637,1640,16407,21415,16747854,30252,11341,Tag0,unknown
1610799142533,200,43,9.448242187500001E-6,0,0,0,398627,16753637,1640,16407,21415,16747854,30252,11341,Tag0,unknown
1610799142560,200,-125,-2.74658203125E-5,0,0,0,398627,16753637,1640,16407,21415,16747854,30252,11341,Tag0,unknown
1610799142570,200,-108,-2.3730468750000002E-5,0,0,0,398627,16753637,1640,16407,21415,16747854,30252,11341,Tag0,unknown
1610799142594,200,65,1.42822265625E-5,0,0,0,398627,16753637,1640,16407,21415,16747854,30252,11341,Tag0,unknown
1610799142604,200,106,2.3291015625000003E-5,0,0,0,398627,16753637,1640,16407,21415,16747854,30252,11341,Tag0,unknown
1610799142614,200,120,2.63671875E-5,0,0,0,398627,16753637,1640,16407,21415,16747854,30252,11341,Tag0,unknown
1610799142624,200,48,1.0546875E-5,0,0,0,398627,16753637,1640,16407,21415,16747854,30252,11341,Tag0,unknown
1610799142635,200,117,2.5708007812499998E-5,0,0,0,398627,16753637,1640,16407,21415,16747854,30252,11341,Tag0,unknown
1610799142650,200,55,1.20849609375E-5,0,0,0,398627,16753637,1640,16407,21415,16747854,30252,11341,Tag0,unknown
1610799142667,200,83,1.82373046875E-5,0,0,0,398627,16753637,1640,16407,21415,16747854,30252,11341,Tag0,unknown
1610799142683,200,-108,-2.3730468750000002E-5,0,0,0,398627,16753637,1640,16407,21415,16747854,30252,11341,Tag0,unknown
1610799142709,200,52,1.142578125E-5,0,0,0,398627,16753637,1640,16407,21415,16747854,30252,11341,Tag0,unknown
1610799142720,200,55,1.20849609375E-5,0,0,0,398627,16753637,1640,16407,21415,16747854,30252,11341,Tag0,unknown
1610799142743,200,39,8.5693359375E-6,0,0,0,398627,16753637,1640,16407,21415,16747854,30252,11341,Tag0,unknown
1610799142754,200,72,1.58203125E-5,0,0,0,398627,16753637,1640,16407,21415,16747854,30252,11341,Tag0,unknown
1610799142764,200,-73,-1.6040039062500002E-5,0,0,0,398627,16753637,1640,16407,21415,16747854,30252,11341,Tag0,unknown
1610799142774,200,58,1.2744140625E-5,0,0,0,398627,16753637,1640,16407,21415,16747854,30252,11341,Tag0,unknown
1610799142785,200,57,1.2524414062500001E-5,0,0,0,398627,16753637,1640,16407,21415,16747854,30252,11341,Tag0,unknown
1610799142800,200,-117,-2.5708007812499998E-5,0,0,0,398627,16753637,1640,16407,21415,16747854,30252,11341,Tag0,unknown
1610799142828,200,-301,-6.613769531250001E-5,0,0,0,398627,16753637,1640,16407,21415,16747854,30252,11341,Tag0,unknown
1610799142838,200,-325,-7.14111328125E-5,0,0,0,398627,16753637,1640,16407,21415,16747854,30252,11341,Tag0,unknown
1610799142863,200,-359,-7.88818359375E-5,0,0,0,398627,16753637,1640,16407,21415,16747854,30252,11341,Tag0,unknown
1610799142875,200,-357,-7.844238281250001E-5,0,0,0,398627,16753637,1640,16407,21415,16747854,30252,11341,Tag0,unknown
1610799142885,200,99,2.1752929687500003E-5,0,0,0,398627,16753637,1640,16407,21415,16747854,30252,11341,Tag0,unknown
1610799142895,200,87,1.91162109375E-5,0,0,0,398627,16753637,1640,16407,21415,16747854,30252,11341,Tag0,unknown
1610799142907,200,-273,-5.998535156250001E-5,0,0,0,398627,16753637,1640,16407,21415,16747854,30252,11341,Tag0,unknown
1610799142934,200,108,2.3730468750000002E-5,0,0,0,398627,16753637,1640,16407,21415,16747854,30252,11341,Tag0,unknown
1610799142951,200,113,2.48291015625E-5,0,0,0,398627,16753637,1640,16407,21415,16747854,30252,11341,Tag0,unknown
1610799142986,200,108,2.3730468750000002E-5,0,0,0,398627,16753637,1640,16407,21415,16747854,30252,11341,Tag0,unknown
1610799143002,200,97,2.13134765625E-5,0,0,0,398627,16753637,1640,16407,21415,16747854,30252,11341,Tag0,unknown
1610799143012,200,83,1.82373046875E-5,0,0,0,398627,16753637,1640,16407,21415,16747854,30252,11341,Tag0,unknown
1610799143023,200,86,1.8896484375000003E-5,0,0,0,398627,16753637,1640,16407,21415,16747854,30252,11341,Tag0,unknown
1610799143035,200,113,2.48291015625E-5,0,0,0,398627,16753637,1640,16407,21415,16747854,30252,11341,Tag0,unknown
1610799143056,200,107,2.35107421875E-5,0,0,0,398627,16753637,1640,16407,21415,16747854,30252,11341,Tag0,unknown
1610799143068,200,115,2.52685546875E-5,0,0,0,398627,16753637,1640,16407,21415,16747854,30252,11341,Tag0,unknown
1610799143078,200,261,5.73486328125E-5,0,0,0,398627,16753637,1640,16407,21415,16747854,30252,11341,Tag0,unknown
1610799143094,200,-45,-9.8876953125E-6,0,0,0,398627,16753637,1640,16407,21415,16747854,30252,11341,Tag0,unknown
1610799143104,200,-24,-5.2734375E-6,0,0,0,398627,16753637,1640,16407,21415,16747854,30252,11341,Tag0,unknown
1610799143128,200,115,2.52685546875E-5,0,0,0,398627,16753637,1640,16407,21415,16747854,30252,11341,Tag0,unknown
1610799143151,200,37,8.1298828125E-6,0,0,0,398627,16753637,1640,16407,21415,16747854,30252,11341,Tag0,unknown
1610799143169,200,40,8.7890625E-6,0,0,0,398627,16753637,1640,16407,21415,16747854,30252,11341,Tag0,unknown
1610799143185,200,56,1.23046875E-5,0,0,0,398627,16753637,1640,16407,21415,16747854,30252,11341,Tag0,unknown
1610799143203,200,8,1.7578125E-6,0,0,0,398627,16753637,1640,16407,21415,16747854,30252,11341,Tag0,unknown
1610799143221,200,-279,-6.13037109375E-5,0,0,0,398627,16753637,1640,16407,21415,16747854,30252,11341,Tag0,unknown
1610799143231,200,38,8.349609375E-6,0,0,0,398627,16753637,1640,16407,21415,16747854,30252,11341,Tag0,unknown
1610799143241,200,19,4.1748046875E-6,0,0,0,398627,16753637,1640,16407,21415,16747854,30252,11341,Tag0,unknown
1610799143253,200,-264,-5.80078125E-5,0,0,0,398627,16753637,1640,16407,21415,16747854,30252,11341,Tag0,unknown
1610799143279,200,48,1.0546875E-5,0,0,0,398627,16753637,1640,16407,21415,16747854,30252,11341,Tag0,unknown
1610799143289,200,73,1.6040039062500002E-5,0,0,0,398627,16753637,1640,16407,21415,16747854,30252,11341,Tag0,unknown
1610799143313,200,21,4.614257812500001E-6,0,0,0,398627,16753637,1640,16407,21415,16747854,30252,11341,Tag0,unknown
1610799143334,200,93,2.04345703125E-5,0,0,0,398627,16753637,1640,16407,21415,16747854,30252,11341,Tag0,unknown
1610799143351,200,67,1.4721679687500002E-5,0,0,0,398627,16753637,1640,16407,21415,16747854,30252,11341,Tag0,unknown
1610799143368,200,119,2.6147460937500004E-5,0,0,0,398627,16753637,1640,16407,21415,16747854,30252,11341,Tag0,unknown
1610799143386,200,107,2.35107421875E-5,0,0,0,398627,16753637,1640,16407,21415,16747854,30252,11341,Tag0,unknown
1610799143402,200,73,1.6040039062500002E-5,0,0,0,398627,16753637,1640,16407,21415,16747854,30252,11341,Tag0,unknown
1610799143420,200,-308,-6.767578125E-5,0,0,0,398627,16753637,1640,16407,21415,16747854,30252,11341,Tag0,unknown
1610799143437,200,-315,-6.92138671875E-5,0,0,0,398627,16753637,1640,16407,21415,16747854,30252,11341,Tag0,unknown
1610799143447,200,-138,-3.0322265625E-5,0,0,0,398627,16753637,1640,16407,21415,16747854,30252,11341,Tag0,unknown
1610799143460,200,-131,-2.87841796875E-5,0,0,0,398627,16753637,1640,16407,21415,16747854,30252,11341,Tag0,unknown
1610799143472,200,-135,-2.96630859375E-5,0,0,0,7931,13886,3131,8945,10876,3284,5212,2084,Tag0,unknown
1610799143491,200,-307,-6.74560546875E-5,0,0,0,7931,13886,3131,8945,10876,3284,5212,2084,Tag0,unknown
1610799143502,200,28,6.15234375E-6,0,0,0,7931,13886,3131,8945,10876,3284,5212,2084,Tag0,unknown
1610799143519,200,37,8.1298828125E-6,0,0,0,7931,13886,3131,8945,10876,3284,5212,2084,Tag0,unknown
1610799143536,200,-115,-2.52685546875E-5,0,0,0,7931,13886,3131,8945,10876,3284,5212,2084,Tag0,unknown
1610799143552,200,112,2.4609375E-5,0,0,0,7931,13886,3131,8945,10876,3284,5212,2084,Tag0,unknown
1610799143562,200,-19,-4.1748046875E-6,0,0,0,7931,13886,3131,8945,10876,3284,5212,2084,Tag0,unknown
1610799143573,200,-73,-1.6040039062500002E-5,0,0,0,7931,13886,3131,8945,10876,3284,5212,2084,Tag0,unknown
1610799143587,200,-45,-9.8876953125E-6,0,0,0,7931,13886,3131,8945,10876,3284,5212,2084,Tag0,unknown
1610799143607,200,-271,-5.95458984375E-5,0,0,0,7931,13886,3131,8945,10876,3284,5212,2084,Tag0,unknown
1610799143621,200,-260,-5.712890625E-5,0,0,0,7931,13886,3131,8945,10876,3284,5212,2084,Tag0,unknown
1610799143631,200,84,1.8457031250000004E-5,0,0,0,7931,13886,3131,8945,10876,3284,5212,2084,Tag0,unknown
1610799143646,200,84,1.8457031250000004E-5,0,0,0,7931,13886,3131,8945,10876,3284,5212,2084,Tag0,unknown
1610799143656,200,117,2.5708007812499998E-5,0,0,0,7931,13886,3131,8945,10876,3284,5212,2084,Tag0,unknown
1610799143679,200,-261,-5.73486328125E-5,0,0,0,7931,13886,3131,8945,10876,3284,5212,2084,Tag0,unknown
1610799143689,200,-285,-6.26220703125E-5,0,0,0,7931,13886,3131,8945,10876,3284,5212,2084,Tag0,unknown
1610799143704,200,16,3.515625E-6,0,0,0,7931,13886,3131,8945,10876,3284,5212,2084,Tag0,unknown
1610799143719,200,-56,-1.23046875E-5,0,0,0,7931,13886,3131,8945,10876,3284,5212,2084,Tag0,unknown
1610799143735,200,-96,-2.109375E-5,0,0,0,7931,13886,3131,8945,10876,3284,5212,2084,Tag0,unknown
1610799143752,200,-35,-7.6904296875E-6,0,0,0,7931,13886,3131,8945,10876,3284,5212,2084,Tag0,unknown
1610799143771,200,-9,-1.9775390625E-6,0,0,0,7931,13886,3131,8945,10876,3284,5212,2084,Tag0,unknown
1610799143786,200,208,4.5703125E-5,0,0,0,7931,13886,3131,8945,10876,3284,5212,2084,Tag0,unknown
1610799143804,200,-14,-3.076171875E-6,0,0,0,7931,13886,3131,8945,10876,3284,5212,2084,Tag0,unknown
1610799143814,200,-973,-2.137939453125E-4,0,0,0,7931,13886,3131,8945,10876,3284,5212,2084,Tag0,unknown
1610799143827,200,-1169,-2.568603515625E-4,0,0,0,7931,13886,3131,8945,10876,3284,5212,2084,Tag0,unknown
1610799143839,200,-1621,-3.561767578125E-4,0,0,0,7931,13886,3131,8945,10876,3284,5212,2084,Tag0,unknown
1610799143849,200,-1445,-3.175048828125E-4,0,0,0,7931,13886,3131,8945,10876,3284,5212,2084,Tag0,unknown
1610799143860,200,-759,-1.667724609375E-4,0,0,0,7931,13886,3131,8945,10876,3284,5212,2084,Tag0,unknown
1610799143873,200,-873,-1.9182128906250002E-4,0,0,0,7931,13886,3131,8945,10876,3284,5212,2084,Tag0,unknown
1610799143899,200,583,1.281005859375E-4,0,0,0,7931,13886,3131,8945,10876,3284,5212,2084,Tag0,unknown
1610799143921,200,795,1.746826171875E-4,0,0,0,7931,13886,3131,8945,10876,3284,5212,2084,Tag0,unknown
1610799143931,200,1329,2.9201660156250004E-4,0,0,0,7931,13886,3131,8945,10876,3284,5212,2084,Tag0,unknown
1610799143947,200,1386,3.04541015625E-4,0,0,0,7931,13886,3131,8945,10876,3284,5212,2084,Tag0,unknown
1610799143957,200,1143,2.511474609375E-4,0,0,0,7931,13886,3131,8945,10876,3284,5212,2084,Tag0,unknown
1610799143969,200,678,1.4897460937500002E-4,0,0,0,7931,13886,3131,8945,10876,3284,5212,2084,Tag0,unknown
1610799143989,200,651,1.430419921875E-4,0,0,0,7931,13886,3131,8945,10876,3284,5212,2084,Tag0,unknown
1610799144003,200,647,1.421630859375E-4,0,0,0,7931,13886,3131,8945,10876,3284,5212,2084,Tag0,unknown
1610799144038,200,840,1.845703125E-4,0,0,0,7931,13886,3131,8945,10876,3284,5212,2084,Tag0,unknown
1610799144053,200,856,1.880859375E-4,0,0,0,7931,13886,3131,8945,10876,3284,5212,2084,Tag0,unknown
1610799144095,200,-23,-5.0537109375E-6,0,0,0,7931,13886,3131,8945,10876,3284,5212,2084,Tag0,unknown
1610799144105,200,103,2.26318359375E-5,0,0,0,7931,13886,3131,8945,10876,3284,5212,2084,Tag0,unknown
1610799144120,200,-555,-1.219482421875E-4,0,0,0,7931,13886,3131,8945,10876,3284,5212,2084,Tag0,unknown
1610799144153,200,-873,-1.9182128906250002E-4,0,0,0,7931,13886,3131,8945,10876,3284,5212,2084,Tag0,unknown
1610799144170,200,-701,-1.540283203125E-4,0,0,0,7931,13886,3131,8945,10876,3284,5212,2084,Tag0,unknown
1610799144213,200,-1048,-2.302734375E-4,0,0,0,7931,13886,3131,8945,10876,3284,5212,2084,Tag0,unknown
1610799144225,200,-1073,-2.357666015625E-4,0,0,0,7931,13886,3131,8945,10876,3284,5212,2084,Tag0,unknown
1610799144235,200,-727,-1.5974121093750003E-4,0,0,0,7931,13886,3131,8945,10876,3284,5212,2084,Tag0,unknown
1610799144245,200,-1067,-2.344482421875E-4,0,0,0,7931,13886,3131,8945,10876,3284,5212,2084,Tag0,unknown
1610799144255,200,-1035,-2.274169921875E-4,0,0,0,7931,13886,3131,8945,10876,3284,5212,2084,Tag0,unknown
1610799144265,200,-675,-1.483154296875E-4,0,0,0,7931,13886,3131,8945,10876,3284,5212,2084,Tag0,unknown
1610799144275,200,-733,-1.6105957031250002E-4,0,0,0,7931,13886,3131,8945,10876,3284,5212,2084,Tag0,unknown
1610799144287,200,-669,-1.469970703125E-4,0,0,0,7931,13886,3131,8945,10876,3284,5212,2084,Tag0,unknown
1610799144302,200,-885,-1.944580078125E-4,0,0,0,7931,13886,3131,8945,10876,3284,5212,2084,Tag0,unknown
1610799144326,200,-327,-7.18505859375E-5,0,0,0,7931,13886,3131,8945,10876,3284,5212,2084,Tag0,unknown
1610799144337,200,-353,-7.75634765625E-5,0,0,0,7931,13886,3131,8945,10876,3284,5212,2084,Tag0,unknown
1610799144361,200,-30,-6.591796875E-6,0,0,0,7931,13886,3131,8945,10876,3284,5212,2084,Tag0,unknown
1610799144372,200,342,7.5146484375E-5,0,0,0,7931,13886,3131,8945,10876,3284,5212,2084,Tag0,unknown
1610799144382,200,457,1.004150390625E-4,0,0,0,7931,13886,3131,8945,10876,3284,5212,2084,Tag0,unknown
1610799144392,200,507,1.1140136718750001E-4,0,0,0,7931,13886,3131,8945,10876,3284,5212,2084,Tag0,unknown
1610799144405,200,476,1.0458984375000001E-4,0,0,0,7931,13886,3131,8945,10876,3284,5212,2084,Tag0,unknown
1610799144420,200,523,1.149169921875E-4,0,0,0,7931,13886,3131,8945,10876,3284,5212,2084,Tag0,unknown
1610799144438,200,529,1.162353515625E-4,0,0,0,7931,13886,3131,8945,10876,3284,5212,2084,Tag0,unknown
1610799144460,200,620,1.3623046875E-4,0,0,0,7931,13886,3131,8945,10876,3284,5212,2084,Tag0,unknown
1610799144472,200,432,9.492187500000001E-5,0,0,0,1470664,91142,16776166,16769115,16761674,25090,11799,12438,Tag0,unknown
1610799144489,200,843,1.852294921875E-4,0,0,0,1470664,91142,16776166,16769115,16761674,25090,11799,12438,Tag0,unknown
1610799144505,200,-6,-1.318359375E-6,0,0,0,1470664,91142,16776166,16769115,16761674,25090,11799,12438,Tag0,unknown
1610799144520,200,-14,-3.076171875E-6,0,0,0,1470664,91142,16776166,16769115,16761674,25090,11799,12438,Tag0,unknown
1610799144539,200,279,6.13037109375E-5,0,0,0,1470664,91142,16776166,16769115,16761674,25090,11799,12438,Tag0,unknown
1610799144554,200,370,8.1298828125E-5,0,0,0,1470664,91142,16776166,16769115,16761674,25090,11799,12438,Tag0,unknown
1610799144573,200,109,2.39501953125E-5,0,0,0,1470664,91142,16776166,16769115,16761674,25090,11799,12438,Tag0,unknown
1610799144590,200,125,2.74658203125E-5,0,0,0,1470664,91142,16776166,16769115,16761674,25090,11799,12438,Tag0,unknown
1610799144600,200,-360,-7.91015625E-5,0,0,0,1470664,91142,16776166,16769115,16761674,25090,11799,12438,Tag0,unknown
1610799144610,200,35,7.6904296875E-6,0,0,0,1470664,91142,16776166,16769115,16761674,25090,11799,12438,Tag0,unknown
1610799144622,200,20,4.39453125E-6,0,0,0,1470664,91142,16776166,16769115,16761674,25090,11799,12438,Tag0,unknown
1610799144647,200,21,4.614257812500001E-6,0,0,0,1470664,91142,16776166,16769115,16761674,25090,11799,12438,Tag0,unknown
1610799144657,200,77,1.69189453125E-5,0,0,0,1470664,91142,16776166,16769115,16761674,25090,11799,12438,Tag0,unknown
1610799144672,200,-108,-2.3730468750000002E-5,0,0,0,1470664,91142,16776166,16769115,16761674,25090,11799,12438,Tag0,unknown
1610799144690,200,5,1.0986328125E-6,0,0,0,1470664,91142,16776166,16769115,16761674,25090,11799,12438,Tag0,unknown
1610799144705,200,-199,-4.3725585937499995E-5,0,0,0,1470664,91142,16776166,16769115,16761674,25090,11799,12438,Tag0,unknown
1610799144723,200,-338,-7.426757812499999E-5,0,0,0,1470664,91142,16776166,16769115,16761674,25090,11799,12438,Tag0,unknown
1610799144740,200,18,3.955078125E-6,0,0,0,1470664,91142,16776166,16769115,16761674,25090,11799,12438,Tag0,unknown
1610799144750,200,-116,-2.548828125E-5,0,0,0,1470664,91142,16776166,16769115,16761674,25090,11799,12438,Tag0,unknown
1610799144772,200,-31,-6.8115234375E-6,0,0,0,1470664,91142,16776166,16769115,16761674,25090,11799,12438,Tag0,unknown
1610799144793,200,66,1.4501953125E-5,0,0,0,1470664,91142,16776166,16769115,16761674,25090,11799,12438,Tag0,unknown
1610799144805,200,16,3.515625E-6,0,0,0,1470664,91142,16776166,16769115,16761674,25090,11799,12438,Tag0,unknown
1610799144815,200,-391,-8.591308593750001E-5,0,0,0,1470664,91142,16776166,16769115,16761674,25090,11799,12438,Tag0,unknown
1610799144831,200,-509,-1.118408203125E-4,0,0,0,1470664,91142,16776166,16769115,16761674,25090,11799,12438,Tag0,unknown
1610799144841,200,-823,-1.808349609375E-4,0,0,0,1470664,91142,16776166,16769115,16761674,25090,11799,12438,Tag0,unknown
1610799144864,200,-765,-1.680908203125E-4,0,0,0,1470664,91142,16776166,16769115,16761674,25090,11799,12438,Tag0,unknown
1610799144874,200,-857,-1.8830566406250002E-4,0,0,0,1470664,91142,16776166,16769115,16761674,25090,11799,12438,Tag0,unknown
1610799144887,200,-563,-1.237060546875E-4,0,0,0,1470664,91142,16776166,16769115,16761674,25090,11799,12438,Tag0,unknown
1610799144904,200,-563,-1.237060546875E-4,0,0,0,1470664,91142,16776166,16769115,16761674,25090,11799,12438,Tag0,unknown
1610799144921,200,-370,-8.1298828125E-5,0,0,0,1470664,91142,16776166,16769115,16761674,25090,11799,12438,Tag0,unknown
1610799144942,200,-289,-6.35009765625E-5,0,0,0,1470664,91142,16776166,16769115,16761674,25090,11799,12438,Tag0,unknown
1610799144956,200,0,0.0,0,0,0,1470664,91142,16776166,16769115,16761674,25090,11799,12438,Tag0,unknown
1610799144966,200,-45,-9.8876953125E-6,0,0,0,1470664,91142,16776166,16769115,16761674,25090,11799,12438,Tag0,unknown
1610799144988,200,374,8.2177734375E-5,0,0,0,1470664,91142,16776166,16769115,16761674,25090,11799,12438,Tag0,unknown
1610799145006,200,129,2.8344726562500002E-5,0,0,0,1470664,91142,16776166,16769115,16761674,25090,11799,12438,Tag0,unknown
1610799145016,200,166,3.6474609375E-5,0,0,0,1470664,91142,16776166,16769115,16761674,25090,11799,12438,Tag0,unknown
1610799145027,200,561,1.232666015625E-4,0,0,0,1470664,91142,16776166,16769115,16761674,25090,11799,12438,Tag0,unknown
1610799145040,200,215,4.72412109375E-5,0,0,0,1470664,91142,16776166,16769115,16761674,25090,11799,12438,Tag0,unknown
1610799145060,200,295,6.48193359375E-5,0,0,0,1470664,91142,16776166,16769115,16761674,25090,11799,12438,Tag0,unknown
1610799145074,200,295,6.48193359375E-5,0,0,0,1470664,91142,16776166,16769115,16761674,25090,11799,12438,Tag0,unknown
1610799145084,200,376,8.261718750000001E-5,0,0,0,1470664,91142,16776166,16769115,16761674,25090,11799,12438,Tag0,unknown
1610799145095,200,-85,-1.86767578125E-5,0,0,0,1470664,91142,16776166,16769115,16761674,25090,11799,12438,Tag0,unknown
1610799145105,200,-93,-2.04345703125E-5,0,0,0,1470664,91142,16776166,16769115,16761674,25090,11799,12438,Tag0,unknown
1610799145122,200,284,6.240234375E-5,0,0,0,1470664,91142,16776166,16769115,16761674,25090,11799,12438,Tag0,unknown
1610799145139,200,279,6.13037109375E-5,0,0,0,1470664,91142,16776166,16769115,16761674,25090,11799,12438,Tag0,unknown
1610799145155,200,307,6.74560546875E-5,0,0,0,1470664,91142,16776166,16769115,16761674,25090,11799,12438,Tag0,unknown
1610799145171,200,147,3.22998046875E-5,0,0,0,1470664,91142,16776166,16769115,16761674,25090,11799,12438,Tag0,unknown
1610799145189,200,130,2.8564453125E-5,0,0,0,1470664,91142,16776166,16769115,16761674,25090,11799,12438,Tag0,unknown
1610799145205,200,595,1.307373046875E-4,0,0,0,1470664,91142,16776166,16769115,16761674,25090,11799,12438,Tag0,unknown
1610799145222,200,567,1.245849609375E-4,0,0,0,1470664,91142,16776166,16769115,16761674,25090,11799,12438,Tag0,unknown
1610799145232,200,219,4.81201171875E-5,0,0,0,1470664,91142,16776166,16769115,16761674,25090,11799,12438,Tag0,unknown
1610799145246,200,248,5.44921875E-5,0,0,0,1470664,91142,16776166,16769115,16761674,25090,11799,12438,Tag0,unknown
1610799145256,200,546,1.1997070312500001E-4,0,0,0,1470664,91142,16776166,16769115,16761674,25090,11799,12438,Tag0,unknown
1610799145280,200,-28,-6.15234375E-6,0,0,0,1470664,91142,16776166,16769115,16761674,25090,11799,12438,Tag0,unknown
1610799145290,200,-57,-1.2524414062500001E-5,0,0,0,1470664,91142,16776166,16769115,16761674,25090,11799,12438,Tag0,unknown
1610799145300,200,-58,-1.2744140625E-5,0,0,0,1470664,91142,16776166,16769115,16761674,25090,11799,12438,Tag0,unknown
1610799145310,200,448,9.84375E-5,0,0,0,1470664,91142,16776166,16769115,16761674,25090,11799,12438,Tag0,unknown
1610799145323,200,613,1.3469238281250002E-4,0,0,0,1470664,91142,16776166,16769115,16761674,25090,11799,12438,Tag0,unknown
1610799145458,200,-603,-1.3249511718750002E-4,0,0,0,1470664,91142,16776166,16769115,16761674,25090,11799,12438,Tag0,unknown
1610799145482,200,-585,-1.285400390625E-4,0,0,0,1470664,91142,16776166,16769115,16761674,25090,11799,12438,Tag0,unknown
1610799145492,200,-548,-1.2041015624999999E-4,0,0,0,1470664,91142,16776166,16769115,16761674,25090,11799,12438,Tag0,unknown
1610799145502,200,-316,-6.943359375000001E-5,0,0,0,1470664,91142,16776166,16769115,16761674,25090,11799,12438,Tag0,unknown
1610799145522,200,77,1.69189453125E-5,0,0,0,1470664,91142,16776166,16769115,16761674,25090,11799,12438,Tag0,unknown
1610799145540,200,-105,-2.30712890625E-5,0,0,0,1470664,91142,16776166,16769115,16761674,25090,11799,12438,Tag0,unknown
1610799145705,200,-529,-1.162353515625E-4,0,0,0,1470664,91142,16776166,16769115,16761674,25090,11799,12438,Tag0,unknown
1610799145727,200,-579,-1.272216796875E-4,0,0,0,1470664,91142,16776166,16769115,16761674,25090,11799,12438,Tag0,unknown
1610799145737,200,-566,-1.2436523437500002E-4,0,0,0,1470664,91142,16776166,16769115,16761674,25090,11799,12438,Tag0,unknown
1610799145768,200,-373,-8.19580078125E-5,0,0,0,1470664,91142,16776166,16769115,16761674,25090,11799,12438,Tag0,unknown
1610799145790,200,-348,-7.646484375E-5,0,0,0,1470664,91142,16776166,16769115,16761674,25090,11799,12438,Tag0,unknown
1610799145944,200,97,2.13134765625E-5,0,0,0,297182,18564,1708,1289,1945,678,705,564,Tag0,unknown
1610799145954,200,260,5.712890625E-5,0,0,0,297182,18564,1708,1289,1945,678,705,564,Tag0,unknown
1610799145965,200,379,8.32763671875E-5,0,0,0,297182,18564,1708,1289,1945,678,705,564,Tag0,unknown
1610799145987,200,141,3.09814453125E-5,0,0,0,297182,18564,1708,1289,1945,678,705,564,Tag0,unknown
1610799145998,200,-264,-5.80078125E-5,0,0,0,297182,18564,1708,1289,1945,678,705,564,Tag0,unknown
1610799146008,200,-633,-1.3908691406250002E-4,0,0,0,297182,18564,1708,1289,1945,678,705,564,Tag0,unknown
1610799146018,200,-709,-1.557861328125E-4,0,0,0,297182,18564,1708,1289,1945,678,705,564,Tag0,unknown
1610799146028,200,-1187,-2.608154296875E-4,0,0,0,297182,18564,1708,1289,1945,678,705,564,Tag0,unknown
1610799146038,200,1032,2.2675781250000002E-4,0,0,0,297182,18564,1708,1289,1945,678,705,564,Tag0,unknown
1610799146053,200,635,1.395263671875E-4,0,0,0,297182,18564,1708,1289,1945,678,705,564,Tag0,unknown
1610799146072,200,595,1.307373046875E-4,0,0,0,297182,18564,1708,1289,1945,678,705,564,Tag0,unknown
1610799146097,200,151,3.31787109375E-5,0,0,0,297182,18564,1708,1289,1945,678,705,564,Tag0,unknown
1610799146128,200,34,7.4707031250000005E-6,0,0,0,297182,18564,1708,1289,1945,678,705,564,Tag0,unknown
1610799146142,200,16,3.515625E-6,0,0,0,297182,18564,1708,1289,1945,678,705,564,Tag0,unknown
1610799146152,200,88,1.93359375E-5,0,0,0,297182,18564,1708,1289,1945,678,705,564,Tag0,unknown
1610799146166,200,-87,-1.91162109375E-5,0,0,0,297182,18564,1708,1289,1945,678,705,564,Tag0,unknown
1610799146176,200,-71,-1.56005859375E-5,0,0,0,297182,18564,1708,1289,1945,678,705,564,Tag0,unknown
1610799146199,200,-5,-1.0986328125E-6,0,0,0,297182,18564,1708,1289,1945,678,705,564,Tag0,unknown
1610799146209,200,297,6.525878906250001E-5,0,0,0,297182,18564,1708,1289,1945,678,705,564,Tag0,unknown
1610799146219,200,-265,-5.82275390625E-5,0,0,0,297182,18564,1708,1289,1945,678,705,564,Tag0,unknown
1610799146229,200,-381,-8.371582031250001E-5,0,0,0,297182,18564,1708,1289,1945,678,705,564,Tag0,unknown
1610799146242,200,-375,-8.23974609375E-5,0,0,0,297182,18564,1708,1289,1945,678,705,564,Tag0,unknown
1610799146258,200,-363,-7.97607421875E-5,0,0,0,297182,18564,1708,1289,1945,678,705,564,Tag0,unknown
1610799146276,200,-196,-4.306640625E-5,0,0,0,297182,18564,1708,1289,1945,678,705,564,Tag0,unknown
1610799146292,200,-341,-7.492675781250002E-5,0,0,0,297182,18564,1708,1289,1945,678,705,564,Tag0,unknown
1610799146302,200,-119,-2.6147460937500004E-5,0,0,0,297182,18564,1708,1289,1945,678,705,564,Tag0,unknown
1610799146325,200,22,4.833984375E-6,0,0,0,297182,18564,1708,1289,1945,678,705,564,Tag0,unknown
1610799146345,200,-299,-6.56982421875E-5,0,0,0,297182,18564,1708,1289,1945,678,705,564,Tag0,unknown
1610799146359,200,-291,-6.39404296875E-5,0,0,0,297182,18564,1708,1289,1945,678,705,564,Tag0,unknown
1610799146369,200,-84,-1.8457031250000004E-5,0,0,0,297182,18564,1708,1289,1945,678,705,564,Tag0,unknown
1610799146384,200,-95,-2.08740234375E-5,0,0,0,297182,18564,1708,1289,1945,678,705,564,Tag0,unknown
1610799146394,200,162,3.5595703125E-5,0,0,0,297182,18564,1708,1289,1945,678,705,564,Tag0,unknown
1610799146418,200,348,7.646484375E-5,0,0,0,297182,18564,1708,1289,1945,678,705,564,Tag0,unknown
1610799146440,200,-73,-1.6040039062500002E-5,0,0,0,297182,18564,1708,1289,1945,678,705,564,Tag0,unknown
1610799146476,200,67,1.4721679687500002E-5,0,0,0,936449,16752314,79980,87204,16772037,16775521,15959,10893,Tag0,unknown
1610799146486,200,-268,-5.8886718750000006E-5,0,0,0,936449,16752314,79980,87204,16772037,16775521,15959,10893,Tag0,unknown
1610799146500,200,-298,-6.5478515625E-5,0,0,0,936449,16752314,79980,87204,16772037,16775521,15959,10893,Tag0,unknown
1610799146525,200,-417,-9.16259765625E-5,0,0,0,936449,16752314,79980,87204,16772037,16775521,15959,10893,Tag0,unknown
1610799146541,200,-443,-9.73388671875E-5,0,0,0,936449,16752314,79980,87204,16772037,16775521,15959,10893,Tag0,unknown
1610799146551,200,-890,-1.95556640625E-4,0,0,0,936449,16752314,79980,87204,16772037,16775521,15959,10893,Tag0,unknown
1610799146565,200,-801,-1.760009765625E-4,0,0,0,936449,16752314,79980,87204,16772037,16775521,15959,10893,Tag0,unknown
1610799146579,200,312,6.85546875E-5,0,0,0,936449,16752314,79980,87204,16772037,16775521,15959,10893,Tag0,unknown
1610799146593,200,536,1.1777343750000001E-4,0,0,0,936449,16752314,79980,87204,16772037,16775521,15959,10893,Tag0,unknown
1610799146609,200,633,1.3908691406250002E-4,0,0,0,936449,16752314,79980,87204,16772037,16775521,15959,10893,Tag0,unknown
1610799146626,200,981,2.155517578125E-4,0,0,0,936449,16752314,79980,87204,16772037,16775521,15959,10893,Tag0,unknown
1610799146643,200,1011,2.2214355468749998E-4,0,0,0,936449,16752314,79980,87204,16772037,16775521,15959,10893,Tag0,unknown
1610799146653,200,329,7.229003906250001E-5,0,0,0,936449,16752314,79980,87204,16772037,16775521,15959,10893,Tag0,unknown
1610799146669,200,-669,-1.469970703125E-4,0,0,0,936449,16752314,79980,87204,16772037,16775521,15959,10893,Tag0,unknown
1610799146679,200,-648,-1.423828125E-4,0,0,0,936449,16752314,79980,87204,16772037,16775521,15959,10893,Tag0,unknown
1610799146692,200,-706,-1.55126953125E-4,0,0,0,936449,16752314,79980,87204,16772037,16775521,15959,10893,Tag0,unknown
1610799146709,200,-817,-1.7951660156250002E-4,0,0,0,936449,16752314,79980,87204,16772037,16775521,15959,10893,Tag0,unknown
1610799146725,200,-563,-1.237060546875E-4,0,0,0,936449,16752314,79980,87204,16772037,16775521,15959,10893,Tag0,unknown
1610799146740,200,-91,-1.99951171875E-5,0,0,0,936449,16752314,79980,87204,16772037,16775521,15959,10893,Tag0,unknown
1610799146757,200,292,6.416015625000001E-5,0,0,0,936449,16752314,79980,87204,16772037,16775521,15959,10893,Tag0,unknown
1610799146773,200,322,7.0751953125E-5,0,0,0,936449,16752314,79980,87204,16772037,16775521,15959,10893,Tag0,unknown
1610799146790,200,378,8.3056640625E-5,0,0,0,936449,16752314,79980,87204,16772037,16775521,15959,10893,Tag0,unknown
1610799146814,200,477,1.048095703125E-4,0,0,0,936449,16752314,79980,87204,16772037,16775521,15959,10893,Tag0,unknown
1610799146826,200,508,1.1162109375E-4,0,0,0,936449,16752314,79980,87204,16772037,16775521,15959,10893,Tag0,unknown
1610799146849,200,824,1.810546875E-4,0,0,0,936449,16752314,79980,87204,16772037,16775521,15959,10893,Tag0,unknown
1610799146860,200,850,1.86767578125E-4,0,0,0,936449,16752314,79980,87204,16772037,16775521,15959,10893,Tag0,unknown
1610799146870,200,489,1.0744628906250001E-4,0,0,0,936449,16752314,79980,87204,16772037,16775521,15959,10893,Tag0,unknown
1610799146881,200,363,7.97607421875E-5,0,0,0,936449,16752314,79980,87204,16772037,16775521,15959,10893,Tag0,unknown
1610799146892,200,180,3.955078125E-5,0,0,0,936449,16752314,79980,87204,16772037,16775521,15959,10893,Tag0,unknown
1610799146907,200,200,4.39453125E-5,0,0,0,936449,16752314,79980,87204,16772037,16775521,15959,10893,Tag0,unknown
1610799146959,200,152,3.33984375E-5,0,0,0,936449,16752314,79980,87204,16772037,16775521,15959,10893,Tag0,unknown
1610799146979,200,333,7.316894531249999E-5,0,0,0,936449,16752314,79980,87204,16772037,16775521,15959,10893,Tag0,unknown
1610799146989,200,5,1.0986328125E-6,0,0,0,936449,16752314,79980,87204,16772037,16775521,15959,10893,Tag0,unknown
1610799146999,200,-535,-1.175537109375E-4,0,0,0,936449,16752314,79980,87204,16772037,16775521,15959,10893,Tag0,unknown
1610799147009,200,-155,-3.40576171875E-5,0,0,0,936449,16752314,79980,87204,16772037,16775521,15959,10893,Tag0,unknown
1610799147019,200,70,1.5380859375E-5,0,0,0,936449,16752314,79980,87204,16772037,16775521,15959,10893,Tag0,unknown
1610799147039,200,68,1.4941406250000001E-5,0,0,0,936449,16752314,79980,87204,16772037,16775521,15959,10893,Tag0,unknown
1610799147057,200,16,3.515625E-6,0,0,0,936449,16752314,79980,87204,16772037,16775521,15959,10893,Tag0,unknown
1610799147067,200,-675,-1.483154296875E-4,0,0,0,936449,16752314,79980,87204,16772037,16775521,15959,10893,Tag0,unknown
1610799147101,200,-884,-1.9423828125E-4,0,0,0,936449,16752314,79980,87204,16772037,16775521,15959,10893,Tag0,unknown
1610799147111,200,-823,-1.808349609375E-4,0,0,0,936449,16752314,79980,87204,16772037,16775521,15959,10893,Tag0,unknown
1610799147121,200,-799,-1.7556152343750002E-4,0,0,0,936449,16752314,79980,87204,16772037,16775521,15959,10893,Tag0,unknown
1610799147131,200,-541,-1.1887207031250001E-4,0,0,0,936449,16752314,79980,87204,16772037,16775521,15959,10893,Tag0,unknown
1610799147141,200,-234,-5.1416015624999996E-5,0,0,0,936449,16752314,79980,87204,16772037,16775521,15959,10893,Tag0,unknown
1610799147159,200,-535,-1.175537109375E-4,0,0,0,936449,16752314,79980,87204,16772037,16775521,15959,10893,Tag0,unknown
1610799147175,200,-523,-1.149169921875E-4,0,0,0,936449,16752314,79980,87204,16772037,16775521,15959,10893,Tag0,unknown
1610799147185,200,-346,-7.6025390625E-5,0,0,0,936449,16752314,79980,87204,16772037,16775521,15959,10893,Tag0,unknown
1610799147195,200,-172,-3.7792968750000005E-5,0,0,0,936449,16752314,79980,87204,16772037,16775521,15959,10893,Tag0,unknown
1610799147212,200,-213,-4.68017578125E-5,0,0,0,936449,16752314,79980,87204,16772037,16775521,15959,10893,Tag0,unknown
1610799147227,200,-247,-5.42724609375E-5,0,0,0,936449,16752314,79980,87204,16772037,16775521,15959,10893,Tag0,unknown
1610799147264,200,-218,-4.7900390625E-5,0,0,0,936449,16752314,79980,87204,16772037,16775521,15959,10893,Tag0,unknown
1610799147274,200,-219,-4.81201171875E-5,0,0,0,936449,16752314,79980,87204,16772037,16775521,15959,10893,Tag0,unknown
1610799147294,200,97,2.13134765625E-5,0,0,0,936449,16752314,79980,87204,16772037,16775521,15959,10893,Tag0,unknown
1610799147304,200,-8,-1.7578125E-6,0,0,0,936449,16752314,79980,87204,16772037,16775521,15959,10893,Tag0,unknown
1610799147322,200,-70,-1.5380859375E-5,0,0,0,936449,16752314,79980,87204,16772037,16775521,15959,10893,Tag0,unknown
1610799147343,200,-86,-1.8896484375000003E-5,0,0,0,936449,16752314,79980,87204,16772037,16775521,15959,10893,Tag0,unknown
1610799147353,200,-101,-2.2192382812500002E-5,0,0,0,936449,16752314,79980,87204,16772037,16775521,15959,10893,Tag0,unknown
1610799147379,200,-27,-5.9326171875000005E-6,0,0,0,936449,16752314,79980,87204,16772037,16775521,15959,10893,Tag0,unknown
1610799147393,200,-74,-1.6259765625E-5,0,0,0,936449,16752314,79980,87204,16772037,16775521,15959,10893,Tag0,unknown
1610799147403,200,-103,-2.26318359375E-5,0,0,0,936449,16752314,79980,87204,16772037,16775521,15959,10893,Tag0,unknown
1610799147431,200,-45,-9.8876953125E-6,0,0,0,936449,16752314,79980,87204,16772037,16775521,15959,10893,Tag0,unknown
1610799147443,200,-27,-5.9326171875000005E-6,0,0,0,936449,16752314,79980,87204,16772037,16775521,15959,10893,Tag0,unknown
1610799147453,200,321,7.053222656250001E-5,0,0,0,936449,16752314,79980,87204,16772037,16775521,15959,10893,Tag0,unknown
1610799147468,200,66,1.4501953125E-5,0,0,0,859529,211204,22517,30907,73618,16759490,13005,8158,Tag0,unknown
1610799147486,200,16,3.515625E-6,0,0,0,859529,211204,22517,30907,73618,16759490,13005,8158,Tag0,unknown
1610799147509,200,108,2.3730468750000002E-5,0,0,0,859529,211204,22517,30907,73618,16759490,13005,8158,Tag0,unknown
1610799147524,200,98,2.1533203125E-5,0,0,0,859529,211204,22517,30907,73618,16759490,13005,8158,Tag0,unknown
1610799147543,200,18,3.955078125E-6,0,0,0,859529,211204,22517,30907,73618,16759490,13005,8158,Tag0,unknown
1610799147559,200,40,8.7890625E-6,0,0,0,859529,211204,22517,30907,73618,16759490,13005,8158,Tag0,unknown
1610799147569,200,-315,-6.92138671875E-5,0,0,0,859529,211204,22517,30907,73618,16759490,13005,8158,Tag0,unknown
1610799147583,200,-129,-2.8344726562500002E-5,0,0,0,859529,211204,22517,30907,73618,16759490,13005,8158,Tag0,unknown
1610799147593,200,-373,-8.19580078125E-5,0,0,0,859529,211204,22517,30907,73618,16759490,13005,8158,Tag0,unknown
1610799147616,200,-332,-7.294921875E-5,0,0,0,859529,211204,22517,30907,73618,16759490,13005,8158,Tag0,unknown
1610799147627,200,-297,-6.525878906250001E-5,0,0,0,859529,211204,22517,30907,73618,16759490,13005,8158,Tag0,unknown
1610799147637,200,-362,-7.954101562500001E-5,0,0,0,859529,211204,22517,30907,73618,16759490,13005,8158,Tag0,unknown
1610799147655,200,-267,-5.86669921875E-5,0,0,0,859529,211204,22517,30907,73618,16759490,13005,8158,Tag0,unknown
1610799147676,200,67,1.4721679687500002E-5,0,0,0,859529,211204,22517,30907,73618,16759490,13005,8158,Tag0,unknown
1610799147694,200,-279,-6.13037109375E-5,0,0,0,859529,211204,22517,30907,73618,16759490,13005,8158,Tag0,unknown
1610799147710,200,22,4.833984375E-6,0,0,0,859529,211204,22517,30907,73618,16759490,13005,8158,Tag0,unknown
1610799147728,200,-94,-2.0654296875000002E-5,0,0,0,859529,211204,22517,30907,73618,16759490,13005,8158,Tag0,unknown
1610799147742,200,-41,-9.008789062499999E-6,0,0,0,859529,211204,22517,30907,73618,16759490,13005,8158,Tag0,unknown
1610799147762,200,-8,-1.7578125E-6,0,0,0,859529,211204,22517,30907,73618,16759490,13005,8158,Tag0,unknown
1610799147775,200,304,6.6796875E-5,0,0,0,859529,211204,22517,30907,73618,16759490,13005,8158,Tag0,unknown
1610799147801,200,593,1.3029785156250002E-4,0,0,0,859529,211204,22517,30907,73618,16759490,13005,8158,Tag0,unknown
1610799147811,200,602,1.3227539062500001E-4,0,0,0,859529,211204,22517,30907,73618,16759490,13005,8158,Tag0,unknown
1610799147834,200,166,3.6474609375E-5,0,0,0,859529,211204,22517,30907,73618,16759490,13005,8158,Tag0,unknown
1610799147844,200,169,3.7133789062499996E-5,0,0,0,859529,211204,22517,30907,73618,16759490,13005,8158,Tag0,unknown
1610799147854,200,168,3.691406250000001E-5,0,0,0,859529,211204,22517,30907,73618,16759490,13005,8158,Tag0,unknown
1610799147864,200,281,6.17431640625E-5,0,0,0,859529,211204,22517,30907,73618,16759490,13005,8158,Tag0,unknown
1610799147878,200,-44,-9.66796875E-6,0,0,0,859529,211204,22517,30907,73618,16759490,13005,8158,Tag0,unknown
1610799147894,200,91,1.99951171875E-5,0,0,0,859529,211204,22517,30907,73618,16759490,13005,8158,Tag0,unknown
1610799147911,200,-298,-6.5478515625E-5,0,0,0,859529,211204,22517,30907,73618,16759490,13005,8158,Tag0,unknown
1610799147927,200,23,5.0537109375E-6,0,0,0,859529,211204,22517,30907,73618,16759490,13005,8158,Tag0,unknown
1610799147937,200,-139,-3.0541992187500004E-5,0,0,0,859529,211204,22517,30907,73618,16759490,13005,8158,Tag0,unknown
1610799147948,200,-331,-7.272949218750001E-5,0,0,0,859529,211204,22517,30907,73618,16759490,13005,8158,Tag0,unknown
1610799147960,200,-355,-7.80029296875E-5,0,0,0,859529,211204,22517,30907,73618,16759490,13005,8158,Tag0,unknown
1610799147976,200,-171,-3.75732421875E-5,0,0,0,859529,211204,22517,30907,73618,16759490,13005,8158,Tag0,unknown
1610799147995,200,-185,-4.06494140625E-5,0,0,0,859529,211204,22517,30907,73618,16759490,13005,8158,Tag0,unknown
1610799148009,200,-137,-3.0102539062499998E-5,0,0,0,859529,211204,22517,30907,73618,16759490,13005,8158,Tag0,unknown
1610799148029,200,-355,-7.80029296875E-5,0,0,0,859529,211204,22517,30907,73618,16759490,13005,8158,Tag0,unknown
1610799148042,200,-131,-2.87841796875E-5,0,0,0,859529,211204,22517,30907,73618,16759490,13005,8158,Tag0,unknown
1610799148068,200,-166,-3.6474609375E-5,0,0,0,859529,211204,22517,30907,73618,16759490,13005,8158,Tag0,unknown
1610799148078,200,-153,-3.3618164062500004E-5,0,0,0,859529,211204,22517,30907,73618,16759490,13005,8158,Tag0,unknown
1610799148104,200,-286,-6.2841796875E-5,0,0,0,859529,211204,22517,30907,73618,16759490,13005,8158,Tag0,unknown
1610799148114,200,-265,-5.82275390625E-5,0,0,0,859529,211204,22517,30907,73618,16759490,13005,8158,Tag0,unknown
1610799148127,200,9,1.9775390625E-6,0,0,0,859529,211204,22517,30907,73618,16759490,13005,8158,Tag0,unknown
1610799148137,200,-44,-9.66796875E-6,0,0,0,859529,211204,22517,30907,73618,16759490,13005,8158,Tag0,unknown
1610799148159,200,276,6.064453125E-5,0,0,0,859529,211204,22517,30907,73618,16759490,13005,8158,Tag0,unknown
1610799148181,200,283,6.218261718750001E-5,0,0,0,859529,211204,22517,30907,73618,16759490,13005,8158,Tag0,unknown
1610799148193,200,313,6.87744140625E-5,0,0,0,859529,211204,22517,30907,73618,16759490,13005,8158,Tag0,unknown
1610799148203,200,359,7.88818359375E-5,0,0,0,859529,211204,22517,30907,73618,16759490,13005,8158,Tag0,unknown
1610799148240,200,331,7.272949218750001E-5,0,0,0,859529,211204,22517,30907,73618,16759490,13005,8158,Tag0,unknown
1610799148261,200,353,7.75634765625E-5,0,0,0,859529,211204,22517,30907,73618,16759490,13005,8158,Tag0,unknown
1610799148271,200,-12,-2.63671875E-6,0,0,0,859529,211204,22517,30907,73618,16759490,13005,8158,Tag0,unknown
1610799148281,200,-59,-1.29638671875E-5,0,0,0,859529,211204,22517,30907,73618,16759490,13005,8158,Tag0,unknown
1610799148291,200,-305,-6.70166015625E-5,0,0,0,859529,211204,22517,30907,73618,16759490,13005,8158,Tag0,unknown
1610799148312,200,-381,-8.371582031250001E-5,0,0,0,859529,211204,22517,30907,73618,16759490,13005,8158,Tag0,unknown
1610799148325,200,-353,-7.75634765625E-5,0,0,0,859529,211204,22517,30907,73618,16759490,13005,8158,Tag0,unknown
1610799148346,200,-275,-6.04248046875E-5,0,0,0,859529,211204,22517,30907,73618,16759490,13005,8158,Tag0,unknown
1610799148361,200,-259,-5.69091796875E-5,0,0,0,859529,211204,22517,30907,73618,16759490,13005,8158,Tag0,unknown
1610799148371,200,42,9.228515625000002E-6,0,0,0,859529,211204,22517,30907,73618,16759490,13005,8158,Tag0,unknown
1610799148381,200,86,1.8896484375000003E-5,0,0,0,859529,211204,22517,30907,73618,16759490,13005,8158,Tag0,unknown
1610799148396,200,-87,-1.91162109375E-5,0,0,0,859529,211204,22517,30907,73618,16759490,13005,8158,Tag0,unknown
1610799148421,200,-89,-1.95556640625E-5,0,0,0,859529,211204,22517,30907,73618,16759490,13005,8158,Tag0,unknown
1610799148431,200,-120,-2.63671875E-5,0,0,0,859529,211204,22517,30907,73618,16759490,13005,8158,Tag0,unknown
1610799148441,200,104,2.28515625E-5,0,0,0,859529,211204,22517,30907,73618,16759490,13005,8158,Tag0,unknown
1610799148452,200,21,4.614257812500001E-6,0,0,0,221277,14529,20341,11399,2928,14155,3719,1634,Tag0,unknown
1610799148468,200,17,3.7353515625000003E-6,0,0,0,221277,14529,20341,11399,2928,14155,3719,1634,Tag0,unknown
1610799148478,200,53,1.1645507812500002E-5,0,0,0,221277,14529,20341,11399,2928,14155,3719,1634,Tag0,unknown
1610799148492,200,78,1.7138671875E-5,0,0,0,221277,14529,20341,11399,2928,14155,3719,1634,Tag0,unknown
1610799148510,200,-123,-2.70263671875E-5,0,0,0,221277,14529,20341,11399,2928,14155,3719,1634,Tag0,unknown
1610799148526,200,-122,-2.6806640625E-5,0,0,0,221277,14529,20341,11399,2928,14155,3719,1634,Tag0,unknown
1610799148544,200,-29,-6.3720703125E-6,0,0,0,221277,14529,20341,11399,2928,14155,3719,1634,Tag0,unknown
1610799148564,200,-109,-2.39501953125E-5,0,0,0,221277,14529,20341,11399,2928,14155,3719,1634,Tag0,unknown
1610799148579,200,106,2.3291015625000003E-5,0,0,0,221277,14529,20341,11399,2928,14155,3719,1634,Tag0,unknown
1610799148589,200,-347,-7.62451171875E-5,0,0,0,221277,14529,20341,11399,2928,14155,3719,1634,Tag0,unknown
1610799148599,200,-329,-7.229003906250001E-5,0,0,0,221277,14529,20341,11399,2928,14155,3719,1634,Tag0,unknown
1610799148612,200,-297,-6.525878906250001E-5,0,0,0,221277,14529,20341,11399,2928,14155,3719,1634,Tag0,unknown
1610799148630,200,-162,-3.5595703125E-5,0,0,0,221277,14529,20341,11399,2928,14155,3719,1634,Tag0,unknown
1610799148644,200,-185,-4.06494140625E-5,0,0,0,221277,14529,20341,11399,2928,14155,3719,1634,Tag0,unknown
1610799148670,200,6,1.318359375E-6,0,0,0,221277,14529,20341,11399,2928,14155,3719,1634,Tag0,unknown
1610799148680,200,4,8.7890625E-7,0,0,0,221277,14529,20341,11399,2928,14155,3719,1634,Tag0,unknown
1610799148704,200,-331,-7.272949218750001E-5,0,0,0,221277,14529,20341,11399,2928,14155,3719,1634,Tag0,unknown
1610799148715,200,-336,-7.382812500000001E-5,0,0,0,221277,14529,20341,11399,2928,14155,3719,1634,Tag0,unknown
1610799148725,200,7,1.5380859375E-6,0,0,0,221277,14529,20341,11399,2928,14155,3719,1634,Tag0,unknown
1610799148735,200,-284,-6.240234375E-5,0,0,0,221277,14529,20341,11399,2928,14155,3719,1634,Tag0,unknown
1610799148746,200,55,1.20849609375E-5,0,0,0,221277,14529,20341,11399,2928,14155,3719,1634,Tag0,unknown
1610799148763,200,19,4.1748046875E-6,0,0,0,221277,14529,20341,11399,2928,14155,3719,1634,Tag0,unknown
1610799148779,200,68,1.4941406250000001E-5,0,0,0,221277,14529,20341,11399,2928,14155,3719,1634,Tag0,unknown
1610799148800,200,27,5.9326171875000005E-6,0,0,0,221277,14529,20341,11399,2928,14155,3719,1634,Tag0,unknown
1610799148810,200,80,1.7578125E-5,0,0,0,221277,14529,20341,11399,2928,14155,3719,1634,Tag0,unknown
1610799148820,200,-278,-6.108398437500001E-5,0,0,0,221277,14529,20341,11399,2928,14155,3719,1634,Tag0,unknown
1610799148873,200,-326,-7.163085937500001E-5,0,0,0,221277,14529,20341,11399,2928,14155,3719,1634,Tag0,unknown
1610799148895,200,-327,-7.18505859375E-5,0,0,0,221277,14529,20341,11399,2928,14155,3719,1634,Tag0,unknown
1610799148905,200,-92,-2.021484375E-5,0,0,0,221277,14529,20341,11399,2928,14155,3719,1634,Tag0,unknown
1610799148915,200,-120,-2.63671875E-5,0,0,0,221277,14529,20341,11399,2928,14155,3719,1634,Tag0,unknown
1610799148933,200,-354,-7.778320312500001E-5,0,0,0,221277,14529,20341,11399,2928,14155,3719,1634,Tag0,unknown
1610799148946,200,-355,-7.80029296875E-5,0,0,0,221277,14529,20341,11399,2928,14155,3719,1634,Tag0,unknown
1610799148956,200,-459,-1.008544921875E-4,0,0,0,221277,14529,20341,11399,2928,14155,3719,1634,Tag0,unknown
1610799148970,200,-701,-1.540283203125E-4,0,0,0,221277,14529,20341,11399,2928,14155,3719,1634,Tag0,unknown
1610799149014,200,-775,-1.702880859375E-4,0,0,0,221277,14529,20341,11399,2928,14155,3719,1634,Tag0,unknown
1610799149026,200,-785,-1.724853515625E-4,0,0,0,221277,14529,20341,11399,2928,14155,3719,1634,Tag0,unknown
1610799149069,200,492,1.0810546875E-4,0,0,0,221277,14529,20341,11399,2928,14155,3719,1634,Tag0,unknown
1610799149082,200,777,1.707275390625E-4,0,0,0,221277,14529,20341,11399,2928,14155,3719,1634,Tag0,unknown
1610799149092,200,866,1.90283203125E-4,0,0,0,221277,14529,20341,11399,2928,14155,3719,1634,Tag0,unknown
1610799149104,200,384,8.4375E-5,0,0,0,221277,14529,20341,11399,2928,14155,3719,1634,Tag0,unknown
1610799149114,200,536,1.1777343750000001E-4,0,0,0,221277,14529,20341,11399,2928,14155,3719,1634,Tag0,unknown
1610799149129,200,147,3.22998046875E-5,0,0,0,221277,14529,20341,11399,2928,14155,3719,1634,Tag0,unknown
1610799149145,200,149,3.27392578125E-5,0,0,0,221277,14529,20341,11399,2928,14155,3719,1634,Tag0,unknown
1610799149155,200,296,6.50390625E-5,0,0,0,221277,14529,20341,11399,2928,14155,3719,1634,Tag0,unknown
1610799149179,200,-112,-2.4609375E-5,0,0,0,221277,14529,20341,11399,2928,14155,3719,1634,Tag0,unknown
1610799149194,200,-77,-1.69189453125E-5,0,0,0,221277,14529,20341,11399,2928,14155,3719,1634,Tag0,unknown
1610799149204,200,-146,-3.2080078125000004E-5,0,0,0,221277,14529,20341,11399,2928,14155,3719,1634,Tag0,unknown
1610799149218,200,-170,-3.7353515625E-5,0,0,0,221277,14529,20341,11399,2928,14155,3719,1634,Tag0,unknown
1610799149229,200,-131,-2.87841796875E-5,0,0,0,221277,14529,20341,11399,2928,14155,3719,1634,Tag0,unknown
1610799149265,200,-355,-7.80029296875E-5,0,0,0,221277,14529,20341,11399,2928,14155,3719,1634,Tag0,unknown
1610799149279,200,-348,-7.646484375E-5,0,0,0,221277,14529,20341,11399,2928,14155,3719,1634,Tag0,unknown
1610799149289,200,-204,-4.4824218749999996E-5,0,0,0,221277,14529,20341,11399,2928,14155,3719,1634,Tag0,unknown
1610799149303,200,-519,-1.140380859375E-4,0,0,0,221277,14529,20341,11399,2928,14155,3719,1634,Tag0,unknown
1610799149315,200,-196,-4.306640625E-5,0,0,0,221277,14529,20341,11399,2928,14155,3719,1634,Tag0,unknown
1610799149340,200,-116,-2.548828125E-5,0,0,0,221277,14529,20341,11399,2928,14155,3719,1634,Tag0,unknown
1610799149361,200,293,6.43798828125E-5,0,0,0,221277,14529,20341,11399,2928,14155,3719,1634,Tag0,unknown
1610799149378,200,97,2.13134765625E-5,0,0,0,221277,14529,20341,11399,2928,14155,3719,1634,Tag0,unknown
1610799149395,200,27,5.9326171875000005E-6,0,0,0,221277,14529,20341,11399,2928,14155,3719,1634,Tag0,unknown
1610799149419,200,-359,-7.88818359375E-5,0,0,0,221277,14529,20341,11399,2928,14155,3719,1634,Tag0,unknown
1610799149429,200,-324,-7.119140625E-5,0,0,0,221277,14529,20341,11399,2928,14155,3719,1634,Tag0,unknown
1610799149439,200,25,5.4931640625E-6,0,0,0,221277,14529,20341,11399,2928,14155,3719,1634,Tag0,unknown
1610799149469,200,18,3.955078125E-6,0,0,0,578496,14416,16766115,21076,19180,10076,4579,4790,Tag0,unknown
1610799149479,200,113,2.48291015625E-5,0,0,0,578496,14416,16766115,21076,19180,10076,4579,4790,Tag0,unknown
1610799149489,200,275,6.04248046875E-5,0,0,0,578496,14416,16766115,21076,19180,10076,4579,4790,Tag0,unknown
1610799149499,200,363,7.97607421875E-5,0,0,0,578496,14416,16766115,21076,19180,10076,4579,4790,Tag0,unknown
1610799149520,200,323,7.09716796875E-5,0,0,0,578496,14416,16766115,21076,19180,10076,4579,4790,Tag0,unknown
1610799149530,200,-58,-1.2744140625E-5,0,0,0,578496,14416,16766115,21076,19180,10076,4579,4790,Tag0,unknown
1610799149544,200,-88,-1.93359375E-5,0,0,0,578496,14416,16766115,21076,19180,10076,4579,4790,Tag0,unknown
1610799149561,200,72,1.58203125E-5,0,0,0,578496,14416,16766115,21076,19180,10076,4579,4790,Tag0,unknown
1610799149580,200,85,1.86767578125E-5,0,0,0,578496,14416,16766115,21076,19180,10076,4579,4790,Tag0,unknown
1610799149597,200,68,1.4941406250000001E-5,0,0,0,578496,14416,16766115,21076,19180,10076,4579,4790,Tag0,unknown
1610799149613,200,80,1.7578125E-5,0,0,0,578496,14416,16766115,21076,19180,10076,4579,4790,Tag0,unknown
1610799149623,200,-117,-2.5708007812499998E-5,0,0,0,578496,14416,16766115,21076,19180,10076,4579,4790,Tag0,unknown
1610799149633,200,-111,-2.43896484375E-5,0,0,0,578496,14416,16766115,21076,19180,10076,4579,4790,Tag0,unknown
1610799149645,200,-120,-2.63671875E-5,0,0,0,578496,14416,16766115,21076,19180,10076,4579,4790,Tag0,unknown
1610799149667,200,80,1.7578125E-5,0,0,0,578496,14416,16766115,21076,19180,10076,4579,4790,Tag0,unknown
1610799149681,200,43,9.448242187500001E-6,0,0,0,578496,14416,16766115,21076,19180,10076,4579,4790,Tag0,unknown
1610799149691,200,114,2.5048828125000003E-5,0,0,0,578496,14416,16766115,21076,19180,10076,4579,4790,Tag0,unknown
1610799149704,200,67,1.4721679687500002E-5,0,0,0,578496,14416,16766115,21076,19180,10076,4579,4790,Tag0,unknown
1610799149715,200,43,9.448242187500001E-6,0,0,0,578496,14416,16766115,21076,19180,10076,4579,4790,Tag0,unknown
1610799149743,200,-118,-2.5927734375E-5,0,0,0,578496,14416,16766115,21076,19180,10076,4579,4790,Tag0,unknown
1610799149762,200,88,1.93359375E-5,0,0,0,578496,14416,16766115,21076,19180,10076,4579,4790,Tag0,unknown
1610799149772,200,53,1.1645507812500002E-5,0,0,0,578496,14416,16766115,21076,19180,10076,4579,4790,Tag0,unknown
1610799149786,200,-293,-6.43798828125E-5,0,0,0,578496,14416,16766115,21076,19180,10076,4579,4790,Tag0,unknown
1610799149799,200,-261,-5.73486328125E-5,0,0,0,578496,14416,16766115,21076,19180,10076,4579,4790,Tag0,unknown
1610799149815,200,65,1.42822265625E-5,0,0,0,578496,14416,16766115,21076,19180,10076,4579,4790,Tag0,unknown
1610799149829,200,76,1.669921875E-5,0,0,0,578496,14416,16766115,21076,19180,10076,4579,4790,Tag0,unknown
1610799149839,200,-83,-1.82373046875E-5,0,0,0,578496,14416,16766115,21076,19180,10076,4579,4790,Tag0,unknown
1610799149851,200,113,2.48291015625E-5,0,0,0,578496,14416,16766115,21076,19180,10076,4579,4790,Tag0,unknown
1610799149862,200,-125,-2.74658203125E-5,0,0,0,578496,14416,16766115,21076,19180,10076,4579,4790,Tag0,unknown
1610799149885,200,107,2.35107421875E-5,0,0,0,578496,14416,16766115,21076,19180,10076,4579,4790,Tag0,unknown
1610799149895,200,92,2.021484375E-5,0,0,0,578496,14416,16766115,21076,19180,10076,4579,4790,Tag0,unknown
1610799149912,200,109,2.39501953125E-5,0,0,0,578496,14416,16766115,21076,19180,10076,4579,4790,Tag0,unknown
1610799149931,200,-99,-2.1752929687500003E-5,0,0,0,578496,14416,16766115,21076,19180,10076,4579,4790,Tag0,unknown
1610799149947,200,65,1.42822265625E-5,0,0,0,578496,14416,16766115,21076,19180,10076,4579,4790,Tag0,unknown
1610799149965,200,-355,-7.80029296875E-5,0,0,0,578496,14416,16766115,21076,19180,10076,4579,4790,Tag0,unknown
1610799149980,200,-270,-5.9326171875E-5,0,0,0,578496,14416,16766115,21076,19180,10076,4579,4790,Tag0,unknown
1610799150001,200,-331,-7.272949218750001E-5,0,0,0,578496,14416,16766115,21076,19180,10076,4579,4790,Tag0,unknown
1610799150014,200,-356,-7.822265625E-5,0,0,0,578496,14416,16766115,21076,19180,10076,4579,4790,Tag0,unknown
1610799150034,200,-309,-6.78955078125E-5,0,0,0,578496,14416,16766115,21076,19180,10076,4579,4790,Tag0,unknown
1610799150048,200,-281,-6.17431640625E-5,0,0,0,578496,14416,16766115,21076,19180,10076,4579,4790,Tag0,unknown
1610799150058,200,18,3.955078125E-6,0,0,0,578496,14416,16766115,21076,19180,10076,4579,4790,Tag0,unknown
1610799150068,200,81,1.77978515625E-5,0,0,0,578496,14416,16766115,21076,19180,10076,4579,4790,Tag0,unknown
1610799150078,200,71,1.56005859375E-5,0,0,0,578496,14416,16766115,21076,19180,10076,4579,4790,Tag0,unknown
1610799150104,200,-121,-2.6586914062500003E-5,0,0,0,578496,14416,16766115,21076,19180,10076,4579,4790,Tag0,unknown
1610799150114,200,-11,-2.4169921875E-6,0,0,0,578496,14416,16766115,21076,19180,10076,4579,4790,Tag0,unknown
1610799150129,200,-31,-6.8115234375E-6,0,0,0,578496,14416,16766115,21076,19180,10076,4579,4790,Tag0,unknown
1610799150145,200,-100,-2.197265625E-5,0,0,0,578496,14416,16766115,21076,19180,10076,4579,4790,Tag0,unknown
1610799150167,200,-57,-1.2524414062500001E-5,0,0,0,578496,14416,16766115,21076,19180,10076,4579,4790,Tag0,unknown
1610799150191,200,-31,-6.8115234375E-6,0,0,0,578496,14416,16766115,21076,19180,10076,4579,4790,Tag0,unknown
1610799150201,200,-90,-1.9775390625E-5,0,0,0,578496,14416,16766115,21076,19180,10076,4579,4790,Tag0,unknown
1610799150231,200,-117,-2.5708007812499998E-5,0,0,0,578496,14416,16766115,21076,19180,10076,4579,4790,Tag0,unknown
1610799150249,200,-313,-6.87744140625E-5,0,0,0,578496,14416,16766115,21076,19180,10076,4579,4790,Tag0,unknown
1610799150263,200,-366,-8.0419921875E-5,0,0,0,578496,14416,16766115,21076,19180,10076,4579,4790,Tag0,unknown
1610799150273,200,-372,-8.173828125E-5,0,0,0,578496,14416,16766115,21076,19180,10076,4579,4790,Tag0,unknown
1610799150283,200,-363,-7.97607421875E-5,0,0,0,578496,14416,16766115,21076,19180,10076,4579,4790,Tag0,unknown
1610799150295,200,-343,-7.53662109375E-5,0,0,0,578496,14416,16766115,21076,19180,10076,4579,4790,Tag0,unknown
1610799150364,200,-260,-5.712890625E-5,0,0,0,578496,14416,16766115,21076,19180,10076,4579,4790,Tag0,unknown
1610799150381,200,-265,-5.82275390625E-5,0,0,0,578496,14416,16766115,21076,19180,10076,4579,4790,Tag0,unknown
1610799150432,200,51,1.1206054687499999E-5,0,0,0,578496,14416,16766115,21076,19180,10076,4579,4790,Tag0,unknown
1610799150451,200,33,7.2509765625E-6,0,0,0,578496,14416,16766115,21076,19180,10076,4579,4790,Tag0,unknown
1610799150461,200,25,5.4931640625E-6,0,0,0,578496,14416,16766115,21076,19180,10076,4579,4790,Tag0,unknown
1610799150574,200,-282,-6.1962890625E-5,0,0,0,578496,14416,16766115,21076,19180,10076,4579,4790,Tag0,unknown
1610799150591,200,-257,-5.64697265625E-5,0,0,0,578496,14416,16766115,21076,19180,10076,4579,4790,Tag0,unknown
1610799150601,200,88,1.93359375E-5,0,0,0,578496,14416,16766115,21076,19180,10076,4579,4790,Tag0,unknown
1610799150611,200,81,1.77978515625E-5,0,0,0,578496,14416,16766115,21076,19180,10076,4579,4790,Tag0,unknown
1610799150639,200,48,1.0546875E-5,0,0,0,578496,14416,16766115,21076,19180,10076,4579,4790,Tag0,unknown
1610799150649,200,60,1.318359375E-5,0,0,0,578496,14416,16766115,21076,19180,10076,4579,4790,Tag0,unknown
1610799150708,200,75,1.64794921875E-5,0,0,0,578496,14416,16766115,21076,19180,10076,4579,4790,Tag0,unknown
1610799150743,200,33,7.2509765625E-6,0,0,0,212672,93650,73616,16747553,8805,30231,22614,26693,Tag0,unknown
1610799150774,200,89,1.95556640625E-5,0,0,0,212672,93650,73616,16747553,8805,30231,22614,26693,Tag0,unknown
1610799150784,200,35,7.6904296875E-6,0,0,0,212672,93650,73616,16747553,8805,30231,22614,26693,Tag0,unknown
1610799150843,200,24,5.2734375E-6,0,0,0,212672,93650,73616,16747553,8805,30231,22614,26693,Tag0,unknown
1610799150874,200,-269,-5.9106445312499996E-5,0,0,0,212672,93650,73616,16747553,8805,30231,22614,26693,Tag0,unknown
1610799150886,200,17,3.7353515625000003E-6,0,0,0,212672,93650,73616,16747553,8805,30231,22614,26693,Tag0,unknown
1610799150899,200,-259,-5.69091796875E-5,0,0,0,212672,93650,73616,16747553,8805,30231,22614,26693,Tag0,unknown
1610799150914,200,-280,-6.15234375E-5,0,0,0,212672,93650,73616,16747553,8805,30231,22614,26693,Tag0,unknown
1610799150924,200,16,3.515625E-6,0,0,0,212672,93650,73616,16747553,8805,30231,22614,26693,Tag0,unknown
1610799150934,200,-257,-5.64697265625E-5,0,0,0,212672,93650,73616,16747553,8805,30231,22614,26693,Tag0,unknown
1610799150944,200,9,1.9775390625E-6,0,0,0,212672,93650,73616,16747553,8805,30231,22614,26693,Tag0,unknown
1610799150954,200,-109,-2.39501953125E-5,0,0,0,212672,93650,73616,16747553,8805,30231,22614,26693,Tag0,unknown
1610799150964,200,113,2.48291015625E-5,0,0,0,212672,93650,73616,16747553,8805,30231,22614,26693,Tag0,unknown
1610799150974,200,-279,-6.13037109375E-5,0,0,0,212672,93650,73616,16747553,8805,30231,22614,26693,Tag0,unknown
1610799150984,200,78,1.7138671875E-5,0,0,0,212672,93650,73616,16747553,8805,30231,22614,26693,Tag0,unknown
1610799151013,200,-265,-5.82275390625E-5,0,0,0,212672,93650,73616,16747553,8805,30231,22614,26693,Tag0,unknown
1610799151044,200,108,2.3730468750000002E-5,0,0,0,212672,93650,73616,16747553,8805,30231,22614,26693,Tag0,unknown
1610799151067,200,64,1.40625E-5,0,0,0,212672,93650,73616,16747553,8805,30231,22614,26693,Tag0,unknown
1610799151082,200,65,1.42822265625E-5,0,0,0,212672,93650,73616,16747553,8805,30231,22614,26693,Tag0,unknown
1610799151101,200,85,1.86767578125E-5,0,0,0,212672,93650,73616,16747553,8805,30231,22614,26693,Tag0,unknown
1610799151115,200,83,1.82373046875E-5,0,0,0,212672,93650,73616,16747553,8805,30231,22614,26693,Tag0,unknown
1610799151125,200,49,1.07666015625E-5,0,0,0,212672,93650,73616,16747553,8805,30231,22614,26693,Tag0,unknown
1610799151138,200,97,2.13134765625E-5,0,0,0,212672,93650,73616,16747553,8805,30231,22614,26693,Tag0,unknown
1610799151148,200,-116,-2.548828125E-5,0,0,0,212672,93650,73616,16747553,8805,30231,22614,26693,Tag0,unknown
1610799151177,200,19,4.1748046875E-6,0,0,0,212672,93650,73616,16747553,8805,30231,22614,26693,Tag0,unknown
1610799151187,200,-274,-6.0205078124999997E-5,0,0,0,212672,93650,73616,16747553,8805,30231,22614,26693,Tag0,unknown
1610799151199,200,-265,-5.82275390625E-5,0,0,0,212672,93650,73616,16747553,8805,30231,22614,26693,Tag0,unknown
1610799151214,200,76,1.669921875E-5,0,0,0,212672,93650,73616,16747553,8805,30231,22614,26693,Tag0,unknown
1610799151230,200,67,1.4721679687500002E-5,0,0,0,212672,93650,73616,16747553,8805,30231,22614,26693,Tag0,unknown
1610799151249,200,88,1.93359375E-5,0,0,0,212672,93650,73616,16747553,8805,30231,22614,26693,Tag0,unknown
1610799151264,200,75,1.64794921875E-5,0,0,0,212672,93650,73616,16747553,8805,30231,22614,26693,Tag0,unknown
1610799151289,200,-292,-6.416015625000001E-5,0,0,0,212672,93650,73616,16747553,8805,30231,22614,26693,Tag0,unknown
1610799151300,200,-299,-6.56982421875E-5,0,0,0,212672,93650,73616,16747553,8805,30231,22614,26693,Tag0,unknown
1610799151310,200,22,4.833984375E-6,0,0,0,212672,93650,73616,16747553,8805,30231,22614,26693,Tag0,unknown
1610799151320,200,27,5.9326171875000005E-6,0,0,0,212672,93650,73616,16747553,8805,30231,22614,26693,Tag0,unknown
1610799151333,200,83,1.82373046875E-5,0,0,0,212672,93650,73616,16747553,8805,30231,22614,26693,Tag0,unknown
1610799151357,200,122,2.6806640625E-5,0,0,0,212672,93650,73616,16747553,8805,30231,22614,26693,Tag0,unknown
1610799151367,200,27,5.9326171875000005E-6,0,0,0,212672,93650,73616,16747553,8805,30231,22614,26693,Tag0,unknown
1610799151391,200,88,1.93359375E-5,0,0,0,212672,93650,73616,16747553,8805,30231,22614,26693,Tag0,unknown
1610799151401,200,51,1.1206054687499999E-5,0,0,0,212672,93650,73616,16747553,8805,30231,22614,26693,Tag0,unknown
1610799151416,200,57,1.2524414062500001E-5,0,0,0,212672,93650,73616,16747553,8805,30231,22614,26693,Tag0,unknown
1610799151434,200,92,2.021484375E-5,0,0,0,212672,93650,73616,16747553,8805,30231,22614,26693,Tag0,unknown
1610799151452,200,91,1.99951171875E-5,0,0,0,25094,11873,5346,994,8947,7375,5313,1922,Tag0,unknown
1610799151462,200,-274,-6.0205078124999997E-5,0,0,0,25094,11873,5346,994,8947,7375,5313,1922,Tag0,unknown
1610799151480,200,-263,-5.7788085937500005E-5,0,0,0,25094,11873,5346,994,8947,7375,5313,1922,Tag0,unknown
1610799151502,200,108,2.3730468750000002E-5,0,0,0,25094,11873,5346,994,8947,7375,5313,1922,Tag0,unknown
1610799151514,200,-128,-2.8125E-5,0,0,0,25094,11873,5346,994,8947,7375,5313,1922,Tag0,unknown
1610799151542,200,104,2.28515625E-5,0,0,0,25094,11873,5346,994,8947,7375,5313,1922,Tag0,unknown
1610799151552,200,-119,-2.6147460937500004E-5,0,0,0,25094,11873,5346,994,8947,7375,5313,1922,Tag0,unknown
1610799151576,200,19,4.1748046875E-6,0,0,0,25094,11873,5346,994,8947,7375,5313,1922,Tag0,unknown
1610799151587,200,-104,-2.28515625E-5,0,0,0,25094,11873,5346,994,8947,7375,5313,1922,Tag0,unknown
1610799151600,200,-121,-2.6586914062500003E-5,0,0,0,25094,11873,5346,994,8947,7375,5313,1922,Tag0,unknown
1610799151610,200,-322,-7.0751953125E-5,0,0,0,25094,11873,5346,994,8947,7375,5313,1922,Tag0,unknown
1610799151633,200,-261,-5.73486328125E-5,0,0,0,25094,11873,5346,994,8947,7375,5313,1922,Tag0,unknown
1610799151653,200,92,2.021484375E-5,0,0,0,25094,11873,5346,994,8947,7375,5313,1922,Tag0,unknown
1610799151667,200,-127,-2.79052734375E-5,0,0,0,25094,11873,5346,994,8947,7375,5313,1922,Tag0,unknown
1610799151677,200,-127,-2.79052734375E-5,0,0,0,25094,11873,5346,994,8947,7375,5313,1922,Tag0,unknown
1610799151688,200,-75,-1.64794921875E-5,0,0,0,25094,11873,5346,994,8947,7375,5313,1922,Tag0,unknown
1610799151698,200,-71,-1.56005859375E-5,0,0,0,25094,11873,5346,994,8947,7375,5313,1922,Tag0,unknown
1610799151724,200,49,1.07666015625E-5,0,0,0,25094,11873,5346,994,8947,7375,5313,1922,Tag0,unknown
1610799151734,200,5,1.0986328125E-6,0,0,0,25094,11873,5346,994,8947,7375,5313,1922,Tag0,unknown
1610799151748,200,101,2.2192382812500002E-5,0,0,0,25094,11873,5346,994,8947,7375,5313,1922,Tag0,unknown
1610799151765,200,66,1.4501953125E-5,0,0,0,25094,11873,5346,994,8947,7375,5313,1922,Tag0,unknown
1610799151783,200,9,1.9775390625E-6,0,0,0,25094,11873,5346,994,8947,7375,5313,1922,Tag0,unknown
1610799151802,200,49,1.07666015625E-5,0,0,0,25094,11873,5346,994,8947,7375,5313,1922,Tag0,unknown
1610799151816,200,71,1.56005859375E-5,0,0,0,25094,11873,5346,994,8947,7375,5313,1922,Tag0,unknown
1610799151826,200,4,8.7890625E-7,0,0,0,25094,11873,5346,994,8947,7375,5313,1922,Tag0,unknown
1610799151849,200,61,1.34033203125E-5,0,0,0,25094,11873,5346,994,8947,7375,5313,1922,Tag0,unknown
1610799151868,200,44,9.66796875E-6,0,0,0,25094,11873,5346,994,8947,7375,5313,1922,Tag0,unknown
1610799151883,200,19,4.1748046875E-6,0,0,0,25094,11873,5346,994,8947,7375,5313,1922,Tag0,unknown
1610799151893,200,100,2.197265625E-5,0,0,0,25094,11873,5346,994,8947,7375,5313,1922,Tag0,unknown
1610799151908,200,-124,-2.724609375E-5,0,0,0,25094,11873,5346,994,8947,7375,5313,1922,Tag0,unknown
1610799151918,200,112,2.4609375E-5,0,0,0,25094,11873,5346,994,8947,7375,5313,1922,Tag0,unknown
1610799151941,200,-268,-5.8886718750000006E-5,0,0,0,25094,11873,5346,994,8947,7375,5313,1922,Tag0,unknown
1610799151951,200,32,7.03125E-6,0,0,0,25094,11873,5346,994,8947,7375,5313,1922,Tag0,unknown
1610799151965,200,56,1.23046875E-5,0,0,0,25094,11873,5346,994,8947,7375,5313,1922,Tag0,unknown
1610799151989,200,-337,-7.40478515625E-5,0,0,0,25094,11873,5346,994,8947,7375,5313,1922,Tag0,unknown
1610799152001,200,-359,-7.88818359375E-5,0,0,0,25094,11873,5346,994,8947,7375,5313,1922,Tag0,unknown
1610799152011,200,-145,-3.18603515625E-5,0,0,0,25094,11873,5346,994,8947,7375,5313,1922,Tag0,unknown
1610799152022,200,-533,-1.171142578125E-4,0,0,0,25094,11873,5346,994,8947,7375,5313,1922,Tag0,unknown
1610799152037,200,-233,-5.1196289062500006E-5,0,0,0,25094,11873,5346,994,8947,7375,5313,1922,Tag0,unknown
1610799152062,200,27,5.9326171875000005E-6,0,0,0,25094,11873,5346,994,8947,7375,5313,1922,Tag0,unknown
1610799152083,200,33,7.2509765625E-6,0,0,0,25094,11873,5346,994,8947,7375,5313,1922,Tag0,unknown
1610799152101,200,5,1.0986328125E-6,0,0,0,25094,11873,5346,994,8947,7375,5313,1922,Tag0,unknown
1610799152115,200,13,2.8564453125E-6,0,0,0,25094,11873,5346,994,8947,7375,5313,1922,Tag0,unknown
1610799152135,200,-90,-1.9775390625E-5,0,0,0,25094,11873,5346,994,8947,7375,5313,1922,Tag0,unknown
1610799152149,200,-61,-1.34033203125E-5,0,0,0,25094,11873,5346,994,8947,7375,5313,1922,Tag0,unknown
1610799152174,200,-47,-1.0327148437500001E-5,0,0,0,25094,11873,5346,994,8947,7375,5313,1922,Tag0,unknown
1610799152184,200,-25,-5.4931640625E-6,0,0,0,25094,11873,5346,994,8947,7375,5313,1922,Tag0,unknown
1610799152194,200,120,2.63671875E-5,0,0,0,25094,11873,5346,994,8947,7375,5313,1922,Tag0,unknown
1610799152209,200,96,2.109375E-5,0,0,0,25094,11873,5346,994,8947,7375,5313,1922,Tag0,unknown
1610799152219,200,-45,-9.8876953125E-6,0,0,0,25094,11873,5346,994,8947,7375,5313,1922,Tag0,unknown
1610799152234,200,183,4.02099609375E-5,0,0,0,25094,11873,5346,994,8947,7375,5313,1922,Tag0,unknown
1610799152268,200,363,7.97607421875E-5,0,0,0,25094,11873,5346,994,8947,7375,5313,1922,Tag0,unknown
1610799152287,200,361,7.93212890625E-5,0,0,0,25094,11873,5346,994,8947,7375,5313,1922,Tag0,unknown
1610799152297,200,372,8.173828125E-5,0,0,0,25094,11873,5346,994,8947,7375,5313,1922,Tag0,unknown
1610799152307,200,-74,-1.6259765625E-5,0,0,0,25094,11873,5346,994,8947,7375,5313,1922,Tag0,unknown
1610799152326,200,-67,-1.4721679687500002E-5,0,0,0,25094,11873,5346,994,8947,7375,5313,1922,Tag0,unknown
1610799152336,200,-23,-5.0537109375E-6,0,0,0,25094,11873,5346,994,8947,7375,5313,1922,Tag0,unknown
1610799152347,200,73,1.6040039062500002E-5,0,0,0,25094,11873,5346,994,8947,7375,5313,1922,Tag0,unknown
1610799152357,200,1,2.197265625E-7,0,0,0,25094,11873,5346,994,8947,7375,5313,1922,Tag0,unknown
1610799152368,200,91,1.99951171875E-5,0,0,0,25094,11873,5346,994,8947,7375,5313,1922,Tag0,unknown
1610799152385,200,-59,-1.29638671875E-5,0,0,0,25094,11873,5346,994,8947,7375,5313,1922,Tag0,unknown
1610799152399,200,-41,-9.008789062499999E-6,0,0,0,25094,11873,5346,994,8947,7375,5313,1922,Tag0,unknown
1610799152429,200,153,3.3618164062500004E-5,0,0,0,25094,11873,5346,994,8947,7375,5313,1922,Tag0,unknown
1610799152450,200,555,1.219482421875E-4,0,0,0,25094,11873,5346,994,8947,7375,5313,1922,Tag0,unknown
1610799152460,200,491,1.078857421875E-4,0,0,0,1221602,160201,16752127,16753994,16755224,16755684,20826,14387,Tag0,unknown
1610799152479,200,425,9.33837890625E-5,0,0,0,1221602,160201,16752127,16753994,16755224,16755684,20826,14387,Tag0,unknown
1610799152489,200,436,9.580078125E-5,0,0,0,1221602,160201,16752127,16753994,16755224,16755684,20826,14387,Tag0,unknown
1610799152499,200,155,3.40576171875E-5,0,0,0,1221602,160201,16752127,16753994,16755224,16755684,20826,14387,Tag0,unknown
1610799152515,200,162,3.5595703125E-5,0,0,0,1221602,160201,16752127,16753994,16755224,16755684,20826,14387,Tag0,unknown
1610799152541,200,5,1.0986328125E-6,0,0,0,1221602,160201,16752127,16753994,16755224,16755684,20826,14387,Tag0,unknown
1610799152551,200,-278,-6.108398437500001E-5,0,0,0,1221602,160201,16752127,16753994,16755224,16755684,20826,14387,Tag0,unknown
1610799152566,200,-1298,-2.8520507812500003E-4,0,0,0,1221602,160201,16752127,16753994,16755224,16755684,20826,14387,Tag0,unknown
1610799152583,200,-1354,-2.9750976562500003E-4,0,0,0,1221602,160201,16752127,16753994,16755224,16755684,20826,14387,Tag0,unknown
1610799152604,200,-1204,-2.6455078125000003E-4,0,0,0,1221602,160201,16752127,16753994,16755224,16755684,20826,14387,Tag0,unknown
1610799152621,200,-1331,-2.9245605468750005E-4,0,0,0,1221602,160201,16752127,16753994,16755224,16755684,20826,14387,Tag0,unknown
1610799152636,200,-1141,-2.5070800781250004E-4,0,0,0,1221602,160201,16752127,16753994,16755224,16755684,20826,14387,Tag0,unknown
1610799152646,200,-705,-1.549072265625E-4,0,0,0,1221602,160201,16752127,16753994,16755224,16755684,20826,14387,Tag0,unknown
1610799152656,200,-677,-1.4875488281250002E-4,0,0,0,1221602,160201,16752127,16753994,16755224,16755684,20826,14387,Tag0,unknown
1610799152667,200,-665,-1.461181640625E-4,0,0,0,1221602,160201,16752127,16753994,16755224,16755684,20826,14387,Tag0,unknown
1610799152691,200,-546,-1.1997070312500001E-4,0,0,0,1221602,160201,16752127,16753994,16755224,16755684,20826,14387,Tag0,unknown
1610799152701,200,-237,-5.2075195312500004E-5,0,0,0,1221602,160201,16752127,16753994,16755224,16755684,20826,14387,Tag0,unknown
1610799152728,200,346,7.6025390625E-5,0,0,0,1221602,160201,16752127,16753994,16755224,16755684,20826,14387,Tag0,unknown
1610799152738,200,237,5.2075195312500004E-5,0,0,0,1221602,160201,16752127,16753994,16755224,16755684,20826,14387,Tag0,unknown
1610799152762,200,211,4.63623046875E-5,0,0,0,1221602,160201,16752127,16753994,16755224,16755684,20826,14387,Tag0,unknown
1610799152772,200,162,3.5595703125E-5,0,0,0,1221602,160201,16752127,16753994,16755224,16755684,20826,14387,Tag0,unknown
1610799152785,200,147,3.22998046875E-5,0,0,0,1221602,160201,16752127,16753994,16755224,16755684,20826,14387,Tag0,unknown
1610799152801,200,-104,-2.28515625E-5,0,0,0,1221602,160201,16752127,16753994,16755224,16755684,20826,14387,Tag0,unknown
1610799152816,200,121,2.6586914062500003E-5,0,0,0,1221602,160201,16752127,16753994,16755224,16755684,20826,14387,Tag0,unknown
1610799152833,200,-267,-5.86669921875E-5,0,0,0,1221602,160201,16752127,16753994,16755224,16755684,20826,14387,Tag0,unknown
1610799152850,200,-292,-6.416015625000001E-5,0,0,0,1221602,160201,16752127,16753994,16755224,16755684,20826,14387,Tag0,unknown
1610799152872,200,57,1.2524414062500001E-5,0,0,0,1221602,160201,16752127,16753994,16755224,16755684,20826,14387,Tag0,unknown
1610799152885,200,83,1.82373046875E-5,0,0,0,1221602,160201,16752127,16753994,16755224,16755684,20826,14387,Tag0,unknown
1610799152906,200,71,1.56005859375E-5,0,0,0,1221602,160201,16752127,16753994,16755224,16755684,20826,14387,Tag0,unknown
1610799152919,200,72,1.58203125E-5,0,0,0,1221602,160201,16752127,16753994,16755224,16755684,20826,14387,Tag0,unknown
1610799152929,200,103,2.26318359375E-5,0,0,0,1221602,160201,16752127,16753994,16755224,16755684,20826,14387,Tag0,unknown
1610799152944,200,-115,-2.52685546875E-5,0,0,0,1221602,160201,16752127,16753994,16755224,16755684,20826,14387,Tag0,unknown
1610799152954,200,-110,-2.4169921875E-5,0,0,0,1221602,160201,16752127,16753994,16755224,16755684,20826,14387,Tag0,unknown
1610799152970,200,-95,-2.08740234375E-5,0,0,0,1221602,160201,16752127,16753994,16755224,16755684,20826,14387,Tag0,unknown
1610799152994,200,83,1.82373046875E-5,0,0,0,1221602,160201,16752127,16753994,16755224,16755684,20826,14387,Tag0,unknown
1610799153004,200,101,2.2192382812500002E-5,0,0,0,1221602,160201,16752127,16753994,16755224,16755684,20826,14387,Tag0,unknown
1610799153028,200,86,1.8896484375000003E-5,0,0,0,1221602,160201,16752127,16753994,16755224,16755684,20826,14387,Tag0,unknown
1610799153038,200,57,1.2524414062500001E-5,0,0,0,1221602,160201,16752127,16753994,16755224,16755684,20826,14387,Tag0,unknown
1610799153048,200,89,1.95556640625E-5,0,0,0,1221602,160201,16752127,16753994,16755224,16755684,20826,14387,Tag0,unknown
1610799153069,200,114,2.5048828125000003E-5,0,0,0,1221602,160201,16752127,16753994,16755224,16755684,20826,14387,Tag0,unknown
1610799153084,200,118,2.5927734375E-5,0,0,0,1221602,160201,16752127,16753994,16755224,16755684,20826,14387,Tag0,unknown
1610799153103,200,96,2.109375E-5,0,0,0,1221602,160201,16752127,16753994,16755224,16755684,20826,14387,Tag0,unknown
1610799153121,200,103,2.26318359375E-5,0,0,0,1221602,160201,16752127,16753994,16755224,16755684,20826,14387,Tag0,unknown
1610799153132,200,-41,-9.008789062499999E-6,0,0,0,1221602,160201,16752127,16753994,16755224,16755684,20826,14387,Tag0,unknown
1610799153146,200,42,9.228515625000002E-6,0,0,0,1221602,160201,16752127,16753994,16755224,16755684,20826,14387,Tag0,unknown
1610799153157,200,102,2.2412109374999998E-5,0,0,0,1221602,160201,16752127,16753994,16755224,16755684,20826,14387,Tag0,unknown
1610799153176,200,21,4.614257812500001E-6,0,0,0,1221602,160201,16752127,16753994,16755224,16755684,20826,14387,Tag0,unknown
1610799153190,200,18,3.955078125E-6,0,0,0,1221602,160201,16752127,16753994,16755224,16755684,20826,14387,Tag0,unknown
1610799153200,200,61,1.34033203125E-5,0,0,0,1221602,160201,16752127,16753994,16755224,16755684,20826,14387,Tag0,unknown
1610799153213,200,81,1.77978515625E-5,0,0,0,1221602,160201,16752127,16753994,16755224,16755684,20826,14387,Tag0,unknown
1610799153223,200,73,1.6040039062500002E-5,0,0,0,1221602,160201,16752127,16753994,16755224,16755684,20826,14387,Tag0,unknown
1610799153237,200,83,1.82373046875E-5,0,0,0,1221602,160201,16752127,16753994,16755224,16755684,20826,14387,Tag0,unknown
1610799153254,200,85,1.86767578125E-5,0,0,0,1221602,160201,16752127,16753994,16755224,16755684,20826,14387,Tag0,unknown
1610799153268,200,71,1.56005859375E-5,0,0,0,1221602,160201,16752127,16753994,16755224,16755684,20826,14387,Tag0,unknown
1610799153289,200,4,8.7890625E-7,0,0,0,1221602,160201,16752127,16753994,16755224,16755684,20826,14387,Tag0,unknown
1610799153303,200,13,2.8564453125E-6,0,0,0,1221602,160201,16752127,16753994,16755224,16755684,20826,14387,Tag0,unknown
1610799153327,200,-305,-6.70166015625E-5,0,0,0,1221602,160201,16752127,16753994,16755224,16755684,20826,14387,Tag0,unknown
1610799153337,200,-291,-6.39404296875E-5,0,0,0,1221602,160201,16752127,16753994,16755224,16755684,20826,14387,Tag0,unknown
1610799153347,200,101,2.2192382812500002E-5,0,0,0,1221602,160201,16752127,16753994,16755224,16755684,20826,14387,Tag0,unknown
1610799153358,200,109,2.39501953125E-5,0,0,0,1221602,160201,16752127,16753994,16755224,16755684,20826,14387,Tag0,unknown
1610799153370,200,20,4.39453125E-6,0,0,0,1221602,160201,16752127,16753994,16755224,16755684,20826,14387,Tag0,unknown
1610799153392,200,87,1.91162109375E-5,0,0,0,1221602,160201,16752127,16753994,16755224,16755684,20826,14387,Tag0,unknown
1610799153402,200,108,2.3730468750000002E-5,0,0,0,1221602,160201,16752127,16753994,16755224,16755684,20826,14387,Tag0,unknown
1610799153418,200,-120,-2.63671875E-5,0,0,0,1221602,160201,16752127,16753994,16755224,16755684,20826,14387,Tag0,unknown
1610799153435,200,-87,-1.91162109375E-5,0,0,0,492710,16600,13811,9709,3181,3865,2533,1742,Tag0,unknown
1610799153455,200,284,6.240234375E-5,0,0,0,492710,16600,13811,9709,3181,3865,2533,1742,Tag0,unknown
1610799153465,200,69,1.51611328125E-5,0,0,0,492710,16600,13811,9709,3181,3865,2533,1742,Tag0,unknown
1610799153478,200,32,7.03125E-6,0,0,0,492710,16600,13811,9709,3181,3865,2533,1742,Tag0,unknown
1610799153488,200,-313,-6.87744140625E-5,0,0,0,492710,16600,13811,9709,3181,3865,2533,1742,Tag0,unknown
1610799153504,200,-307,-6.74560546875E-5,0,0,0,492710,16600,13811,9709,3181,3865,2533,1742,Tag0,unknown
1610799153519,200,-322,-7.0751953125E-5,0,0,0,492710,16600,13811,9709,3181,3865,2533,1742,Tag0,unknown
1610799153529,200,-257,-5.64697265625E-5,0,0,0,492710,16600,13811,9709,3181,3865,2533,1742,Tag0,unknown
1610799153543,200,-280,-6.15234375E-5,0,0,0,492710,16600,13811,9709,3181,3865,2533,1742,Tag0,unknown
1610799153553,200,4,8.7890625E-7,0,0,0,492710,16600,13811,9709,3181,3865,2533,1742,Tag0,unknown
1610799153576,200,20,4.39453125E-6,0,0,0,492710,16600,13811,9709,3181,3865,2533,1742,Tag0,unknown
1610799153586,200,55,1.20849609375E-5,0,0,0,492710,16600,13811,9709,3181,3865,2533,1742,Tag0,unknown
1610799153601,200,43,9.448242187500001E-6,0,0,0,492710,16600,13811,9709,3181,3865,2533,1742,Tag0,unknown
1610799153617,200,96,2.109375E-5,0,0,0,492710,16600,13811,9709,3181,3865,2533,1742,Tag0,unknown
1610799153634,200,58,1.2744140625E-5,0,0,0,492710,16600,13811,9709,3181,3865,2533,1742,Tag0,unknown
1610799153651,200,-46,-1.0107421875E-5,0,0,0,492710,16600,13811,9709,3181,3865,2533,1742,Tag0,unknown
1610799153669,200,-47,-1.0327148437500001E-5,0,0,0,492710,16600,13811,9709,3181,3865,2533,1742,Tag0,unknown
1610799153679,200,76,1.669921875E-5,0,0,0,492710,16600,13811,9709,3181,3865,2533,1742,Tag0,unknown
1610799153690,200,-71,-1.56005859375E-5,0,0,0,492710,16600,13811,9709,3181,3865,2533,1742,Tag0,unknown
1610799153702,200,-53,-1.1645507812500002E-5,0,0,0,492710,16600,13811,9709,3181,3865,2533,1742,Tag0,unknown
1610799153724,200,16,3.515625E-6,0,0,0,492710,16600,13811,9709,3181,3865,2533,1742,Tag0,unknown
1610799153735,200,18,3.955078125E-6,0,0,0,492710,16600,13811,9709,3181,3865,2533,1742,Tag0,unknown
1610799153745,200,73,1.6040039062500002E-5,0,0,0,492710,16600,13811,9709,3181,3865,2533,1742,Tag0,unknown
1610799153762,200,37,8.1298828125E-6,0,0,0,492710,16600,13811,9709,3181,3865,2533,1742,Tag0,unknown
1610799153772,200,62,1.3623046875E-5,0,0,0,492710,16600,13811,9709,3181,3865,2533,1742,Tag0,unknown
1610799153795,200,-107,-2.35107421875E-5,0,0,0,492710,16600,13811,9709,3181,3865,2533,1742,Tag0,unknown
1610799153805,200,64,1.40625E-5,0,0,0,492710,16600,13811,9709,3181,3865,2533,1742,Tag0,unknown
1610799153819,200,98,2.1533203125E-5,0,0,0,492710,16600,13811,9709,3181,3865,2533,1742,Tag0,unknown
1610799153838,200,64,1.40625E-5,0,0,0,492710,16600,13811,9709,3181,3865,2533,1742,Tag0,unknown
1610799153851,200,40,8.7890625E-6,0,0,0,492710,16600,13811,9709,3181,3865,2533,1742,Tag0,unknown
1610799153872,200,23,5.0537109375E-6,0,0,0,492710,16600,13811,9709,3181,3865,2533,1742,Tag0,unknown
1610799153888,200,-262,-5.7568359375E-5,0,0,0,492710,16600,13811,9709,3181,3865,2533,1742,Tag0,unknown
1610799153898,200,25,5.4931640625E-6,0,0,0,492710,16600,13811,9709,3181,3865,2533,1742,Tag0,unknown
1610799153909,200,119,2.6147460937500004E-5,0,0,0,492710,16600,13811,9709,3181,3865,2533,1742,Tag0,unknown
1610799153921,200,104,2.28515625E-5,0,0,0,492710,16600,13811,9709,3181,3865,2533,1742,Tag0,unknown
1610799153942,200,40,8.7890625E-6,0,0,0,492710,16600,13811,9709,3181,3865,2533,1742,Tag0,unknown
1610799153954,200,67,1.4721679687500002E-5,0,0,0,492710,16600,13811,9709,3181,3865,2533,1742,Tag0,unknown
1610799153970,200,-260,-5.712890625E-5,0,0,0,492710,16600,13811,9709,3181,3865,2533,1742,Tag0,unknown
1610799153990,200,64,1.40625E-5,0,0,0,492710,16600,13811,9709,3181,3865,2533,1742,Tag0,unknown
1610799154004,200,81,1.77978515625E-5,0,0,0,492710,16600,13811,9709,3181,3865,2533,1742,Tag0,unknown
1610799154014,200,61,1.34033203125E-5,0,0,0,492710,16600,13811,9709,3181,3865,2533,1742,Tag0,unknown
1610799154031,200,108,2.3730468750000002E-5,0,0,0,492710,16600,13811,9709,3181,3865,2533,1742,Tag0,unknown
1610799154041,200,107,2.35107421875E-5,0,0,0,492710,16600,13811,9709,3181,3865,2533,1742,Tag0,unknown
1610799154054,200,17,3.7353515625000003E-6,0,0,0,492710,16600,13811,9709,3181,3865,2533,1742,Tag0,unknown
1610799154069,200,61,1.34033203125E-5,0,0,0,492710,16600,13811,9709,3181,3865,2533,1742,Tag0,unknown
1610799154085,200,53,1.1645507812500002E-5,0,0,0,492710,16600,13811,9709,3181,3865,2533,1742,Tag0,unknown
1610799154102,200,-99,-2.1752929687500003E-5,0,0,0,492710,16600,13811,9709,3181,3865,2533,1742,Tag0,unknown
1610799154121,200,-91,-1.99951171875E-5,0,0,0,492710,16600,13811,9709,3181,3865,2533,1742,Tag0,unknown
1610799154141,200,65,1.42822265625E-5,0,0,0,492710,16600,13811,9709,3181,3865,2533,1742,Tag0,unknown
1610799154155,200,99,2.1752929687500003E-5,0,0,0,492710,16600,13811,9709,3181,3865,2533,1742,Tag0,unknown
1610799154165,200,17,3.7353515625000003E-6,0,0,0,492710,16600,13811,9709,3181,3865,2533,1742,Tag0,unknown
1610799154175,200,89,1.95556640625E-5,0,0,0,492710,16600,13811,9709,3181,3865,2533,1742,Tag0,unknown
1610799154188,200,96,2.109375E-5,0,0,0,492710,16600,13811,9709,3181,3865,2533,1742,Tag0,unknown
1610799154213,200,19,4.1748046875E-6,0,0,0,492710,16600,13811,9709,3181,3865,2533,1742,Tag0,unknown
1610799154223,200,42,9.228515625000002E-6,0,0,0,492710,16600,13811,9709,3181,3865,2533,1742,Tag0,unknown
1610799154237,200,49,1.07666015625E-5,0,0,0,492710,16600,13811,9709,3181,3865,2533,1742,Tag0,unknown
1610799154252,200,-273,-5.998535156250001E-5,0,0,0,492710,16600,13811,9709,3181,3865,2533,1742,Tag0,unknown
1610799154269,200,87,1.91162109375E-5,0,0,0,492710,16600,13811,9709,3181,3865,2533,1742,Tag0,unknown
1610799154285,200,-262,-5.7568359375E-5,0,0,0,492710,16600,13811,9709,3181,3865,2533,1742,Tag0,unknown
1610799154302,200,21,4.614257812500001E-6,0,0,0,492710,16600,13811,9709,3181,3865,2533,1742,Tag0,unknown
1610799154323,200,122,2.6806640625E-5,0,0,0,492710,16600,13811,9709,3181,3865,2533,1742,Tag0,unknown
1610799154338,200,-103,-2.26318359375E-5,0,0,0,492710,16600,13811,9709,3181,3865,2533,1742,Tag0,unknown
1610799154357,200,42,9.228515625000002E-6,0,0,0,492710,16600,13811,9709,3181,3865,2533,1742,Tag0,unknown
1610799154372,200,67,1.4721679687500002E-5,0,0,0,492710,16600,13811,9709,3181,3865,2533,1742,Tag0,unknown
1610799154382,200,100,2.197265625E-5,0,0,0,492710,16600,13811,9709,3181,3865,2533,1742,Tag0,unknown
1610799154404,200,12,2.63671875E-6,0,0,0,492710,16600,13811,9709,3181,3865,2533,1742,Tag0,unknown
1610799154428,200,119,2.6147460937500004E-5,0,0,0,492710,16600,13811,9709,3181,3865,2533,1742,Tag0,unknown
1610799154439,200,-116,-2.548828125E-5,0,0,0,492710,16600,13811,9709,3181,3865,2533,1742,Tag0,unknown
1610799154449,200,-75,-1.64794921875E-5,0,0,0,16760006,28485,14038,12557,2064,13580,6572,3894,Tag0,unknown
1610799154461,200,-106,-2.3291015625000003E-5,0,0,0,16760006,28485,14038,12557,2064,13580,6572,3894,Tag0,unknown
1610799154474,200,113,2.48291015625E-5,0,0,0,16760006,28485,14038,12557,2064,13580,6572,3894,Tag0,unknown
1610799154498,200,89,1.95556640625E-5,0,0,0,16760006,28485,14038,12557,2064,13580,6572,3894,Tag0,unknown
1610799154520,200,-126,-2.7685546875E-5,0,0,0,16760006,28485,14038,12557,2064,13580,6572,3894,Tag0,unknown
1610799154536,200,107,2.35107421875E-5,0,0,0,16760006,28485,14038,12557,2064,13580,6572,3894,Tag0,unknown
1610799154553,200,23,5.0537109375E-6,0,0,0,16760006,28485,14038,12557,2064,13580,6572,3894,Tag0,unknown
1610799154572,200,-110,-2.4169921875E-5,0,0,0,16760006,28485,14038,12557,2064,13580,6572,3894,Tag0,unknown
1610799154589,200,37,8.1298828125E-6,0,0,0,16760006,28485,14038,12557,2064,13580,6572,3894,Tag0,unknown
1610799154599,200,-294,-6.4599609375E-5,0,0,0,16760006,28485,14038,12557,2064,13580,6572,3894,Tag0,unknown
1610799154609,200,25,5.4931640625E-6,0,0,0,16760006,28485,14038,12557,2064,13580,6572,3894,Tag0,unknown
1610799154622,200,55,1.20849609375E-5,0,0,0,16760006,28485,14038,12557,2064,13580,6572,3894,Tag0,unknown
1610799154639,200,83,1.82373046875E-5,0,0,0,16760006,28485,14038,12557,2064,13580,6572,3894,Tag0,unknown
1610799154655,200,80,1.7578125E-5,0,0,0,16760006,28485,14038,12557,2064,13580,6572,3894,Tag0,unknown
1610799154673,200,33,7.2509765625E-6,0,0,0,16760006,28485,14038,12557,2064,13580,6572,3894,Tag0,unknown
1610799154704,200,71,1.56005859375E-5,0,0,0,16760006,28485,14038,12557,2064,13580,6572,3894,Tag0,unknown
1610799154719,200,75,1.64794921875E-5,0,0,0,16760006,28485,14038,12557,2064,13580,6572,3894,Tag0,unknown
1610799154739,200,114,2.5048828125000003E-5,0,0,0,16760006,28485,14038,12557,2064,13580,6572,3894,Tag0,unknown
1610799154756,200,37,8.1298828125E-6,0,0,0,16760006,28485,14038,12557,2064,13580,6572,3894,Tag0,unknown
1610799154766,200,59,1.29638671875E-5,0,0,0,16760006,28485,14038,12557,2064,13580,6572,3894,Tag0,unknown
1610799154776,200,-132,-2.900390625E-5,0,0,0,16760006,28485,14038,12557,2064,13580,6572,3894,Tag0,unknown
1610799154789,200,27,5.9326171875000005E-6,0,0,0,16760006,28485,14038,12557,2064,13580,6572,3894,Tag0,unknown
1610799154808,200,-283,-6.218261718750001E-5,0,0,0,16760006,28485,14038,12557,2064,13580,6572,3894,Tag0,unknown
1610799154821,200,33,7.2509765625E-6,0,0,0,16760006,28485,14038,12557,2064,13580,6572,3894,Tag0,unknown
1610799154831,200,-85,-1.86767578125E-5,0,0,0,16760006,28485,14038,12557,2064,13580,6572,3894,Tag0,unknown
1610799154851,200,87,1.91162109375E-5,0,0,0,16760006,28485,14038,12557,2064,13580,6572,3894,Tag0,unknown
1610799154875,200,117,2.5708007812499998E-5,0,0,0,16760006,28485,14038,12557,2064,13580,6572,3894,Tag0,unknown
1610799154885,200,-341,-7.492675781250002E-5,0,0,0,16760006,28485,14038,12557,2064,13580,6572,3894,Tag0,unknown
1610799154902,200,-149,-3.27392578125E-5,0,0,0,16760006,28485,14038,12557,2064,13580,6572,3894,Tag0,unknown
1610799154912,200,-163,-3.5815429687500006E-5,0,0,0,16760006,28485,14038,12557,2064,13580,6572,3894,Tag0,unknown
1610799154922,200,-354,-7.778320312500001E-5,0,0,0,16760006,28485,14038,12557,2064,13580,6572,3894,Tag0,unknown
1610799154939,200,-345,-7.58056640625E-5,0,0,0,16760006,28485,14038,12557,2064,13580,6572,3894,Tag0,unknown
1610799154955,200,-150,-3.2958984375E-5,0,0,0,16760006,28485,14038,12557,2064,13580,6572,3894,Tag0,unknown
1610799154972,200,-149,-3.27392578125E-5,0,0,0,16760006,28485,14038,12557,2064,13580,6572,3894,Tag0,unknown
1610799154982,200,-57,-1.2524414062500001E-5,0,0,0,16760006,28485,14038,12557,2064,13580,6572,3894,Tag0,unknown
1610799154997,200,-109,-2.39501953125E-5,0,0,0,16760006,28485,14038,12557,2064,13580,6572,3894,Tag0,unknown
1610799155007,200,-109,-2.39501953125E-5,0,0,0,16760006,28485,14038,12557,2064,13580,6572,3894,Tag0,unknown
