timestampMs,poorSignal,eegRawValue,eegRawValueVolts,attention,meditation,blinkStrength,delta,theta,alphaLow,alphaHigh,betaLow,betaHigh,gammaLow,gammaMid,tagEvent,location
1605701318781,200,-283,-6.218261718750001E-5,0,0,0,252968,15108,5106,4719,2415,5516,3961,1329,Tag0,unknown
1605701318809,200,85,1.86767578125E-5,0,0,0,252968,15108,5106,4719,2415,5516,3961,1329,Tag0,unknown
1605701318843,200,97,2.13134765625E-5,0,0,0,252968,15108,5106,4719,2415,5516,3961,1329,Tag0,unknown
1605701318853,200,116,2.548828125E-5,0,0,0,252968,15108,5106,4719,2415,5516,3961,1329,Tag0,unknown
1605701318866,200,53,1.1645507812500002E-5,0,0,0,252968,15108,5106,4719,2415,5516,3961,1329,Tag0,unknown
1605701318885,200,3,6.591796875E-7,0,0,0,252968,15108,5106,4719,2415,5516,3961,1329,Tag0,unknown
1605701318900,200,-189,-4.15283203125E-5,0,0,0,252968,15108,5106,4719,2415,5516,3961,1329,Tag0,unknown
1605701318921,200,-135,-2.96630859375E-5,0,0,0,252968,15108,5106,4719,2415,5516,3961,1329,Tag0,unknown
1605701318933,200,-347,-7.62451171875E-5,0,0,0,252968,15108,5106,4719,2415,5516,3961,1329,Tag0,unknown
1605701318957,200,9,1.9775390625E-6,0,0,0,252968,15108,5106,4719,2415,5516,3961,1329,Tag0,unknown
1605701318967,200,56,1.23046875E-5,0,0,0,252968,15108,5106,4719,2415,5516,3961,1329,Tag0,unknown
1605701318991,200,-307,-6.74560546875E-5,0,0,0,252968,15108,5106,4719,2415,5516,3961,1329,Tag0,unknown
1605701319001,200,-154,-3.3837890625E-5,0,0,0,252968,15108,5106,4719,2415,5516,3961,1329,Tag0,unknown
1605701319029,200,60,1.318359375E-5,0,0,0,252968,15108,5106,4719,2415,5516,3961,1329,Tag0,unknown
1605701319039,200,266,5.8447265625E-5,0,0,0,252968,15108,5106,4719,2415,5516,3961,1329,Tag0,unknown
1605701319063,200,-121,-2.6586914062500003E-5,0,0,0,252968,15108,5106,4719,2415,5516,3961,1329,Tag0,unknown
1605701319073,200,9,1.9775390625E-6,0,0,0,252968,15108,5106,4719,2415,5516,3961,1329,Tag0,unknown
1605701319120,200,-95,-2.08740234375E-5,0,0,0,453379,728985,12772,8807,7906,28411,11719,10855,Tag0,unknown
1605701319136,200,265,5.82275390625E-5,0,0,0,453379,728985,12772,8807,7906,28411,11719,10855,Tag0,unknown
1605701319151,200,-104,-2.28515625E-5,0,0,0,453379,728985,12772,8807,7906,28411,11719,10855,Tag0,unknown
1605701319170,200,42,9.228515625000002E-6,0,0,0,453379,728985,12772,8807,7906,28411,11719,10855,Tag0,unknown
1605701319184,200,-308,-6.767578125E-5,0,0,0,453379,728985,12772,8807,7906,28411,11719,10855,Tag0,unknown
1605701319203,200,-96,-2.109375E-5,0,0,0,453379,728985,12772,8807,7906,28411,11719,10855,Tag0,unknown
1605701319218,200,41,9.008789062499999E-6,0,0,0,453379,728985,12772,8807,7906,28411,11719,10855,Tag0,unknown
1605701319240,200,-115,-2.52685546875E-5,0,0,0,453379,728985,12772,8807,7906,28411,11719,10855,Tag0,unknown
1605701319252,200,105,2.30712890625E-5,0,0,0,453379,728985,12772,8807,7906,28411,11719,10855,Tag0,unknown
1605701319273,200,100,2.197265625E-5,0,0,0,453379,728985,12772,8807,7906,28411,11719,10855,Tag0,unknown
1605701319288,200,-109,-2.39501953125E-5,0,0,0,453379,728985,12772,8807,7906,28411,11719,10855,Tag0,unknown
1605701319302,200,-21,-4.614257812500001E-6,0,0,0,453379,728985,12772,8807,7906,28411,11719,10855,Tag0,unknown
1605701319319,200,-125,-2.74658203125E-5,0,0,0,453379,728985,12772,8807,7906,28411,11719,10855,Tag0,unknown
1605701319349,200,89,1.95556640625E-5,0,0,0,453379,728985,12772,8807,7906,28411,11719,10855,Tag0,unknown
1605701319370,200,123,2.70263671875E-5,0,0,0,453379,728985,12772,8807,7906,28411,11719,10855,Tag0,unknown
1605701319380,200,55,1.20849609375E-5,0,0,0,453379,728985,12772,8807,7906,28411,11719,10855,Tag0,unknown
1605701319390,200,-322,-7.0751953125E-5,0,0,0,453379,728985,12772,8807,7906,28411,11719,10855,Tag0,unknown
1605701319403,200,103,2.26318359375E-5,0,0,0,453379,728985,12772,8807,7906,28411,11719,10855,Tag0,unknown
1605701319426,200,264,5.80078125E-5,0,0,0,453379,728985,12772,8807,7906,28411,11719,10855,Tag0,unknown
1605701319436,200,268,5.8886718750000006E-5,0,0,0,453379,728985,12772,8807,7906,28411,11719,10855,Tag0,unknown
1605701319460,200,-107,-2.35107421875E-5,0,0,0,453379,728985,12772,8807,7906,28411,11719,10855,Tag0,unknown
1605701319470,200,66,1.4501953125E-5,0,0,0,453379,728985,12772,8807,7906,28411,11719,10855,Tag0,unknown
1605701319495,200,-95,-2.08740234375E-5,0,0,0,453379,728985,12772,8807,7906,28411,11719,10855,Tag0,unknown
1605701319505,200,-118,-2.5927734375E-5,0,0,0,453379,728985,12772,8807,7906,28411,11719,10855,Tag0,unknown
1605701319515,200,57,1.2524414062500001E-5,0,0,0,453379,728985,12772,8807,7906,28411,11719,10855,Tag0,unknown
1605701319534,200,-91,-1.99951171875E-5,0,0,0,453379,728985,12772,8807,7906,28411,11719,10855,Tag0,unknown
1605701319554,200,67,1.4721679687500002E-5,0,0,0,453379,728985,12772,8807,7906,28411,11719,10855,Tag0,unknown
1605701319571,200,86,1.8896484375000003E-5,0,0,0,453379,728985,12772,8807,7906,28411,11719,10855,Tag0,unknown
1605701319588,200,-29,-6.3720703125E-6,0,0,0,453379,728985,12772,8807,7906,28411,11719,10855,Tag0,unknown
1605701319608,200,25,5.4931640625E-6,0,0,0,453379,728985,12772,8807,7906,28411,11719,10855,Tag0,unknown
1605701319643,200,-297,-6.525878906250001E-5,0,0,0,453379,728985,12772,8807,7906,28411,11719,10855,Tag0,unknown
1605701319654,200,73,1.6040039062500002E-5,0,0,0,453379,728985,12772,8807,7906,28411,11719,10855,Tag0,unknown
1605701319664,200,56,1.23046875E-5,0,0,0,453379,728985,12772,8807,7906,28411,11719,10855,Tag0,unknown
1605701319678,200,11,2.4169921875E-6,0,0,0,453379,728985,12772,8807,7906,28411,11719,10855,Tag0,unknown
1605701319688,200,-103,-2.26318359375E-5,0,0,0,453379,728985,12772,8807,7906,28411,11719,10855,Tag0,unknown
1605701319715,200,-317,-6.96533203125E-5,0,0,0,453379,728985,12772,8807,7906,28411,11719,10855,Tag0,unknown
1605701319725,200,-156,-3.427734375E-5,0,0,0,453379,728985,12772,8807,7906,28411,11719,10855,Tag0,unknown
1605701319735,200,81,1.77978515625E-5,0,0,0,453379,728985,12772,8807,7906,28411,11719,10855,Tag0,unknown
1605701319751,200,-125,-2.74658203125E-5,0,0,0,453379,728985,12772,8807,7906,28411,11719,10855,Tag0,unknown
1605701319770,200,17,3.7353515625000003E-6,0,0,0,453379,728985,12772,8807,7906,28411,11719,10855,Tag0,unknown
1605701319787,200,-277,-6.0864257812500005E-5,0,0,0,453379,728985,12772,8807,7906,28411,11719,10855,Tag0,unknown
1605701319806,200,70,1.5380859375E-5,0,0,0,453379,728985,12772,8807,7906,28411,11719,10855,Tag0,unknown
1605701319828,200,107,2.35107421875E-5,0,0,0,453379,728985,12772,8807,7906,28411,11719,10855,Tag0,unknown
1605701319859,200,-279,-6.13037109375E-5,0,0,0,453379,728985,12772,8807,7906,28411,11719,10855,Tag0,unknown
1605701319871,200,19,4.1748046875E-6,0,0,0,453379,728985,12772,8807,7906,28411,11719,10855,Tag0,unknown
1605701319896,200,-323,-7.09716796875E-5,0,0,0,453379,728985,12772,8807,7906,28411,11719,10855,Tag0,unknown
1605701319906,200,44,9.66796875E-6,0,0,0,453379,728985,12772,8807,7906,28411,11719,10855,Tag0,unknown
1605701319929,200,-278,-6.108398437500001E-5,0,0,0,453379,728985,12772,8807,7906,28411,11719,10855,Tag0,unknown
1605701319939,200,-41,-9.008789062499999E-6,0,0,0,453379,728985,12772,8807,7906,28411,11719,10855,Tag0,unknown
1605701319970,200,-295,-6.48193359375E-5,0,0,0,453379,728985,12772,8807,7906,28411,11719,10855,Tag0,unknown
1605701319988,200,58,1.2744140625E-5,0,0,0,453379,728985,12772,8807,7906,28411,11719,10855,Tag0,unknown
1605701320006,200,-327,-7.18505859375E-5,0,0,0,453379,728985,12772,8807,7906,28411,11719,10855,Tag0,unknown
1605701320024,200,-126,-2.7685546875E-5,0,0,0,453379,728985,12772,8807,7906,28411,11719,10855,Tag0,unknown
1605701320043,200,-6,-1.318359375E-6,0,0,0,453379,728985,12772,8807,7906,28411,11719,10855,Tag0,unknown
1605701320057,200,40,8.7890625E-6,0,0,0,453379,728985,12772,8807,7906,28411,11719,10855,Tag0,unknown
1605701320076,200,309,6.78955078125E-5,0,0,0,453379,728985,12772,8807,7906,28411,11719,10855,Tag0,unknown
1605701320089,200,-75,-1.64794921875E-5,0,0,0,453379,728985,12772,8807,7906,28411,11719,10855,Tag0,unknown
1605701320099,200,118,2.5927734375E-5,0,0,0,216288,26751,25173,2407,7023,8352,3457,1449,Tag0,unknown
1605701320112,200,69,1.51611328125E-5,0,0,0,216288,26751,25173,2407,7023,8352,3457,1449,Tag0,unknown
1605701320122,200,112,2.4609375E-5,0,0,0,216288,26751,25173,2407,7023,8352,3457,1449,Tag0,unknown
1605701320139,200,108,2.3730468750000002E-5,0,0,0,216288,26751,25173,2407,7023,8352,3457,1449,Tag0,unknown
1605701320156,200,77,1.69189453125E-5,0,0,0,216288,26751,25173,2407,7023,8352,3457,1449,Tag0,unknown
1605701320180,200,0,0.0,0,0,0,216288,26751,25173,2407,7023,8352,3457,1449,Tag0,unknown
1605701320191,200,58,1.2744140625E-5,0,0,0,216288,26751,25173,2407,7023,8352,3457,1449,Tag0,unknown
1605701320214,200,-263,-5.7788085937500005E-5,0,0,0,216288,26751,25173,2407,7023,8352,3457,1449,Tag0,unknown
1605701320224,200,56,1.23046875E-5,0,0,0,216288,26751,25173,2407,7023,8352,3457,1449,Tag0,unknown
1605701320234,200,12,2.63671875E-6,0,0,0,216288,26751,25173,2407,7023,8352,3457,1449,Tag0,unknown
1605701320254,200,124,2.724609375E-5,0,0,0,216288,26751,25173,2407,7023,8352,3457,1449,Tag0,unknown
1605701320272,200,100,2.197265625E-5,0,0,0,216288,26751,25173,2407,7023,8352,3457,1449,Tag0,unknown
1605701320291,200,49,1.07666015625E-5,0,0,0,216288,26751,25173,2407,7023,8352,3457,1449,Tag0,unknown
1605701320307,200,117,2.5708007812499998E-5,0,0,0,216288,26751,25173,2407,7023,8352,3457,1449,Tag0,unknown
1605701320326,200,-55,-1.20849609375E-5,0,0,0,216288,26751,25173,2407,7023,8352,3457,1449,Tag0,unknown
1605701320340,200,-91,-1.99951171875E-5,0,0,0,216288,26751,25173,2407,7023,8352,3457,1449,Tag0,unknown
1605701320363,200,-59,-1.29638671875E-5,0,0,0,216288,26751,25173,2407,7023,8352,3457,1449,Tag0,unknown
1605701320373,200,-115,-2.52685546875E-5,0,0,0,216288,26751,25173,2407,7023,8352,3457,1449,Tag0,unknown
1605701320383,200,1,2.197265625E-7,0,0,0,216288,26751,25173,2407,7023,8352,3457,1449,Tag0,unknown
1605701320400,200,92,2.021484375E-5,0,0,0,216288,26751,25173,2407,7023,8352,3457,1449,Tag0,unknown
1605701320410,200,-109,-2.39501953125E-5,0,0,0,216288,26751,25173,2407,7023,8352,3457,1449,Tag0,unknown
1605701320439,200,-267,-5.86669921875E-5,0,0,0,216288,26751,25173,2407,7023,8352,3457,1449,Tag0,unknown
1605701320457,200,-259,-5.69091796875E-5,0,0,0,216288,26751,25173,2407,7023,8352,3457,1449,Tag0,unknown
1605701320476,200,-345,-7.58056640625E-5,0,0,0,216288,26751,25173,2407,7023,8352,3457,1449,Tag0,unknown
1605701320508,200,-278,-6.108398437500001E-5,0,0,0,216288,26751,25173,2407,7023,8352,3457,1449,Tag0,unknown
1605701320524,200,80,1.7578125E-5,0,0,0,216288,26751,25173,2407,7023,8352,3457,1449,Tag0,unknown
1605701320549,200,22,4.833984375E-6,0,0,0,216288,26751,25173,2407,7023,8352,3457,1449,Tag0,unknown
1605701320559,200,115,2.52685546875E-5,0,0,0,216288,26751,25173,2407,7023,8352,3457,1449,Tag0,unknown
1605701320582,200,-125,-2.74658203125E-5,0,0,0,216288,26751,25173,2407,7023,8352,3457,1449,Tag0,unknown
1605701320592,200,51,1.1206054687499999E-5,0,0,0,216288,26751,25173,2407,7023,8352,3457,1449,Tag0,unknown
1605701320623,200,-19,-4.1748046875E-6,0,0,0,216288,26751,25173,2407,7023,8352,3457,1449,Tag0,unknown
1605701320641,200,98,2.1533203125E-5,0,0,0,216288,26751,25173,2407,7023,8352,3457,1449,Tag0,unknown
1605701320659,200,-105,-2.30712890625E-5,0,0,0,216288,26751,25173,2407,7023,8352,3457,1449,Tag0,unknown
1605701320677,200,96,2.109375E-5,0,0,0,216288,26751,25173,2407,7023,8352,3457,1449,Tag0,unknown
1605701320694,200,-89,-1.95556640625E-5,0,0,0,216288,26751,25173,2407,7023,8352,3457,1449,Tag0,unknown
1605701320708,200,-38,-8.349609375E-6,0,0,0,216288,26751,25173,2407,7023,8352,3457,1449,Tag0,unknown
1605701320727,200,-96,-2.109375E-5,0,0,0,216288,26751,25173,2407,7023,8352,3457,1449,Tag0,unknown
1605701320742,200,70,1.5380859375E-5,0,0,0,216288,26751,25173,2407,7023,8352,3457,1449,Tag0,unknown
1605701320764,200,-21,-4.614257812500001E-6,0,0,0,216288,26751,25173,2407,7023,8352,3457,1449,Tag0,unknown
1605701320776,200,-85,-1.86767578125E-5,0,0,0,216288,26751,25173,2407,7023,8352,3457,1449,Tag0,unknown
1605701320798,200,-330,-7.2509765625E-5,0,0,0,216288,26751,25173,2407,7023,8352,3457,1449,Tag0,unknown
1605701320809,200,-269,-5.9106445312499996E-5,0,0,0,216288,26751,25173,2407,7023,8352,3457,1449,Tag0,unknown
1605701320819,200,57,1.2524414062500001E-5,0,0,0,216288,26751,25173,2407,7023,8352,3457,1449,Tag0,unknown
1605701320837,200,87,1.91162109375E-5,0,0,0,216288,26751,25173,2407,7023,8352,3457,1449,Tag0,unknown
1605701320847,200,-260,-5.712890625E-5,0,0,0,216288,26751,25173,2407,7023,8352,3457,1449,Tag0,unknown
1605701320871,200,-269,-5.9106445312499996E-5,0,0,0,216288,26751,25173,2407,7023,8352,3457,1449,Tag0,unknown
1605701320881,200,-313,-6.87744140625E-5,0,0,0,216288,26751,25173,2407,7023,8352,3457,1449,Tag0,unknown
1605701320891,200,-294,-6.4599609375E-5,0,0,0,216288,26751,25173,2407,7023,8352,3457,1449,Tag0,unknown
1605701320917,200,49,1.07666015625E-5,0,0,0,216288,26751,25173,2407,7023,8352,3457,1449,Tag0,unknown
1605701320927,200,45,9.8876953125E-6,0,0,0,216288,26751,25173,2407,7023,8352,3457,1449,Tag0,unknown
1605701320944,200,49,1.07666015625E-5,0,0,0,216288,26751,25173,2407,7023,8352,3457,1449,Tag0,unknown
1605701320961,200,-279,-6.13037109375E-5,0,0,0,216288,26751,25173,2407,7023,8352,3457,1449,Tag0,unknown
1605701320971,200,40,8.7890625E-6,0,0,0,216288,26751,25173,2407,7023,8352,3457,1449,Tag0,unknown
1605701320985,200,87,1.91162109375E-5,0,0,0,216288,26751,25173,2407,7023,8352,3457,1449,Tag0,unknown
1605701320995,200,91,1.99951171875E-5,0,0,0,216288,26751,25173,2407,7023,8352,3457,1449,Tag0,unknown
1605701321017,200,45,9.8876953125E-6,0,0,0,216288,26751,25173,2407,7023,8352,3457,1449,Tag0,unknown
1605701321027,200,-307,-6.74560546875E-5,0,0,0,216288,26751,25173,2407,7023,8352,3457,1449,Tag0,unknown
1605701321037,200,35,7.6904296875E-6,0,0,0,216288,26751,25173,2407,7023,8352,3457,1449,Tag0,unknown
1605701321055,200,-275,-6.04248046875E-5,0,0,0,216288,26751,25173,2407,7023,8352,3457,1449,Tag0,unknown
1605701321065,200,-297,-6.525878906250001E-5,0,0,0,216288,26751,25173,2407,7023,8352,3457,1449,Tag0,unknown
1605701321077,200,-359,-7.88818359375E-5,0,0,0,216288,26751,25173,2407,7023,8352,3457,1449,Tag0,unknown
1605701321101,200,67,1.4721679687500002E-5,0,0,0,1205166,157430,16755161,31018,11373,9118,16309,5455,Tag0,unknown
1605701321125,200,21,4.614257812500001E-6,0,0,0,1205166,157430,16755161,31018,11373,9118,16309,5455,Tag0,unknown
1605701321144,200,28,6.15234375E-6,0,0,0,1205166,157430,16755161,31018,11373,9118,16309,5455,Tag0,unknown
1605701321161,200,-77,-1.69189453125E-5,0,0,0,1205166,157430,16755161,31018,11373,9118,16309,5455,Tag0,unknown
1605701321179,200,101,2.2192382812500002E-5,0,0,0,1205166,157430,16755161,31018,11373,9118,16309,5455,Tag0,unknown
1605701321200,200,-47,-1.0327148437500001E-5,0,0,0,1205166,157430,16755161,31018,11373,9118,16309,5455,Tag0,unknown
1605701321211,200,86,1.8896484375000003E-5,0,0,0,1205166,157430,16755161,31018,11373,9118,16309,5455,Tag0,unknown
1605701321228,200,-64,-1.40625E-5,0,0,0,1205166,157430,16755161,31018,11373,9118,16309,5455,Tag0,unknown
1605701321245,200,99,2.1752929687500003E-5,0,0,0,1205166,157430,16755161,31018,11373,9118,16309,5455,Tag0,unknown
1605701321255,200,77,1.69189453125E-5,0,0,0,1205166,157430,16755161,31018,11373,9118,16309,5455,Tag0,unknown
1605701321265,200,42,9.228515625000002E-6,0,0,0,1205166,157430,16755161,31018,11373,9118,16309,5455,Tag0,unknown
1605701321275,200,272,5.9765625000000004E-5,0,0,0,1205166,157430,16755161,31018,11373,9118,16309,5455,Tag0,unknown
1605701321298,200,43,9.448242187500001E-6,0,0,0,1205166,157430,16755161,31018,11373,9118,16309,5455,Tag0,unknown
1605701321311,200,-121,-2.6586914062500003E-5,0,0,0,1205166,157430,16755161,31018,11373,9118,16309,5455,Tag0,unknown
1605701321321,200,77,1.69189453125E-5,0,0,0,1205166,157430,16755161,31018,11373,9118,16309,5455,Tag0,unknown
1605701321340,200,8,1.7578125E-6,0,0,0,1205166,157430,16755161,31018,11373,9118,16309,5455,Tag0,unknown
1605701321350,200,75,1.64794921875E-5,0,0,0,1205166,157430,16755161,31018,11373,9118,16309,5455,Tag0,unknown
1605701321373,200,101,2.2192382812500002E-5,0,0,0,1205166,157430,16755161,31018,11373,9118,16309,5455,Tag0,unknown
1605701321383,200,-315,-6.92138671875E-5,0,0,0,1205166,157430,16755161,31018,11373,9118,16309,5455,Tag0,unknown
1605701321412,200,-309,-6.78955078125E-5,0,0,0,1205166,157430,16755161,31018,11373,9118,16309,5455,Tag0,unknown
1605701321428,200,53,1.1645507812500002E-5,0,0,0,1205166,157430,16755161,31018,11373,9118,16309,5455,Tag0,unknown
1605701321447,200,-307,-6.74560546875E-5,0,0,0,1205166,157430,16755161,31018,11373,9118,16309,5455,Tag0,unknown
1605701321463,200,35,7.6904296875E-6,0,0,0,1205166,157430,16755161,31018,11373,9118,16309,5455,Tag0,unknown
1605701321473,200,-193,-4.2407226562500005E-5,0,0,0,1205166,157430,16755161,31018,11373,9118,16309,5455,Tag0,unknown
1605701321490,200,-290,-6.3720703125E-5,0,0,0,1205166,157430,16755161,31018,11373,9118,16309,5455,Tag0,unknown
1605701321500,200,-314,-6.8994140625E-5,0,0,0,1205166,157430,16755161,31018,11373,9118,16309,5455,Tag0,unknown
1605701321524,200,2,4.39453125E-7,0,0,0,1205166,157430,16755161,31018,11373,9118,16309,5455,Tag0,unknown
1605701321534,200,25,5.4931640625E-6,0,0,0,1205166,157430,16755161,31018,11373,9118,16309,5455,Tag0,unknown
1605701321561,200,376,8.261718750000001E-5,0,0,0,1205166,157430,16755161,31018,11373,9118,16309,5455,Tag0,unknown
1605701321580,200,-46,-1.0107421875E-5,0,0,0,1205166,157430,16755161,31018,11373,9118,16309,5455,Tag0,unknown
1605701321590,200,106,2.3291015625000003E-5,0,0,0,1205166,157430,16755161,31018,11373,9118,16309,5455,Tag0,unknown
1605701321607,200,-117,-2.5708007812499998E-5,0,0,0,1205166,157430,16755161,31018,11373,9118,16309,5455,Tag0,unknown
1605701321617,200,93,2.04345703125E-5,0,0,0,1205166,157430,16755161,31018,11373,9118,16309,5455,Tag0,unknown
1605701321640,200,-292,-6.416015625000001E-5,0,0,0,1205166,157430,16755161,31018,11373,9118,16309,5455,Tag0,unknown
1605701321650,200,65,1.42822265625E-5,0,0,0,1205166,157430,16755161,31018,11373,9118,16309,5455,Tag0,unknown
1605701321660,200,-102,-2.2412109374999998E-5,0,0,0,1205166,157430,16755161,31018,11373,9118,16309,5455,Tag0,unknown
1605701321670,200,-27,-5.9326171875000005E-6,0,0,0,1205166,157430,16755161,31018,11373,9118,16309,5455,Tag0,unknown
1605701321682,200,-118,-2.5927734375E-5,0,0,0,1205166,157430,16755161,31018,11373,9118,16309,5455,Tag0,unknown
1605701321698,200,-102,-2.2412109374999998E-5,0,0,0,1205166,157430,16755161,31018,11373,9118,16309,5455,Tag0,unknown
1605701321721,200,20,4.39453125E-6,0,0,0,1205166,157430,16755161,31018,11373,9118,16309,5455,Tag0,unknown
1605701321731,200,92,2.021484375E-5,0,0,0,1205166,157430,16755161,31018,11373,9118,16309,5455,Tag0,unknown
1605701321741,200,-127,-2.79052734375E-5,0,0,0,1205166,157430,16755161,31018,11373,9118,16309,5455,Tag0,unknown
1605701321753,200,-23,-5.0537109375E-6,0,0,0,1205166,157430,16755161,31018,11373,9118,16309,5455,Tag0,unknown
1605701321763,200,54,1.1865234375000001E-5,0,0,0,1205166,157430,16755161,31018,11373,9118,16309,5455,Tag0,unknown
1605701321786,200,85,1.86767578125E-5,0,0,0,1205166,157430,16755161,31018,11373,9118,16309,5455,Tag0,unknown
1605701321798,200,-74,-1.6259765625E-5,0,0,0,1205166,157430,16755161,31018,11373,9118,16309,5455,Tag0,unknown
1605701321808,200,-329,-7.229003906250001E-5,0,0,0,1205166,157430,16755161,31018,11373,9118,16309,5455,Tag0,unknown
1605701321826,200,-311,-6.833496093750001E-5,0,0,0,1205166,157430,16755161,31018,11373,9118,16309,5455,Tag0,unknown
1605701321836,200,36,7.91015625E-6,0,0,0,1205166,157430,16755161,31018,11373,9118,16309,5455,Tag0,unknown
1605701321860,200,7,1.5380859375E-6,0,0,0,1205166,157430,16755161,31018,11373,9118,16309,5455,Tag0,unknown
1605701321870,200,29,6.3720703125E-6,0,0,0,1205166,157430,16755161,31018,11373,9118,16309,5455,Tag0,unknown
1605701321880,200,83,1.82373046875E-5,0,0,0,1205166,157430,16755161,31018,11373,9118,16309,5455,Tag0,unknown
1605701321898,200,52,1.142578125E-5,0,0,0,1205166,157430,16755161,31018,11373,9118,16309,5455,Tag0,unknown
1605701321913,200,87,1.91162109375E-5,0,0,0,1205166,157430,16755161,31018,11373,9118,16309,5455,Tag0,unknown
1605701321937,200,-345,-7.58056640625E-5,0,0,0,1205166,157430,16755161,31018,11373,9118,16309,5455,Tag0,unknown
1605701321949,200,62,1.3623046875E-5,0,0,0,1205166,157430,16755161,31018,11373,9118,16309,5455,Tag0,unknown
1605701321959,200,-79,-1.7358398437500003E-5,0,0,0,1205166,157430,16755161,31018,11373,9118,16309,5455,Tag0,unknown
1605701321974,200,-315,-6.92138671875E-5,0,0,0,1205166,157430,16755161,31018,11373,9118,16309,5455,Tag0,unknown
1605701321984,200,104,2.28515625E-5,0,0,0,1205166,157430,16755161,31018,11373,9118,16309,5455,Tag0,unknown
1605701322007,200,-283,-6.218261718750001E-5,0,0,0,1205166,157430,16755161,31018,11373,9118,16309,5455,Tag0,unknown
1605701322017,200,-347,-7.62451171875E-5,0,0,0,1205166,157430,16755161,31018,11373,9118,16309,5455,Tag0,unknown
1605701322027,200,-76,-1.669921875E-5,0,0,0,1205166,157430,16755161,31018,11373,9118,16309,5455,Tag0,unknown
1605701322045,200,121,2.6586914062500003E-5,0,0,0,1205166,157430,16755161,31018,11373,9118,16309,5455,Tag0,unknown
1605701322065,200,-96,-2.109375E-5,0,0,0,1205166,157430,16755161,31018,11373,9118,16309,5455,Tag0,unknown
1605701322085,200,-103,-2.26318359375E-5,0,0,0,1205166,157430,16755161,31018,11373,9118,16309,5455,Tag0,unknown
1605701322098,200,101,2.2192382812500002E-5,0,0,0,864163,156798,29456,5042,9266,15691,16746359,8968,Tag0,unknown
1605701322113,200,35,7.6904296875E-6,0,0,0,864163,156798,29456,5042,9266,15691,16746359,8968,Tag0,unknown
1605701322132,200,100,2.197265625E-5,0,0,0,864163,156798,29456,5042,9266,15691,16746359,8968,Tag0,unknown
1605701322150,200,39,8.5693359375E-6,0,0,0,864163,156798,29456,5042,9266,15691,16746359,8968,Tag0,unknown
1605701322165,200,91,1.99951171875E-5,0,0,0,864163,156798,29456,5042,9266,15691,16746359,8968,Tag0,unknown
1605701322185,200,3,6.591796875E-7,0,0,0,864163,156798,29456,5042,9266,15691,16746359,8968,Tag0,unknown
1605701322198,200,123,2.70263671875E-5,0,0,0,864163,156798,29456,5042,9266,15691,16746359,8968,Tag0,unknown
1605701322219,200,21,4.614257812500001E-6,0,0,0,864163,156798,29456,5042,9266,15691,16746359,8968,Tag0,unknown
1605701322233,200,-6,-1.318359375E-6,0,0,0,864163,156798,29456,5042,9266,15691,16746359,8968,Tag0,unknown
1605701322243,200,24,5.2734375E-6,0,0,0,864163,156798,29456,5042,9266,15691,16746359,8968,Tag0,unknown
1605701322255,200,82,1.8017578124999998E-5,0,0,0,864163,156798,29456,5042,9266,15691,16746359,8968,Tag0,unknown
1605701322266,200,-61,-1.34033203125E-5,0,0,0,864163,156798,29456,5042,9266,15691,16746359,8968,Tag0,unknown
1605701322288,200,35,7.6904296875E-6,0,0,0,864163,156798,29456,5042,9266,15691,16746359,8968,Tag0,unknown
1605701322299,200,81,1.77978515625E-5,0,0,0,864163,156798,29456,5042,9266,15691,16746359,8968,Tag0,unknown
1605701322329,200,-128,-2.8125E-5,0,0,0,864163,156798,29456,5042,9266,15691,16746359,8968,Tag0,unknown
1605701322363,200,-589,-1.294189453125E-4,0,0,0,864163,156798,29456,5042,9266,15691,16746359,8968,Tag0,unknown
1605701322384,200,-405,-8.89892578125E-5,0,0,0,864163,156798,29456,5042,9266,15691,16746359,8968,Tag0,unknown
1605701322394,200,-555,-1.219482421875E-4,0,0,0,864163,156798,29456,5042,9266,15691,16746359,8968,Tag0,unknown
1605701322405,200,-211,-4.63623046875E-5,0,0,0,864163,156798,29456,5042,9266,15691,16746359,8968,Tag0,unknown
1605701322474,200,-343,-7.53662109375E-5,0,0,0,864163,156798,29456,5042,9266,15691,16746359,8968,Tag0,unknown
1605701322487,200,-129,-2.8344726562500002E-5,0,0,0,864163,156798,29456,5042,9266,15691,16746359,8968,Tag0,unknown
1605701322497,200,45,9.8876953125E-6,0,0,0,864163,156798,29456,5042,9266,15691,16746359,8968,Tag0,unknown
1605701322541,200,41,9.008789062499999E-6,0,0,0,864163,156798,29456,5042,9266,15691,16746359,8968,Tag0,unknown
1605701322552,200,101,2.2192382812500002E-5,0,0,0,864163,156798,29456,5042,9266,15691,16746359,8968,Tag0,unknown
1605701322609,200,48,1.0546875E-5,0,0,0,864163,156798,29456,5042,9266,15691,16746359,8968,Tag0,unknown
1605701322619,200,-83,-1.82373046875E-5,0,0,0,864163,156798,29456,5042,9266,15691,16746359,8968,Tag0,unknown
1605701322676,200,-48,-1.0546875E-5,0,0,0,864163,156798,29456,5042,9266,15691,16746359,8968,Tag0,unknown
1605701322687,200,-40,-8.7890625E-6,0,0,0,864163,156798,29456,5042,9266,15691,16746359,8968,Tag0,unknown
1605701322744,200,-43,-9.448242187500001E-6,0,0,0,864163,156798,29456,5042,9266,15691,16746359,8968,Tag0,unknown
1605701322754,200,317,6.96533203125E-5,0,0,0,864163,156798,29456,5042,9266,15691,16746359,8968,Tag0,unknown
1605701322811,200,-38,-8.349609375E-6,0,0,0,864163,156798,29456,5042,9266,15691,16746359,8968,Tag0,unknown
1605701322821,200,129,2.8344726562500002E-5,0,0,0,864163,156798,29456,5042,9266,15691,16746359,8968,Tag0,unknown
1605701322879,200,-41,-9.008789062499999E-6,0,0,0,864163,156798,29456,5042,9266,15691,16746359,8968,Tag0,unknown
1605701322889,200,283,6.218261718750001E-5,0,0,0,864163,156798,29456,5042,9266,15691,16746359,8968,Tag0,unknown
1605701322901,200,-128,-2.8125E-5,0,0,0,864163,156798,29456,5042,9266,15691,16746359,8968,Tag0,unknown
1605701322946,200,-116,-2.548828125E-5,0,0,0,864163,156798,29456,5042,9266,15691,16746359,8968,Tag0,unknown
1605701322956,200,-42,-9.228515625000002E-6,0,0,0,864163,156798,29456,5042,9266,15691,16746359,8968,Tag0,unknown
1605701323014,200,291,6.39404296875E-5,0,0,0,864163,156798,29456,5042,9266,15691,16746359,8968,Tag0,unknown
1605701323024,200,132,2.900390625E-5,0,0,0,864163,156798,29456,5042,9266,15691,16746359,8968,Tag0,unknown
1605701323049,200,-105,-2.30712890625E-5,0,0,0,864163,156798,29456,5042,9266,15691,16746359,8968,Tag0,unknown
1605701323059,200,-57,-1.2524414062500001E-5,0,0,0,864163,156798,29456,5042,9266,15691,16746359,8968,Tag0,unknown
1605701323069,200,49,1.07666015625E-5,0,0,0,864163,156798,29456,5042,9266,15691,16746359,8968,Tag0,unknown
1605701323079,200,-59,-1.29638671875E-5,0,0,0,864163,156798,29456,5042,9266,15691,16746359,8968,Tag0,unknown
1605701323089,200,-281,-6.17431640625E-5,0,0,0,864163,156798,29456,5042,9266,15691,16746359,8968,Tag0,unknown
1605701323099,200,138,3.0322265625E-5,0,0,0,864163,156798,29456,5042,9266,15691,16746359,8968,Tag0,unknown
1605701323113,200,356,7.822265625E-5,0,0,0,900441,522449,31262,25992,21473,19391,20074,15582,Tag0,unknown
1605701323143,200,-309,-6.78955078125E-5,0,0,0,900441,522449,31262,25992,21473,19391,20074,15582,Tag0,unknown
1605701323153,200,0,0.0,0,0,0,900441,522449,31262,25992,21473,19391,20074,15582,Tag0,unknown
1605701323176,200,-807,-1.7731933593750001E-4,0,0,0,900441,522449,31262,25992,21473,19391,20074,15582,Tag0,unknown
1605701323187,200,-789,-1.7336425781250002E-4,0,0,0,900441,522449,31262,25992,21473,19391,20074,15582,Tag0,unknown
1605701323218,200,-345,-7.58056640625E-5,0,0,0,900441,522449,31262,25992,21473,19391,20074,15582,Tag0,unknown
1605701323238,200,54,1.1865234375000001E-5,0,0,0,900441,522449,31262,25992,21473,19391,20074,15582,Tag0,unknown
1605701323248,200,-561,-1.232666015625E-4,0,0,0,900441,522449,31262,25992,21473,19391,20074,15582,Tag0,unknown
1605701323261,200,-83,-1.82373046875E-5,0,0,0,900441,522449,31262,25992,21473,19391,20074,15582,Tag0,unknown
1605701323287,200,324,7.119140625E-5,0,0,0,900441,522449,31262,25992,21473,19391,20074,15582,Tag0,unknown
1605701323305,200,189,4.15283203125E-5,0,0,0,900441,522449,31262,25992,21473,19391,20074,15582,Tag0,unknown
1605701323315,200,-58,-1.2744140625E-5,0,0,0,900441,522449,31262,25992,21473,19391,20074,15582,Tag0,unknown
1605701323339,200,363,7.97607421875E-5,0,0,0,900441,522449,31262,25992,21473,19391,20074,15582,Tag0,unknown
1605701323359,200,59,1.29638671875E-5,0,0,0,900441,522449,31262,25992,21473,19391,20074,15582,Tag0,unknown
1605701323373,200,96,2.109375E-5,0,0,0,900441,522449,31262,25992,21473,19391,20074,15582,Tag0,unknown
1605701323383,200,1,2.197265625E-7,0,0,0,900441,522449,31262,25992,21473,19391,20074,15582,Tag0,unknown
1605701323395,200,-32,-7.03125E-6,0,0,0,900441,522449,31262,25992,21473,19391,20074,15582,Tag0,unknown
1605701323405,200,307,6.74560546875E-5,0,0,0,900441,522449,31262,25992,21473,19391,20074,15582,Tag0,unknown
1605701323432,200,118,2.5927734375E-5,0,0,0,900441,522449,31262,25992,21473,19391,20074,15582,Tag0,unknown
1605701323442,200,-31,-6.8115234375E-6,0,0,0,900441,522449,31262,25992,21473,19391,20074,15582,Tag0,unknown
1605701323469,200,-90,-1.9775390625E-5,0,0,0,900441,522449,31262,25992,21473,19391,20074,15582,Tag0,unknown
1605701323490,200,92,2.021484375E-5,0,0,0,900441,522449,31262,25992,21473,19391,20074,15582,Tag0,unknown
1605701323508,200,58,1.2744140625E-5,0,0,0,900441,522449,31262,25992,21473,19391,20074,15582,Tag0,unknown
1605701323518,200,-274,-6.0205078124999997E-5,0,0,0,900441,522449,31262,25992,21473,19391,20074,15582,Tag0,unknown
1605701323528,200,-36,-7.91015625E-6,0,0,0,900441,522449,31262,25992,21473,19391,20074,15582,Tag0,unknown
1605701323544,200,-261,-5.73486328125E-5,0,0,0,900441,522449,31262,25992,21473,19391,20074,15582,Tag0,unknown
1605701323575,200,-325,-7.14111328125E-5,0,0,0,900441,522449,31262,25992,21473,19391,20074,15582,Tag0,unknown
1605701323588,200,-282,-6.1962890625E-5,0,0,0,900441,522449,31262,25992,21473,19391,20074,15582,Tag0,unknown
1605701323598,200,92,2.021484375E-5,0,0,0,900441,522449,31262,25992,21473,19391,20074,15582,Tag0,unknown
1605701323615,200,5,1.0986328125E-6,0,0,0,900441,522449,31262,25992,21473,19391,20074,15582,Tag0,unknown
1605701323625,200,-267,-5.86669921875E-5,0,0,0,900441,522449,31262,25992,21473,19391,20074,15582,Tag0,unknown
1605701323648,200,-346,-7.6025390625E-5,0,0,0,900441,522449,31262,25992,21473,19391,20074,15582,Tag0,unknown
1605701323658,200,-278,-6.108398437500001E-5,0,0,0,900441,522449,31262,25992,21473,19391,20074,15582,Tag0,unknown
1605701323668,200,-295,-6.48193359375E-5,0,0,0,900441,522449,31262,25992,21473,19391,20074,15582,Tag0,unknown
1605701323687,200,-155,-3.40576171875E-5,0,0,0,900441,522449,31262,25992,21473,19391,20074,15582,Tag0,unknown
1605701323706,200,-148,-3.251953125E-5,0,0,0,900441,522449,31262,25992,21473,19391,20074,15582,Tag0,unknown
1605701323723,200,-371,-8.151855468750001E-5,0,0,0,900441,522449,31262,25992,21473,19391,20074,15582,Tag0,unknown
1605701323742,200,-321,-7.053222656250001E-5,0,0,0,900441,522449,31262,25992,21473,19391,20074,15582,Tag0,unknown
1605701323752,200,-133,-2.92236328125E-5,0,0,0,900441,522449,31262,25992,21473,19391,20074,15582,Tag0,unknown
1605701323764,200,-298,-6.5478515625E-5,0,0,0,900441,522449,31262,25992,21473,19391,20074,15582,Tag0,unknown
1605701323774,200,-293,-6.43798828125E-5,0,0,0,900441,522449,31262,25992,21473,19391,20074,15582,Tag0,unknown
1605701323795,200,103,2.26318359375E-5,0,0,0,900441,522449,31262,25992,21473,19391,20074,15582,Tag0,unknown
1605701323806,200,32,7.03125E-6,0,0,0,900441,522449,31262,25992,21473,19391,20074,15582,Tag0,unknown
1605701323832,200,87,1.91162109375E-5,0,0,0,900441,522449,31262,25992,21473,19391,20074,15582,Tag0,unknown
1605701323842,200,-261,-5.73486328125E-5,0,0,0,900441,522449,31262,25992,21473,19391,20074,15582,Tag0,unknown
1605701323866,200,-259,-5.69091796875E-5,0,0,0,900441,522449,31262,25992,21473,19391,20074,15582,Tag0,unknown
1605701323876,200,5,1.0986328125E-6,0,0,0,900441,522449,31262,25992,21473,19391,20074,15582,Tag0,unknown
1605701323908,200,133,2.92236328125E-5,0,0,0,900441,522449,31262,25992,21473,19391,20074,15582,Tag0,unknown
1605701323925,200,290,6.3720703125E-5,0,0,0,900441,522449,31262,25992,21473,19391,20074,15582,Tag0,unknown
1605701323942,200,-69,-1.51611328125E-5,0,0,0,900441,522449,31262,25992,21473,19391,20074,15582,Tag0,unknown
1605701323964,200,300,6.591796875E-5,0,0,0,900441,522449,31262,25992,21473,19391,20074,15582,Tag0,unknown
1605701323974,200,321,7.053222656250001E-5,0,0,0,900441,522449,31262,25992,21473,19391,20074,15582,Tag0,unknown
1605701323996,200,258,5.6689453125000004E-5,0,0,0,900441,522449,31262,25992,21473,19391,20074,15582,Tag0,unknown
1605701324013,200,316,6.943359375000001E-5,0,0,0,900441,522449,31262,25992,21473,19391,20074,15582,Tag0,unknown
1605701324024,200,291,6.39404296875E-5,0,0,0,900441,522449,31262,25992,21473,19391,20074,15582,Tag0,unknown
1605701324052,200,-88,-1.93359375E-5,0,0,0,900441,522449,31262,25992,21473,19391,20074,15582,Tag0,unknown
1605701324062,200,-346,-7.6025390625E-5,0,0,0,900441,522449,31262,25992,21473,19391,20074,15582,Tag0,unknown
1605701324074,200,91,1.99951171875E-5,0,0,0,900441,522449,31262,25992,21473,19391,20074,15582,Tag0,unknown
1605701324096,200,71,1.56005859375E-5,0,0,0,555725,16770325,11733,7776,10665,7932,5312,2941,Tag0,unknown
1605701324119,200,-91,-1.99951171875E-5,0,0,0,555725,16770325,11733,7776,10665,7932,5312,2941,Tag0,unknown
1605701324129,200,291,6.39404296875E-5,0,0,0,555725,16770325,11733,7776,10665,7932,5312,2941,Tag0,unknown
1605701324153,200,93,2.04345703125E-5,0,0,0,555725,16770325,11733,7776,10665,7932,5312,2941,Tag0,unknown
1605701324163,200,265,5.82275390625E-5,0,0,0,555725,16770325,11733,7776,10665,7932,5312,2941,Tag0,unknown
1605701324191,200,-133,-2.92236328125E-5,0,0,0,555725,16770325,11733,7776,10665,7932,5312,2941,Tag0,unknown
1605701324226,200,-322,-7.0751953125E-5,0,0,0,555725,16770325,11733,7776,10665,7932,5312,2941,Tag0,unknown
1605701324244,200,21,4.614257812500001E-6,0,0,0,555725,16770325,11733,7776,10665,7932,5312,2941,Tag0,unknown
1605701324254,200,-309,-6.78955078125E-5,0,0,0,555725,16770325,11733,7776,10665,7932,5312,2941,Tag0,unknown
1605701324265,200,-315,-6.92138671875E-5,0,0,0,555725,16770325,11733,7776,10665,7932,5312,2941,Tag0,unknown
1605701324275,200,-340,-7.470703125E-5,0,0,0,555725,16770325,11733,7776,10665,7932,5312,2941,Tag0,unknown
1605701324298,200,-323,-7.09716796875E-5,0,0,0,555725,16770325,11733,7776,10665,7932,5312,2941,Tag0,unknown
1605701324309,200,-328,-7.207031249999999E-5,0,0,0,555725,16770325,11733,7776,10665,7932,5312,2941,Tag0,unknown
1605701324319,200,21,4.614257812500001E-6,0,0,0,555725,16770325,11733,7776,10665,7932,5312,2941,Tag0,unknown
1605701324335,200,125,2.74658203125E-5,0,0,0,555725,16770325,11733,7776,10665,7932,5312,2941,Tag0,unknown
1605701324345,200,117,2.5708007812499998E-5,0,0,0,555725,16770325,11733,7776,10665,7932,5312,2941,Tag0,unknown
1605701324368,200,61,1.34033203125E-5,0,0,0,555725,16770325,11733,7776,10665,7932,5312,2941,Tag0,unknown
1605701324378,200,109,2.39501953125E-5,0,0,0,555725,16770325,11733,7776,10665,7932,5312,2941,Tag0,unknown
1605701324393,200,69,1.51611328125E-5,0,0,0,555725,16770325,11733,7776,10665,7932,5312,2941,Tag0,unknown
1605701324414,200,-101,-2.2192382812500002E-5,0,0,0,555725,16770325,11733,7776,10665,7932,5312,2941,Tag0,unknown
1605701324447,200,-62,-1.3623046875E-5,0,0,0,555725,16770325,11733,7776,10665,7932,5312,2941,Tag0,unknown
1605701324459,200,275,6.04248046875E-5,0,0,0,555725,16770325,11733,7776,10665,7932,5312,2941,Tag0,unknown
1605701324497,200,-46,-1.0107421875E-5,0,0,0,555725,16770325,11733,7776,10665,7932,5312,2941,Tag0,unknown
1605701324510,200,268,5.8886718750000006E-5,0,0,0,555725,16770325,11733,7776,10665,7932,5312,2941,Tag0,unknown
1605701324520,200,73,1.6040039062500002E-5,0,0,0,555725,16770325,11733,7776,10665,7932,5312,2941,Tag0,unknown
1605701324536,200,58,1.2744140625E-5,0,0,0,555725,16770325,11733,7776,10665,7932,5312,2941,Tag0,unknown
1605701324546,200,81,1.77978515625E-5,0,0,0,555725,16770325,11733,7776,10665,7932,5312,2941,Tag0,unknown
1605701324569,200,99,2.1752929687500003E-5,0,0,0,555725,16770325,11733,7776,10665,7932,5312,2941,Tag0,unknown
1605701324579,200,-56,-1.23046875E-5,0,0,0,555725,16770325,11733,7776,10665,7932,5312,2941,Tag0,unknown
1605701324589,200,35,7.6904296875E-6,0,0,0,555725,16770325,11733,7776,10665,7932,5312,2941,Tag0,unknown
1605701324605,200,120,2.63671875E-5,0,0,0,555725,16770325,11733,7776,10665,7932,5312,2941,Tag0,unknown
1605701324615,200,12,2.63671875E-6,0,0,0,555725,16770325,11733,7776,10665,7932,5312,2941,Tag0,unknown
1605701324638,200,-88,-1.93359375E-5,0,0,0,555725,16770325,11733,7776,10665,7932,5312,2941,Tag0,unknown
1605701324648,200,-263,-5.7788085937500005E-5,0,0,0,555725,16770325,11733,7776,10665,7932,5312,2941,Tag0,unknown
1605701324675,200,93,2.04345703125E-5,0,0,0,555725,16770325,11733,7776,10665,7932,5312,2941,Tag0,unknown
1605701324695,200,-277,-6.0864257812500005E-5,0,0,0,555725,16770325,11733,7776,10665,7932,5312,2941,Tag0,unknown
1605701324712,200,-69,-1.51611328125E-5,0,0,0,555725,16770325,11733,7776,10665,7932,5312,2941,Tag0,unknown
1605701324729,200,119,2.6147460937500004E-5,0,0,0,555725,16770325,11733,7776,10665,7932,5312,2941,Tag0,unknown
1605701324739,200,-291,-6.39404296875E-5,0,0,0,555725,16770325,11733,7776,10665,7932,5312,2941,Tag0,unknown
1605701324750,200,65,1.42822265625E-5,0,0,0,555725,16770325,11733,7776,10665,7932,5312,2941,Tag0,unknown
1605701324761,200,-74,-1.6259765625E-5,0,0,0,555725,16770325,11733,7776,10665,7932,5312,2941,Tag0,unknown
1605701324784,200,70,1.5380859375E-5,0,0,0,555725,16770325,11733,7776,10665,7932,5312,2941,Tag0,unknown
1605701324796,200,-78,-1.7138671875E-5,0,0,0,555725,16770325,11733,7776,10665,7932,5312,2941,Tag0,unknown
1605701324806,200,61,1.34033203125E-5,0,0,0,555725,16770325,11733,7776,10665,7932,5312,2941,Tag0,unknown
1605701324827,200,0,0.0,0,0,0,555725,16770325,11733,7776,10665,7932,5312,2941,Tag0,unknown
1605701324860,200,96,2.109375E-5,0,0,0,555725,16770325,11733,7776,10665,7932,5312,2941,Tag0,unknown
1605701324880,200,-92,-2.021484375E-5,0,0,0,555725,16770325,11733,7776,10665,7932,5312,2941,Tag0,unknown
1605701324890,200,100,2.197265625E-5,0,0,0,555725,16770325,11733,7776,10665,7932,5312,2941,Tag0,unknown
1605701324903,200,309,6.78955078125E-5,0,0,0,555725,16770325,11733,7776,10665,7932,5312,2941,Tag0,unknown
1605701324930,200,-298,-6.5478515625E-5,0,0,0,555725,16770325,11733,7776,10665,7932,5312,2941,Tag0,unknown
1605701324946,200,-323,-7.09716796875E-5,0,0,0,555725,16770325,11733,7776,10665,7932,5312,2941,Tag0,unknown
1605701324967,200,-268,-5.8886718750000006E-5,0,0,0,555725,16770325,11733,7776,10665,7932,5312,2941,Tag0,unknown
1605701324979,200,-340,-7.470703125E-5,0,0,0,555725,16770325,11733,7776,10665,7932,5312,2941,Tag0,unknown
1605701325002,200,-324,-7.119140625E-5,0,0,0,555725,16770325,11733,7776,10665,7932,5312,2941,Tag0,unknown
1605701325014,200,-269,-5.9106445312499996E-5,0,0,0,555725,16770325,11733,7776,10665,7932,5312,2941,Tag0,unknown
1605701325024,200,-354,-7.778320312500001E-5,0,0,0,555725,16770325,11733,7776,10665,7932,5312,2941,Tag0,unknown
1605701325041,200,-181,-3.9770507812500004E-5,0,0,0,555725,16770325,11733,7776,10665,7932,5312,2941,Tag0,unknown
1605701325051,200,-164,-3.6035156249999995E-5,0,0,0,555725,16770325,11733,7776,10665,7932,5312,2941,Tag0,unknown
1605701325064,200,-345,-7.58056640625E-5,0,0,0,555725,16770325,11733,7776,10665,7932,5312,2941,Tag0,unknown
1605701325089,200,-531,-1.1667480468750001E-4,0,0,0,600418,72152,66545,18639,16747591,17093,9609,16497,Tag0,unknown
1605701325110,200,-285,-6.26220703125E-5,0,0,0,600418,72152,66545,18639,16747591,17093,9609,16497,Tag0,unknown
1605701325130,200,-356,-7.822265625E-5,0,0,0,600418,72152,66545,18639,16747591,17093,9609,16497,Tag0,unknown
1605701325146,200,-278,-6.108398437500001E-5,0,0,0,600418,72152,66545,18639,16747591,17093,9609,16497,Tag0,unknown
1605701325165,200,125,2.74658203125E-5,0,0,0,600418,72152,66545,18639,16747591,17093,9609,16497,Tag0,unknown
1605701325182,200,267,5.86669921875E-5,0,0,0,600418,72152,66545,18639,16747591,17093,9609,16497,Tag0,unknown
1605701325198,200,89,1.95556640625E-5,0,0,0,600418,72152,66545,18639,16747591,17093,9609,16497,Tag0,unknown
1605701325218,200,-105,-2.30712890625E-5,0,0,0,600418,72152,66545,18639,16747591,17093,9609,16497,Tag0,unknown
1605701325231,200,19,4.1748046875E-6,0,0,0,600418,72152,66545,18639,16747591,17093,9609,16497,Tag0,unknown
1605701325241,200,-107,-2.35107421875E-5,0,0,0,600418,72152,66545,18639,16747591,17093,9609,16497,Tag0,unknown
1605701325253,200,60,1.318359375E-5,0,0,0,600418,72152,66545,18639,16747591,17093,9609,16497,Tag0,unknown
1605701325263,200,39,8.5693359375E-6,0,0,0,600418,72152,66545,18639,16747591,17093,9609,16497,Tag0,unknown
1605701325286,200,69,1.51611328125E-5,0,0,0,600418,72152,66545,18639,16747591,17093,9609,16497,Tag0,unknown
1605701325299,200,70,1.5380859375E-5,0,0,0,600418,72152,66545,18639,16747591,17093,9609,16497,Tag0,unknown
1605701325309,200,-305,-6.70166015625E-5,0,0,0,600418,72152,66545,18639,16747591,17093,9609,16497,Tag0,unknown
1605701325322,200,-336,-7.382812500000001E-5,0,0,0,600418,72152,66545,18639,16747591,17093,9609,16497,Tag0,unknown
1605701325332,200,37,8.1298828125E-6,0,0,0,600418,72152,66545,18639,16747591,17093,9609,16497,Tag0,unknown
1605701325356,200,53,1.1645507812500002E-5,0,0,0,600418,72152,66545,18639,16747591,17093,9609,16497,Tag0,unknown
1605701325366,200,107,2.35107421875E-5,0,0,0,600418,72152,66545,18639,16747591,17093,9609,16497,Tag0,unknown
1605701325383,200,-281,-6.17431640625E-5,0,0,0,600418,72152,66545,18639,16747591,17093,9609,16497,Tag0,unknown
1605701325401,200,121,2.6586914062500003E-5,0,0,0,600418,72152,66545,18639,16747591,17093,9609,16497,Tag0,unknown
1605701325430,200,58,1.2744140625E-5,0,0,0,600418,72152,66545,18639,16747591,17093,9609,16497,Tag0,unknown
1605701325450,200,93,2.04345703125E-5,0,0,0,600418,72152,66545,18639,16747591,17093,9609,16497,Tag0,unknown
1605701325460,200,72,1.58203125E-5,0,0,0,600418,72152,66545,18639,16747591,17093,9609,16497,Tag0,unknown
1605701325473,200,-105,-2.30712890625E-5,0,0,0,600418,72152,66545,18639,16747591,17093,9609,16497,Tag0,unknown
1605701325507,200,-84,-1.8457031250000004E-5,0,0,0,600418,72152,66545,18639,16747591,17093,9609,16497,Tag0,unknown
1605701325517,200,75,1.64794921875E-5,0,0,0,600418,72152,66545,18639,16747591,17093,9609,16497,Tag0,unknown
1605701325527,200,289,6.35009765625E-5,0,0,0,600418,72152,66545,18639,16747591,17093,9609,16497,Tag0,unknown
1605701325542,200,-381,-8.371582031250001E-5,0,0,0,600418,72152,66545,18639,16747591,17093,9609,16497,Tag0,unknown
1605701325576,200,-117,-2.5708007812499998E-5,0,0,0,600418,72152,66545,18639,16747591,17093,9609,16497,Tag0,unknown
1605701325586,200,-98,-2.1533203125E-5,0,0,0,600418,72152,66545,18639,16747591,17093,9609,16497,Tag0,unknown
1605701325599,200,-105,-2.30712890625E-5,0,0,0,600418,72152,66545,18639,16747591,17093,9609,16497,Tag0,unknown
1605701325616,200,-45,-9.8876953125E-6,0,0,0,600418,72152,66545,18639,16747591,17093,9609,16497,Tag0,unknown
1605701325650,200,-276,-6.064453125E-5,0,0,0,600418,72152,66545,18639,16747591,17093,9609,16497,Tag0,unknown
1605701325666,200,-326,-7.163085937500001E-5,0,0,0,600418,72152,66545,18639,16747591,17093,9609,16497,Tag0,unknown
1605701325690,200,4,8.7890625E-7,0,0,0,600418,72152,66545,18639,16747591,17093,9609,16497,Tag0,unknown
1605701325700,200,-347,-7.62451171875E-5,0,0,0,600418,72152,66545,18639,16747591,17093,9609,16497,Tag0,unknown
1605701325731,200,-120,-2.63671875E-5,0,0,0,600418,72152,66545,18639,16747591,17093,9609,16497,Tag0,unknown
1605701325751,200,117,2.5708007812499998E-5,0,0,0,600418,72152,66545,18639,16747591,17093,9609,16497,Tag0,unknown
1605701325761,200,-121,-2.6586914062500003E-5,0,0,0,600418,72152,66545,18639,16747591,17093,9609,16497,Tag0,unknown
1605701325777,200,263,5.7788085937500005E-5,0,0,0,600418,72152,66545,18639,16747591,17093,9609,16497,Tag0,unknown
1605701325787,200,-111,-2.43896484375E-5,0,0,0,600418,72152,66545,18639,16747591,17093,9609,16497,Tag0,unknown
1605701325815,200,-297,-6.525878906250001E-5,0,0,0,600418,72152,66545,18639,16747591,17093,9609,16497,Tag0,unknown
1605701325835,200,-315,-6.92138671875E-5,0,0,0,600418,72152,66545,18639,16747591,17093,9609,16497,Tag0,unknown
1605701325852,200,118,2.5927734375E-5,0,0,0,600418,72152,66545,18639,16747591,17093,9609,16497,Tag0,unknown
1605701325868,200,7,1.5380859375E-6,0,0,0,600418,72152,66545,18639,16747591,17093,9609,16497,Tag0,unknown
1605701325878,200,-259,-5.69091796875E-5,0,0,0,600418,72152,66545,18639,16747591,17093,9609,16497,Tag0,unknown
1605701325890,200,66,1.4501953125E-5,0,0,0,600418,72152,66545,18639,16747591,17093,9609,16497,Tag0,unknown
1605701325902,200,113,2.48291015625E-5,0,0,0,600418,72152,66545,18639,16747591,17093,9609,16497,Tag0,unknown
1605701325912,200,42,9.228515625000002E-6,0,0,0,600418,72152,66545,18639,16747591,17093,9609,16497,Tag0,unknown
1605701325923,200,39,8.5693359375E-6,0,0,0,600418,72152,66545,18639,16747591,17093,9609,16497,Tag0,unknown
1605701325934,200,121,2.6586914062500003E-5,0,0,0,600418,72152,66545,18639,16747591,17093,9609,16497,Tag0,unknown
1605701325956,200,19,4.1748046875E-6,0,0,0,600418,72152,66545,18639,16747591,17093,9609,16497,Tag0,unknown
1605701325968,200,9,1.9775390625E-6,0,0,0,600418,72152,66545,18639,16747591,17093,9609,16497,Tag0,unknown
1605701325990,200,13,2.8564453125E-6,0,0,0,600418,72152,66545,18639,16747591,17093,9609,16497,Tag0,unknown
1605701326002,200,8,1.7578125E-6,0,0,0,600418,72152,66545,18639,16747591,17093,9609,16497,Tag0,unknown
1605701326012,200,-285,-6.26220703125E-5,0,0,0,600418,72152,66545,18639,16747591,17093,9609,16497,Tag0,unknown
1605701326030,200,8,1.7578125E-6,0,0,0,600418,72152,66545,18639,16747591,17093,9609,16497,Tag0,unknown
1605701326040,200,-365,-8.02001953125E-5,0,0,0,600418,72152,66545,18639,16747591,17093,9609,16497,Tag0,unknown
1605701326064,200,-340,-7.470703125E-5,0,0,0,600418,72152,66545,18639,16747591,17093,9609,16497,Tag0,unknown
1605701326074,200,-193,-4.2407226562500005E-5,0,0,0,600418,72152,66545,18639,16747591,17093,9609,16497,Tag0,unknown
1605701326084,200,-345,-7.58056640625E-5,0,0,0,1697849,111627,4336,17898,9831,17135,3260,6075,Tag0,unknown
1605701326105,200,-265,-5.82275390625E-5,0,0,0,1697849,111627,4336,17898,9831,17135,3260,6075,Tag0,unknown
1605701326119,200,18,3.955078125E-6,0,0,0,1697849,111627,4336,17898,9831,17135,3260,6075,Tag0,unknown
1605701326129,200,-129,-2.8344726562500002E-5,0,0,0,1697849,111627,4336,17898,9831,17135,3260,6075,Tag0,unknown
1605701326142,200,-300,-6.591796875E-5,0,0,0,1697849,111627,4336,17898,9831,17135,3260,6075,Tag0,unknown
1605701326152,200,-284,-6.240234375E-5,0,0,0,1697849,111627,4336,17898,9831,17135,3260,6075,Tag0,unknown
1605701326176,200,5,1.0986328125E-6,0,0,0,1697849,111627,4336,17898,9831,17135,3260,6075,Tag0,unknown
1605701326186,200,-289,-6.35009765625E-5,0,0,0,1697849,111627,4336,17898,9831,17135,3260,6075,Tag0,unknown
1605701326196,200,-259,-5.69091796875E-5,0,0,0,1697849,111627,4336,17898,9831,17135,3260,6075,Tag0,unknown
1605701326216,200,4,8.7890625E-7,0,0,0,1697849,111627,4336,17898,9831,17135,3260,6075,Tag0,unknown
1605701326235,200,110,2.4169921875E-5,0,0,0,1697849,111627,4336,17898,9831,17135,3260,6075,Tag0,unknown
1605701326253,200,-123,-2.70263671875E-5,0,0,0,1697849,111627,4336,17898,9831,17135,3260,6075,Tag0,unknown
1605701326269,200,83,1.82373046875E-5,0,0,0,1697849,111627,4336,17898,9831,17135,3260,6075,Tag0,unknown
1605701326289,200,-112,-2.4609375E-5,0,0,0,1697849,111627,4336,17898,9831,17135,3260,6075,Tag0,unknown
1605701326302,200,42,9.228515625000002E-6,0,0,0,1697849,111627,4336,17898,9831,17135,3260,6075,Tag0,unknown
1605701326323,200,26,5.712890625E-6,0,0,0,1697849,111627,4336,17898,9831,17135,3260,6075,Tag0,unknown
1605701326335,200,-126,-2.7685546875E-5,0,0,0,1697849,111627,4336,17898,9831,17135,3260,6075,Tag0,unknown
1605701326360,200,-121,-2.6586914062500003E-5,0,0,0,1697849,111627,4336,17898,9831,17135,3260,6075,Tag0,unknown
1605701326370,200,119,2.6147460937500004E-5,0,0,0,1697849,111627,4336,17898,9831,17135,3260,6075,Tag0,unknown
1605701326396,200,120,2.63671875E-5,0,0,0,1697849,111627,4336,17898,9831,17135,3260,6075,Tag0,unknown
1605701326406,200,-128,-2.8125E-5,0,0,0,1697849,111627,4336,17898,9831,17135,3260,6075,Tag0,unknown
1605701326416,200,41,9.008789062499999E-6,0,0,0,1697849,111627,4336,17898,9831,17135,3260,6075,Tag0,unknown
1605701326435,200,73,1.6040039062500002E-5,0,0,0,1697849,111627,4336,17898,9831,17135,3260,6075,Tag0,unknown
1605701326454,200,267,5.86669921875E-5,0,0,0,1697849,111627,4336,17898,9831,17135,3260,6075,Tag0,unknown
1605701326471,200,-293,-6.43798828125E-5,0,0,0,1697849,111627,4336,17898,9831,17135,3260,6075,Tag0,unknown
1605701326488,200,-84,-1.8457031250000004E-5,0,0,0,1697849,111627,4336,17898,9831,17135,3260,6075,Tag0,unknown
1605701326509,200,71,1.56005859375E-5,0,0,0,1697849,111627,4336,17898,9831,17135,3260,6075,Tag0,unknown
1605701326520,200,-3,-6.591796875E-7,0,0,0,1697849,111627,4336,17898,9831,17135,3260,6075,Tag0,unknown
1605701326542,200,-120,-2.63671875E-5,0,0,0,1697849,111627,4336,17898,9831,17135,3260,6075,Tag0,unknown
1605701326554,200,-74,-1.6259765625E-5,0,0,0,1697849,111627,4336,17898,9831,17135,3260,6075,Tag0,unknown
1605701326564,200,45,9.8876953125E-6,0,0,0,1697849,111627,4336,17898,9831,17135,3260,6075,Tag0,unknown
1605701326584,200,-127,-2.79052734375E-5,0,0,0,1697849,111627,4336,17898,9831,17135,3260,6075,Tag0,unknown
1605701326605,200,69,1.51611328125E-5,0,0,0,1697849,111627,4336,17898,9831,17135,3260,6075,Tag0,unknown
1605701326622,200,-107,-2.35107421875E-5,0,0,0,1697849,111627,4336,17898,9831,17135,3260,6075,Tag0,unknown
1605701326638,200,37,8.1298828125E-6,0,0,0,1697849,111627,4336,17898,9831,17135,3260,6075,Tag0,unknown
1605701326648,200,-95,-2.08740234375E-5,0,0,0,1697849,111627,4336,17898,9831,17135,3260,6075,Tag0,unknown
1605701326658,200,65,1.42822265625E-5,0,0,0,1697849,111627,4336,17898,9831,17135,3260,6075,Tag0,unknown
1605701326688,200,-276,-6.064453125E-5,0,0,0,1697849,111627,4336,17898,9831,17135,3260,6075,Tag0,unknown
1605701326704,200,-262,-5.7568359375E-5,0,0,0,1697849,111627,4336,17898,9831,17135,3260,6075,Tag0,unknown
1605701326714,200,-38,-8.349609375E-6,0,0,0,1697849,111627,4336,17898,9831,17135,3260,6075,Tag0,unknown
1605701326725,200,73,1.6040039062500002E-5,0,0,0,1697849,111627,4336,17898,9831,17135,3260,6075,Tag0,unknown
1605701326738,200,-43,-9.448242187500001E-6,0,0,0,1697849,111627,4336,17898,9831,17135,3260,6075,Tag0,unknown
1605701326760,200,-261,-5.73486328125E-5,0,0,0,1697849,111627,4336,17898,9831,17135,3260,6075,Tag0,unknown
1605701326773,200,-100,-2.197265625E-5,0,0,0,1697849,111627,4336,17898,9831,17135,3260,6075,Tag0,unknown
1605701326783,200,-274,-6.0205078124999997E-5,0,0,0,1697849,111627,4336,17898,9831,17135,3260,6075,Tag0,unknown
1605701326799,200,53,1.1645507812500002E-5,0,0,0,1697849,111627,4336,17898,9831,17135,3260,6075,Tag0,unknown
1605701326809,200,33,7.2509765625E-6,0,0,0,1697849,111627,4336,17898,9831,17135,3260,6075,Tag0,unknown
1605701326832,200,77,1.69189453125E-5,0,0,0,1697849,111627,4336,17898,9831,17135,3260,6075,Tag0,unknown
1605701326844,200,-269,-5.9106445312499996E-5,0,0,0,1697849,111627,4336,17898,9831,17135,3260,6075,Tag0,unknown
1605701326854,200,89,1.95556640625E-5,0,0,0,1697849,111627,4336,17898,9831,17135,3260,6075,Tag0,unknown
1605701326871,200,48,1.0546875E-5,0,0,0,1697849,111627,4336,17898,9831,17135,3260,6075,Tag0,unknown
1605701326888,200,-349,-7.668457031250001E-5,0,0,0,1697849,111627,4336,17898,9831,17135,3260,6075,Tag0,unknown
1605701326908,200,23,5.0537109375E-6,0,0,0,1697849,111627,4336,17898,9831,17135,3260,6075,Tag0,unknown
1605701326918,200,-328,-7.207031249999999E-5,0,0,0,1697849,111627,4336,17898,9831,17135,3260,6075,Tag0,unknown
1605701326928,200,-368,-8.0859375E-5,0,0,0,1697849,111627,4336,17898,9831,17135,3260,6075,Tag0,unknown
1605701326945,200,-297,-6.525878906250001E-5,0,0,0,1697849,111627,4336,17898,9831,17135,3260,6075,Tag0,unknown
1605701326960,200,-377,-8.28369140625E-5,0,0,0,1697849,111627,4336,17898,9831,17135,3260,6075,Tag0,unknown
1605701326978,200,-316,-6.943359375000001E-5,0,0,0,1697849,111627,4336,17898,9831,17135,3260,6075,Tag0,unknown
1605701326989,200,42,9.228515625000002E-6,0,0,0,1697849,111627,4336,17898,9831,17135,3260,6075,Tag0,unknown
1605701326999,200,51,1.1206054687499999E-5,0,0,0,1697849,111627,4336,17898,9831,17135,3260,6075,Tag0,unknown
1605701327016,200,21,4.614257812500001E-6,0,0,0,1697849,111627,4336,17898,9831,17135,3260,6075,Tag0,unknown
1605701327026,200,53,1.1645507812500002E-5,0,0,0,1697849,111627,4336,17898,9831,17135,3260,6075,Tag0,unknown
1605701327065,200,-311,-6.833496093750001E-5,0,0,0,1697849,111627,4336,17898,9831,17135,3260,6075,Tag0,unknown
1605701327075,200,-309,-6.78955078125E-5,0,0,0,1697849,111627,4336,17898,9831,17135,3260,6075,Tag0,unknown
1605701327085,200,-269,-5.9106445312499996E-5,0,0,0,576452,500556,189977,86074,91384,16770292,32258,16423,Tag0,unknown
1605701327101,200,-366,-8.0419921875E-5,0,0,0,576452,500556,189977,86074,91384,16770292,32258,16423,Tag0,unknown
1605701327111,200,-305,-6.70166015625E-5,0,0,0,576452,500556,189977,86074,91384,16770292,32258,16423,Tag0,unknown
1605701327131,200,113,2.48291015625E-5,0,0,0,576452,500556,189977,86074,91384,16770292,32258,16423,Tag0,unknown
1605701327141,200,113,2.48291015625E-5,0,0,0,576452,500556,189977,86074,91384,16770292,32258,16423,Tag0,unknown
1605701327165,200,-111,-2.43896484375E-5,0,0,0,576452,500556,189977,86074,91384,16770292,32258,16423,Tag0,unknown
1605701327175,200,-513,-1.127197265625E-4,0,0,0,576452,500556,189977,86074,91384,16770292,32258,16423,Tag0,unknown
1605701327202,200,91,1.99951171875E-5,0,0,0,576452,500556,189977,86074,91384,16770292,32258,16423,Tag0,unknown
1605701327212,200,-43,-9.448242187500001E-6,0,0,0,576452,500556,189977,86074,91384,16770292,32258,16423,Tag0,unknown
1605701327237,200,272,5.9765625000000004E-5,0,0,0,576452,500556,189977,86074,91384,16770292,32258,16423,Tag0,unknown
1605701327247,200,-21,-4.614257812500001E-6,0,0,0,576452,500556,189977,86074,91384,16770292,32258,16423,Tag0,unknown
1605701327257,200,283,6.218261718750001E-5,0,0,0,576452,500556,189977,86074,91384,16770292,32258,16423,Tag0,unknown
1605701327279,200,-94,-2.0654296875000002E-5,0,0,0,576452,500556,189977,86074,91384,16770292,32258,16423,Tag0,unknown
1605701327290,200,-21,-4.614257812500001E-6,0,0,0,576452,500556,189977,86074,91384,16770292,32258,16423,Tag0,unknown
1605701327314,200,122,2.6806640625E-5,0,0,0,576452,500556,189977,86074,91384,16770292,32258,16423,Tag0,unknown
1605701327326,200,-70,-1.5380859375E-5,0,0,0,576452,500556,189977,86074,91384,16770292,32258,16423,Tag0,unknown
1605701327336,200,257,5.64697265625E-5,0,0,0,576452,500556,189977,86074,91384,16770292,32258,16423,Tag0,unknown
1605701327350,200,-51,-1.1206054687499999E-5,0,0,0,576452,500556,189977,86074,91384,16770292,32258,16423,Tag0,unknown
1605701327360,200,67,1.4721679687500002E-5,0,0,0,576452,500556,189977,86074,91384,16770292,32258,16423,Tag0,unknown
1605701327384,200,333,7.316894531249999E-5,0,0,0,576452,500556,189977,86074,91384,16770292,32258,16423,Tag0,unknown
1605701327394,200,353,7.75634765625E-5,0,0,0,576452,500556,189977,86074,91384,16770292,32258,16423,Tag0,unknown
1605701327410,200,267,5.86669921875E-5,0,0,0,576452,500556,189977,86074,91384,16770292,32258,16423,Tag0,unknown
1605701327470,200,347,7.62451171875E-5,0,0,0,576452,500556,189977,86074,91384,16770292,32258,16423,Tag0,unknown
1605701327480,200,-118,-2.5927734375E-5,0,0,0,576452,500556,189977,86074,91384,16770292,32258,16423,Tag0,unknown
1605701327490,200,-94,-2.0654296875000002E-5,0,0,0,576452,500556,189977,86074,91384,16770292,32258,16423,Tag0,unknown
1605701327539,200,300,6.591796875E-5,0,0,0,576452,500556,189977,86074,91384,16770292,32258,16423,Tag0,unknown
1605701327562,200,-82,-1.8017578124999998E-5,0,0,0,576452,500556,189977,86074,91384,16770292,32258,16423,Tag0,unknown
1605701327573,200,-14,-3.076171875E-6,0,0,0,576452,500556,189977,86074,91384,16770292,32258,16423,Tag0,unknown
1605701327607,200,279,6.13037109375E-5,0,0,0,576452,500556,189977,86074,91384,16770292,32258,16423,Tag0,unknown
1605701327627,200,-85,-1.86767578125E-5,0,0,0,576452,500556,189977,86074,91384,16770292,32258,16423,Tag0,unknown
1605701327678,200,83,1.82373046875E-5,0,0,0,576452,500556,189977,86074,91384,16770292,32258,16423,Tag0,unknown
1605701327694,200,-322,-7.0751953125E-5,0,0,0,576452,500556,189977,86074,91384,16770292,32258,16423,Tag0,unknown
1605701327744,200,-316,-6.943359375000001E-5,0,0,0,576452,500556,189977,86074,91384,16770292,32258,16423,Tag0,unknown
1605701327764,200,-187,-4.10888671875E-5,0,0,0,576452,500556,189977,86074,91384,16770292,32258,16423,Tag0,unknown
1605701327811,200,123,2.70263671875E-5,0,0,0,576452,500556,189977,86074,91384,16770292,32258,16423,Tag0,unknown
1605701327828,200,-100,-2.197265625E-5,0,0,0,576452,500556,189977,86074,91384,16770292,32258,16423,Tag0,unknown
1605701327880,200,-317,-6.96533203125E-5,0,0,0,576452,500556,189977,86074,91384,16770292,32258,16423,Tag0,unknown
1605701327895,200,-275,-6.04248046875E-5,0,0,0,576452,500556,189977,86074,91384,16770292,32258,16423,Tag0,unknown
1605701327946,200,53,1.1645507812500002E-5,0,0,0,576452,500556,189977,86074,91384,16770292,32258,16423,Tag0,unknown
1605701327962,200,104,2.28515625E-5,0,0,0,576452,500556,189977,86074,91384,16770292,32258,16423,Tag0,unknown
1605701328019,200,-230,-5.0537109375E-5,0,0,0,576452,500556,189977,86074,91384,16770292,32258,16423,Tag0,unknown
1605701328029,200,18,3.955078125E-6,0,0,0,576452,500556,189977,86074,91384,16770292,32258,16423,Tag0,unknown
1605701328086,200,-356,-7.822265625E-5,0,0,0,576452,500556,189977,86074,91384,16770292,32258,16423,Tag0,unknown
1605701328096,200,301,6.613769531250001E-5,0,0,0,576452,500556,189977,86074,91384,16770292,32258,16423,Tag0,unknown
1605701328114,200,-263,-5.7788085937500005E-5,0,0,0,576452,500556,189977,86074,91384,16770292,32258,16423,Tag0,unknown
1605701328124,200,-634,-1.39306640625E-4,0,0,0,576452,500556,189977,86074,91384,16770292,32258,16423,Tag0,unknown
1605701328134,200,-285,-6.26220703125E-5,0,0,0,576452,500556,189977,86074,91384,16770292,32258,16423,Tag0,unknown
1605701328144,200,-550,-1.20849609375E-4,0,0,0,576452,500556,189977,86074,91384,16770292,32258,16423,Tag0,unknown
1605701328154,200,790,1.73583984375E-4,0,0,0,1392676,617923,163727,58145,133792,132116,133262,32251,Tag0,unknown
1605701328164,200,-61,-1.34033203125E-5,0,0,0,1392676,617923,163727,58145,133792,132116,133262,32251,Tag0,unknown
1605701328174,200,-139,-3.0541992187500004E-5,0,0,0,1392676,617923,163727,58145,133792,132116,133262,32251,Tag0,unknown
1605701328200,200,-356,-7.822265625E-5,0,0,0,1392676,617923,163727,58145,133792,132116,133262,32251,Tag0,unknown
1605701328214,200,-360,-7.91015625E-5,0,0,0,1392676,617923,163727,58145,133792,132116,133262,32251,Tag0,unknown
1605701328236,200,-353,-7.75634765625E-5,0,0,0,1392676,617923,163727,58145,133792,132116,133262,32251,Tag0,unknown
1605701328246,200,-199,-4.3725585937499995E-5,0,0,0,1392676,617923,163727,58145,133792,132116,133262,32251,Tag0,unknown
1605701328256,200,-598,-1.31396484375E-4,0,0,0,1392676,617923,163727,58145,133792,132116,133262,32251,Tag0,unknown
1605701328270,200,-246,-5.4052734375E-5,0,0,0,1392676,617923,163727,58145,133792,132116,133262,32251,Tag0,unknown
1605701328280,200,-533,-1.171142578125E-4,0,0,0,1392676,617923,163727,58145,133792,132116,133262,32251,Tag0,unknown
1605701328305,200,-318,-6.9873046875E-5,0,0,0,1392676,617923,163727,58145,133792,132116,133262,32251,Tag0,unknown
1605701328315,200,8,1.7578125E-6,0,0,0,1392676,617923,163727,58145,133792,132116,133262,32251,Tag0,unknown
1605701328325,200,5,1.0986328125E-6,0,0,0,1392676,617923,163727,58145,133792,132116,133262,32251,Tag0,unknown
1605701328337,200,-553,-1.215087890625E-4,0,0,0,1392676,617923,163727,58145,133792,132116,133262,32251,Tag0,unknown
1605701328347,200,36,7.91015625E-6,0,0,0,1392676,617923,163727,58145,133792,132116,133262,32251,Tag0,unknown
1605701328371,200,-165,-3.62548828125E-5,0,0,0,1392676,617923,163727,58145,133792,132116,133262,32251,Tag0,unknown
1605701328381,200,1,2.197265625E-7,0,0,0,1392676,617923,163727,58145,133792,132116,133262,32251,Tag0,unknown
1605701328405,200,-532,-1.1689453125E-4,0,0,0,1392676,617923,163727,58145,133792,132116,133262,32251,Tag0,unknown
1605701328415,200,3,6.591796875E-7,0,0,0,1392676,617923,163727,58145,133792,132116,133262,32251,Tag0,unknown
1605701328425,200,-833,-1.830322265625E-4,0,0,0,1392676,617923,163727,58145,133792,132116,133262,32251,Tag0,unknown
1605701328441,200,-813,-1.786376953125E-4,0,0,0,1392676,617923,163727,58145,133792,132116,133262,32251,Tag0,unknown
1605701328451,200,-247,-5.42724609375E-5,0,0,0,1392676,617923,163727,58145,133792,132116,133262,32251,Tag0,unknown
1605701328478,200,-331,-7.272949218750001E-5,0,0,0,1392676,617923,163727,58145,133792,132116,133262,32251,Tag0,unknown
1605701328497,200,11,2.4169921875E-6,0,0,0,1392676,617923,163727,58145,133792,132116,133262,32251,Tag0,unknown
1605701328507,200,-136,-2.9882812500000002E-5,0,0,0,1392676,617923,163727,58145,133792,132116,133262,32251,Tag0,unknown
1605701328518,200,-520,-1.142578125E-4,0,0,0,1392676,617923,163727,58145,133792,132116,133262,32251,Tag0,unknown
1605701328530,200,-787,-1.729248046875E-4,0,0,0,1392676,617923,163727,58145,133792,132116,133262,32251,Tag0,unknown
1605701328551,200,-710,-1.56005859375E-4,0,0,0,1392676,617923,163727,58145,133792,132116,133262,32251,Tag0,unknown
1605701328565,200,-1081,-2.375244140625E-4,0,0,0,1392676,617923,163727,58145,133792,132116,133262,32251,Tag0,unknown
1605701328575,200,-199,-4.3725585937499995E-5,0,0,0,1392676,617923,163727,58145,133792,132116,133262,32251,Tag0,unknown
1605701328589,200,-93,-2.04345703125E-5,0,0,0,1392676,617923,163727,58145,133792,132116,133262,32251,Tag0,unknown
1605701328599,200,499,1.096435546875E-4,0,0,0,1392676,617923,163727,58145,133792,132116,133262,32251,Tag0,unknown
1605701328623,200,854,1.8764648437500001E-4,0,0,0,1392676,617923,163727,58145,133792,132116,133262,32251,Tag0,unknown
1605701328633,200,817,1.7951660156250002E-4,0,0,0,1392676,617923,163727,58145,133792,132116,133262,32251,Tag0,unknown
1605701328643,200,425,9.33837890625E-5,0,0,0,1392676,617923,163727,58145,133792,132116,133262,32251,Tag0,unknown
1605701328658,200,135,2.96630859375E-5,0,0,0,1392676,617923,163727,58145,133792,132116,133262,32251,Tag0,unknown
1605701328668,200,323,7.09716796875E-5,0,0,0,1392676,617923,163727,58145,133792,132116,133262,32251,Tag0,unknown
1605701328692,200,67,1.4721679687500002E-5,0,0,0,1392676,617923,163727,58145,133792,132116,133262,32251,Tag0,unknown
1605701328702,200,-101,-2.2192382812500002E-5,0,0,0,1392676,617923,163727,58145,133792,132116,133262,32251,Tag0,unknown
1605701328716,200,72,1.58203125E-5,0,0,0,1392676,617923,163727,58145,133792,132116,133262,32251,Tag0,unknown
1605701328733,200,-56,-1.23046875E-5,0,0,0,1392676,617923,163727,58145,133792,132116,133262,32251,Tag0,unknown
1605701328749,200,129,2.8344726562500002E-5,0,0,0,1392676,617923,163727,58145,133792,132116,133262,32251,Tag0,unknown
1605701328769,200,76,1.669921875E-5,0,0,0,1392676,617923,163727,58145,133792,132116,133262,32251,Tag0,unknown
1605701328779,200,180,3.955078125E-5,0,0,0,1392676,617923,163727,58145,133792,132116,133262,32251,Tag0,unknown
1605701328789,200,-164,-3.6035156249999995E-5,0,0,0,1392676,617923,163727,58145,133792,132116,133262,32251,Tag0,unknown
1605701328807,200,-274,-6.0205078124999997E-5,0,0,0,1392676,617923,163727,58145,133792,132116,133262,32251,Tag0,unknown
1605701328817,200,-282,-6.1962890625E-5,0,0,0,1392676,617923,163727,58145,133792,132116,133262,32251,Tag0,unknown
1605701328841,200,23,5.0537109375E-6,0,0,0,1392676,617923,163727,58145,133792,132116,133262,32251,Tag0,unknown
1605701328851,200,87,1.91162109375E-5,0,0,0,1392676,617923,163727,58145,133792,132116,133262,32251,Tag0,unknown
1605701328881,200,355,7.80029296875E-5,0,0,0,1392676,617923,163727,58145,133792,132116,133262,32251,Tag0,unknown
1605701328901,200,149,3.27392578125E-5,0,0,0,1392676,617923,163727,58145,133792,132116,133262,32251,Tag0,unknown
1605701328918,200,215,4.72412109375E-5,0,0,0,1392676,617923,163727,58145,133792,132116,133262,32251,Tag0,unknown
1605701328933,200,192,4.21875E-5,0,0,0,1392676,617923,163727,58145,133792,132116,133262,32251,Tag0,unknown
1605701328952,200,279,6.13037109375E-5,0,0,0,1392676,617923,163727,58145,133792,132116,133262,32251,Tag0,unknown
1605701328966,200,184,4.04296875E-5,0,0,0,1392676,617923,163727,58145,133792,132116,133262,32251,Tag0,unknown
1605701328985,200,-91,-1.99951171875E-5,0,0,0,1392676,617923,163727,58145,133792,132116,133262,32251,Tag0,unknown
1605701329002,200,-91,-1.99951171875E-5,0,0,0,1392676,617923,163727,58145,133792,132116,133262,32251,Tag0,unknown
1605701329012,200,-215,-4.72412109375E-5,0,0,0,1392676,617923,163727,58145,133792,132116,133262,32251,Tag0,unknown
1605701329025,200,-237,-5.2075195312500004E-5,0,0,0,1392676,617923,163727,58145,133792,132116,133262,32251,Tag0,unknown
1605701329035,200,-513,-1.127197265625E-4,0,0,0,1392676,617923,163727,58145,133792,132116,133262,32251,Tag0,unknown
1605701329060,200,-391,-8.591308593750001E-5,0,0,0,1392676,617923,163727,58145,133792,132116,133262,32251,Tag0,unknown
1605701329070,200,-508,-1.1162109375E-4,0,0,0,1392676,617923,163727,58145,133792,132116,133262,32251,Tag0,unknown
1605701329080,200,-557,-1.223876953125E-4,0,0,0,448260,67289,16750831,8835,10501,14483,5734,5244,Tag0,unknown
1605701329097,200,-563,-1.237060546875E-4,0,0,0,448260,67289,16750831,8835,10501,14483,5734,5244,Tag0,unknown
1605701329117,200,-376,-8.261718750000001E-5,0,0,0,448260,67289,16750831,8835,10501,14483,5734,5244,Tag0,unknown
1605701329140,200,-153,-3.3618164062500004E-5,0,0,0,448260,67289,16750831,8835,10501,14483,5734,5244,Tag0,unknown
1605701329150,200,-232,-5.09765625E-5,0,0,0,448260,67289,16750831,8835,10501,14483,5734,5244,Tag0,unknown
1605701329174,200,-12,-2.63671875E-6,0,0,0,448260,67289,16750831,8835,10501,14483,5734,5244,Tag0,unknown
1605701329184,200,-119,-2.6147460937500004E-5,0,0,0,448260,67289,16750831,8835,10501,14483,5734,5244,Tag0,unknown
1605701329194,200,-148,-3.251953125E-5,0,0,0,448260,67289,16750831,8835,10501,14483,5734,5244,Tag0,unknown
1605701329210,200,-582,-1.27880859375E-4,0,0,0,448260,67289,16750831,8835,10501,14483,5734,5244,Tag0,unknown
1605701329220,200,-419,-9.206542968750001E-5,0,0,0,448260,67289,16750831,8835,10501,14483,5734,5244,Tag0,unknown
1605701329246,200,-637,-1.399658203125E-4,0,0,0,448260,67289,16750831,8835,10501,14483,5734,5244,Tag0,unknown
1605701329256,200,-877,-1.9270019531250003E-4,0,0,0,448260,67289,16750831,8835,10501,14483,5734,5244,Tag0,unknown
1605701329283,200,-755,-1.658935546875E-4,0,0,0,448260,67289,16750831,8835,10501,14483,5734,5244,Tag0,unknown
1605701329302,200,-489,-1.0744628906250001E-4,0,0,0,448260,67289,16750831,8835,10501,14483,5734,5244,Tag0,unknown
1605701329319,200,-547,-1.201904296875E-4,0,0,0,448260,67289,16750831,8835,10501,14483,5734,5244,Tag0,unknown
1605701329336,200,23,5.0537109375E-6,0,0,0,448260,67289,16750831,8835,10501,14483,5734,5244,Tag0,unknown
1605701329357,200,259,5.69091796875E-5,0,0,0,448260,67289,16750831,8835,10501,14483,5734,5244,Tag0,unknown
1605701329367,200,293,6.43798828125E-5,0,0,0,448260,67289,16750831,8835,10501,14483,5734,5244,Tag0,unknown
1605701329391,200,275,6.04248046875E-5,0,0,0,448260,67289,16750831,8835,10501,14483,5734,5244,Tag0,unknown
1605701329402,200,277,6.0864257812500005E-5,0,0,0,448260,67289,16750831,8835,10501,14483,5734,5244,Tag0,unknown
1605701329412,200,513,1.127197265625E-4,0,0,0,448260,67289,16750831,8835,10501,14483,5734,5244,Tag0,unknown
1605701329428,200,213,4.68017578125E-5,0,0,0,448260,67289,16750831,8835,10501,14483,5734,5244,Tag0,unknown
1605701329438,200,841,1.847900390625E-4,0,0,0,448260,67289,16750831,8835,10501,14483,5734,5244,Tag0,unknown
1605701329462,200,435,9.55810546875E-5,0,0,0,448260,67289,16750831,8835,10501,14483,5734,5244,Tag0,unknown
1605701329472,200,283,6.218261718750001E-5,0,0,0,448260,67289,16750831,8835,10501,14483,5734,5244,Tag0,unknown
1605701329486,200,324,7.119140625E-5,0,0,0,448260,67289,16750831,8835,10501,14483,5734,5244,Tag0,unknown
1605701329508,200,187,4.10888671875E-5,0,0,0,448260,67289,16750831,8835,10501,14483,5734,5244,Tag0,unknown
1605701329540,200,555,1.219482421875E-4,0,0,0,448260,67289,16750831,8835,10501,14483,5734,5244,Tag0,unknown
1605701329552,200,574,1.2612304687500001E-4,0,0,0,448260,67289,16750831,8835,10501,14483,5734,5244,Tag0,unknown
1605701329562,200,130,2.8564453125E-5,0,0,0,448260,67289,16750831,8835,10501,14483,5734,5244,Tag0,unknown
1605701329576,200,280,6.15234375E-5,0,0,0,448260,67289,16750831,8835,10501,14483,5734,5244,Tag0,unknown
1605701329587,200,150,3.2958984375E-5,0,0,0,448260,67289,16750831,8835,10501,14483,5734,5244,Tag0,unknown
1605701329618,200,-84,-1.8457031250000004E-5,0,0,0,448260,67289,16750831,8835,10501,14483,5734,5244,Tag0,unknown
1605701329637,200,-31,-6.8115234375E-6,0,0,0,448260,67289,16750831,8835,10501,14483,5734,5244,Tag0,unknown
1605701329647,200,-75,-1.64794921875E-5,0,0,0,448260,67289,16750831,8835,10501,14483,5734,5244,Tag0,unknown
1605701329657,200,-125,-2.74658203125E-5,0,0,0,448260,67289,16750831,8835,10501,14483,5734,5244,Tag0,unknown
1605701329669,200,75,1.64794921875E-5,0,0,0,448260,67289,16750831,8835,10501,14483,5734,5244,Tag0,unknown
1605701329700,200,1,2.197265625E-7,0,0,0,448260,67289,16750831,8835,10501,14483,5734,5244,Tag0,unknown
1605701329720,200,-325,-7.14111328125E-5,0,0,0,448260,67289,16750831,8835,10501,14483,5734,5244,Tag0,unknown
1605701329739,200,-135,-2.96630859375E-5,0,0,0,448260,67289,16750831,8835,10501,14483,5734,5244,Tag0,unknown
1605701329754,200,-201,-4.41650390625E-5,0,0,0,448260,67289,16750831,8835,10501,14483,5734,5244,Tag0,unknown
1605701329764,200,23,5.0537109375E-6,0,0,0,448260,67289,16750831,8835,10501,14483,5734,5244,Tag0,unknown
1605701329779,200,-195,-4.28466796875E-5,0,0,0,448260,67289,16750831,8835,10501,14483,5734,5244,Tag0,unknown
1605701329789,200,-183,-4.02099609375E-5,0,0,0,448260,67289,16750831,8835,10501,14483,5734,5244,Tag0,unknown
1605701329818,200,-573,-1.259033203125E-4,0,0,0,448260,67289,16750831,8835,10501,14483,5734,5244,Tag0,unknown
1605701329836,200,-198,-4.3505859375000006E-5,0,0,0,448260,67289,16750831,8835,10501,14483,5734,5244,Tag0,unknown
1605701329858,200,10,2.197265625E-6,0,0,0,448260,67289,16750831,8835,10501,14483,5734,5244,Tag0,unknown
1605701329868,200,-61,-1.34033203125E-5,0,0,0,448260,67289,16750831,8835,10501,14483,5734,5244,Tag0,unknown
1605701329878,200,-19,-4.1748046875E-6,0,0,0,448260,67289,16750831,8835,10501,14483,5734,5244,Tag0,unknown
1605701329892,200,-297,-6.525878906250001E-5,0,0,0,448260,67289,16750831,8835,10501,14483,5734,5244,Tag0,unknown
1605701329906,200,59,1.29638671875E-5,0,0,0,448260,67289,16750831,8835,10501,14483,5734,5244,Tag0,unknown
1605701329925,200,21,4.614257812500001E-6,0,0,0,448260,67289,16750831,8835,10501,14483,5734,5244,Tag0,unknown
1605701329939,200,-88,-1.93359375E-5,0,0,0,448260,67289,16750831,8835,10501,14483,5734,5244,Tag0,unknown
1605701329949,200,-51,-1.1206054687499999E-5,0,0,0,448260,67289,16750831,8835,10501,14483,5734,5244,Tag0,unknown
1605701329965,200,-117,-2.5708007812499998E-5,0,0,0,448260,67289,16750831,8835,10501,14483,5734,5244,Tag0,unknown
1605701329975,200,-88,-1.93359375E-5,0,0,0,448260,67289,16750831,8835,10501,14483,5734,5244,Tag0,unknown
1605701329997,200,136,2.9882812500000002E-5,0,0,0,448260,67289,16750831,8835,10501,14483,5734,5244,Tag0,unknown
1605701330007,200,-59,-1.29638671875E-5,0,0,0,448260,67289,16750831,8835,10501,14483,5734,5244,Tag0,unknown
1605701330021,200,123,2.70263671875E-5,0,0,0,448260,67289,16750831,8835,10501,14483,5734,5244,Tag0,unknown
1605701330043,200,-119,-2.6147460937500004E-5,0,0,0,448260,67289,16750831,8835,10501,14483,5734,5244,Tag0,unknown
1605701330056,200,50,1.0986328125E-5,0,0,0,448260,67289,16750831,8835,10501,14483,5734,5244,Tag0,unknown
1605701330066,200,-273,-5.998535156250001E-5,0,0,0,1183775,56282,14700,12684,8509,11639,4346,2255,Tag0,unknown
1605701330081,200,-587,-1.2897949218750003E-4,0,0,0,1183775,56282,14700,12684,8509,11639,4346,2255,Tag0,unknown
1605701330112,200,-547,-1.201904296875E-4,0,0,0,1183775,56282,14700,12684,8509,11639,4346,2255,Tag0,unknown
1605701330122,200,-187,-4.10888671875E-5,0,0,0,1183775,56282,14700,12684,8509,11639,4346,2255,Tag0,unknown
1605701330152,200,-340,-7.470703125E-5,0,0,0,1183775,56282,14700,12684,8509,11639,4346,2255,Tag0,unknown
1605701330172,200,-268,-5.8886718750000006E-5,0,0,0,1183775,56282,14700,12684,8509,11639,4346,2255,Tag0,unknown
1605701330189,200,37,8.1298828125E-6,0,0,0,1183775,56282,14700,12684,8509,11639,4346,2255,Tag0,unknown
1605701330207,200,-182,-3.9990234375E-5,0,0,0,1183775,56282,14700,12684,8509,11639,4346,2255,Tag0,unknown
1605701330224,200,-365,-8.02001953125E-5,0,0,0,1183775,56282,14700,12684,8509,11639,4346,2255,Tag0,unknown
1605701330240,200,-294,-6.4599609375E-5,0,0,0,1183775,56282,14700,12684,8509,11639,4346,2255,Tag0,unknown
1605701330261,200,-616,-1.353515625E-4,0,0,0,1183775,56282,14700,12684,8509,11639,4346,2255,Tag0,unknown
1605701330273,200,-143,-3.14208984375E-5,0,0,0,1183775,56282,14700,12684,8509,11639,4346,2255,Tag0,unknown
1605701330283,200,-236,-5.185546875E-5,0,0,0,1183775,56282,14700,12684,8509,11639,4346,2255,Tag0,unknown
1605701330298,200,-137,-3.0102539062499998E-5,0,0,0,1183775,56282,14700,12684,8509,11639,4346,2255,Tag0,unknown
1605701330308,200,-131,-2.87841796875E-5,0,0,0,1183775,56282,14700,12684,8509,11639,4346,2255,Tag0,unknown
1605701330332,200,107,2.35107421875E-5,0,0,0,1183775,56282,14700,12684,8509,11639,4346,2255,Tag0,unknown
1605701330342,200,121,2.6586914062500003E-5,0,0,0,1183775,56282,14700,12684,8509,11639,4346,2255,Tag0,unknown
1605701330352,200,177,3.8891601562500006E-5,0,0,0,1183775,56282,14700,12684,8509,11639,4346,2255,Tag0,unknown
1605701330368,200,189,4.15283203125E-5,0,0,0,1183775,56282,14700,12684,8509,11639,4346,2255,Tag0,unknown
1605701330378,200,347,7.62451171875E-5,0,0,0,1183775,56282,14700,12684,8509,11639,4346,2255,Tag0,unknown
1605701330403,200,302,6.6357421875E-5,0,0,0,1183775,56282,14700,12684,8509,11639,4346,2255,Tag0,unknown
1605701330413,200,281,6.17431640625E-5,0,0,0,1183775,56282,14700,12684,8509,11639,4346,2255,Tag0,unknown
1605701330424,200,261,5.73486328125E-5,0,0,0,1183775,56282,14700,12684,8509,11639,4346,2255,Tag0,unknown
1605701330444,200,21,4.614257812500001E-6,0,0,0,1183775,56282,14700,12684,8509,11639,4346,2255,Tag0,unknown
1605701330456,200,311,6.833496093750001E-5,0,0,0,1183775,56282,14700,12684,8509,11639,4346,2255,Tag0,unknown
1605701330478,200,379,8.32763671875E-5,0,0,0,1183775,56282,14700,12684,8509,11639,4346,2255,Tag0,unknown
1605701330491,200,514,1.12939453125E-4,0,0,0,1183775,56282,14700,12684,8509,11639,4346,2255,Tag0,unknown
1605701330501,200,570,1.25244140625E-4,0,0,0,1183775,56282,14700,12684,8509,11639,4346,2255,Tag0,unknown
1605701330515,200,193,4.2407226562500005E-5,0,0,0,1183775,56282,14700,12684,8509,11639,4346,2255,Tag0,unknown
1605701330525,200,331,7.272949218750001E-5,0,0,0,1183775,56282,14700,12684,8509,11639,4346,2255,Tag0,unknown
1605701330549,200,-109,-2.39501953125E-5,0,0,0,1183775,56282,14700,12684,8509,11639,4346,2255,Tag0,unknown
1605701330559,200,-57,-1.2524414062500001E-5,0,0,0,1183775,56282,14700,12684,8509,11639,4346,2255,Tag0,unknown
1605701330569,200,-593,-1.3029785156250002E-4,0,0,0,1183775,56282,14700,12684,8509,11639,4346,2255,Tag0,unknown
1605701330590,200,-153,-3.3618164062500004E-5,0,0,0,1183775,56282,14700,12684,8509,11639,4346,2255,Tag0,unknown
1605701330607,200,-117,-2.5708007812499998E-5,0,0,0,1183775,56282,14700,12684,8509,11639,4346,2255,Tag0,unknown
1605701330624,200,-340,-7.470703125E-5,0,0,0,1183775,56282,14700,12684,8509,11639,4346,2255,Tag0,unknown
1605701330642,200,-363,-7.97607421875E-5,0,0,0,1183775,56282,14700,12684,8509,11639,4346,2255,Tag0,unknown
1605701330652,200,-305,-6.70166015625E-5,0,0,0,1183775,56282,14700,12684,8509,11639,4346,2255,Tag0,unknown
1605701330662,200,65,1.42822265625E-5,0,0,0,1183775,56282,14700,12684,8509,11639,4346,2255,Tag0,unknown
1605701330675,200,35,7.6904296875E-6,0,0,0,1183775,56282,14700,12684,8509,11639,4346,2255,Tag0,unknown
1605701330695,200,85,1.86767578125E-5,0,0,0,1183775,56282,14700,12684,8509,11639,4346,2255,Tag0,unknown
1605701330708,200,-227,-4.98779296875E-5,0,0,0,1183775,56282,14700,12684,8509,11639,4346,2255,Tag0,unknown
1605701330718,200,-86,-1.8896484375000003E-5,0,0,0,1183775,56282,14700,12684,8509,11639,4346,2255,Tag0,unknown
1605701330736,200,-79,-1.7358398437500003E-5,0,0,0,1183775,56282,14700,12684,8509,11639,4346,2255,Tag0,unknown
1605701330746,200,264,5.80078125E-5,0,0,0,1183775,56282,14700,12684,8509,11639,4346,2255,Tag0,unknown
1605701330770,200,161,3.53759765625E-5,0,0,0,1183775,56282,14700,12684,8509,11639,4346,2255,Tag0,unknown
1605701330780,200,-194,-4.2626953125E-5,0,0,0,1183775,56282,14700,12684,8509,11639,4346,2255,Tag0,unknown
1605701330810,200,-1079,-2.3708496093750002E-4,0,0,0,1183775,56282,14700,12684,8509,11639,4346,2255,Tag0,unknown
1605701330827,200,-515,-1.131591796875E-4,0,0,0,1183775,56282,14700,12684,8509,11639,4346,2255,Tag0,unknown
1605701330844,200,-564,-1.2392578125E-4,0,0,0,1183775,56282,14700,12684,8509,11639,4346,2255,Tag0,unknown
1605701330860,200,-615,-1.351318359375E-4,0,0,0,1183775,56282,14700,12684,8509,11639,4346,2255,Tag0,unknown
1605701330870,200,-70,-1.5380859375E-5,0,0,0,1183775,56282,14700,12684,8509,11639,4346,2255,Tag0,unknown
1605701330897,200,-251,-5.5151367187500004E-5,0,0,0,1183775,56282,14700,12684,8509,11639,4346,2255,Tag0,unknown
1605701330908,200,-301,-6.613769531250001E-5,0,0,0,1183775,56282,14700,12684,8509,11639,4346,2255,Tag0,unknown
1605701330918,200,-490,-1.07666015625E-4,0,0,0,1183775,56282,14700,12684,8509,11639,4346,2255,Tag0,unknown
1605701330936,200,-227,-4.98779296875E-5,0,0,0,1183775,56282,14700,12684,8509,11639,4346,2255,Tag0,unknown
1605701330946,200,-185,-4.06494140625E-5,0,0,0,1183775,56282,14700,12684,8509,11639,4346,2255,Tag0,unknown
1605701330959,200,513,1.127197265625E-4,0,0,0,1183775,56282,14700,12684,8509,11639,4346,2255,Tag0,unknown
1605701330982,200,390,8.5693359375E-5,0,0,0,1183775,56282,14700,12684,8509,11639,4346,2255,Tag0,unknown
1605701330993,200,216,4.7460937500000004E-5,0,0,0,1183775,56282,14700,12684,8509,11639,4346,2255,Tag0,unknown
1605701331009,200,577,1.2678222656250002E-4,0,0,0,1183775,56282,14700,12684,8509,11639,4346,2255,Tag0,unknown
1605701331026,200,246,5.4052734375E-5,0,0,0,1183775,56282,14700,12684,8509,11639,4346,2255,Tag0,unknown
1605701331050,200,819,1.799560546875E-4,0,0,0,1183775,56282,14700,12684,8509,11639,4346,2255,Tag0,unknown
1605701331061,200,763,1.6765136718750002E-4,0,0,0,336698,92648,14537,28929,23100,5567,7860,17431,Tag0,unknown
1605701331090,200,813,1.786376953125E-4,0,0,0,336698,92648,14537,28929,23100,5567,7860,17431,Tag0,unknown
1605701331110,200,629,1.382080078125E-4,0,0,0,336698,92648,14537,28929,23100,5567,7860,17431,Tag0,unknown
1605701331127,200,769,1.689697265625E-4,0,0,0,336698,92648,14537,28929,23100,5567,7860,17431,Tag0,unknown
1605701331144,200,871,1.9138183593749998E-4,0,0,0,336698,92648,14537,28929,23100,5567,7860,17431,Tag0,unknown
1605701331163,200,557,1.223876953125E-4,0,0,0,336698,92648,14537,28929,23100,5567,7860,17431,Tag0,unknown
1605701331176,200,-107,-2.35107421875E-5,0,0,0,336698,92648,14537,28929,23100,5567,7860,17431,Tag0,unknown
1605701331196,200,227,4.98779296875E-5,0,0,0,336698,92648,14537,28929,23100,5567,7860,17431,Tag0,unknown
1605701331210,200,259,5.69091796875E-5,0,0,0,336698,92648,14537,28929,23100,5567,7860,17431,Tag0,unknown
1605701331220,200,329,7.229003906250001E-5,0,0,0,336698,92648,14537,28929,23100,5567,7860,17431,Tag0,unknown
1605701331238,200,-52,-1.142578125E-5,0,0,0,336698,92648,14537,28929,23100,5567,7860,17431,Tag0,unknown
1605701331248,200,272,5.9765625000000004E-5,0,0,0,336698,92648,14537,28929,23100,5567,7860,17431,Tag0,unknown
1605701331272,200,-39,-8.5693359375E-6,0,0,0,336698,92648,14537,28929,23100,5567,7860,17431,Tag0,unknown
1605701331282,200,55,1.20849609375E-5,0,0,0,336698,92648,14537,28929,23100,5567,7860,17431,Tag0,unknown
1605701331292,200,135,2.96630859375E-5,0,0,0,336698,92648,14537,28929,23100,5567,7860,17431,Tag0,unknown
1605701331309,200,125,2.74658203125E-5,0,0,0,336698,92648,14537,28929,23100,5567,7860,17431,Tag0,unknown
1605701331328,200,-71,-1.56005859375E-5,0,0,0,336698,92648,14537,28929,23100,5567,7860,17431,Tag0,unknown
1605701331346,200,-535,-1.175537109375E-4,0,0,0,336698,92648,14537,28929,23100,5567,7860,17431,Tag0,unknown
1605701331367,200,-198,-4.3505859375000006E-5,0,0,0,336698,92648,14537,28929,23100,5567,7860,17431,Tag0,unknown
1605701331384,200,-228,-5.0097656250000005E-5,0,0,0,336698,92648,14537,28929,23100,5567,7860,17431,Tag0,unknown
1605701331395,200,-173,-3.80126953125E-5,0,0,0,336698,92648,14537,28929,23100,5567,7860,17431,Tag0,unknown
1605701331411,200,-338,-7.426757812499999E-5,0,0,0,336698,92648,14537,28929,23100,5567,7860,17431,Tag0,unknown
1605701331432,200,99,2.1752929687500003E-5,0,0,0,336698,92648,14537,28929,23100,5567,7860,17431,Tag0,unknown
1605701331466,200,-263,-5.7788085937500005E-5,0,0,0,336698,92648,14537,28929,23100,5567,7860,17431,Tag0,unknown
1605701331478,200,-361,-7.93212890625E-5,0,0,0,336698,92648,14537,28929,23100,5567,7860,17431,Tag0,unknown
1605701331488,200,-374,-8.2177734375E-5,0,0,0,336698,92648,14537,28929,23100,5567,7860,17431,Tag0,unknown
1605701331504,200,119,2.6147460937500004E-5,0,0,0,336698,92648,14537,28929,23100,5567,7860,17431,Tag0,unknown
1605701331514,200,-243,-5.33935546875E-5,0,0,0,336698,92648,14537,28929,23100,5567,7860,17431,Tag0,unknown
1605701331537,200,-325,-7.14111328125E-5,0,0,0,336698,92648,14537,28929,23100,5567,7860,17431,Tag0,unknown
1605701331547,200,-265,-5.82275390625E-5,0,0,0,336698,92648,14537,28929,23100,5567,7860,17431,Tag0,unknown
1605701331561,200,-327,-7.18505859375E-5,0,0,0,336698,92648,14537,28929,23100,5567,7860,17431,Tag0,unknown
1605701331580,200,-357,-7.844238281250001E-5,0,0,0,336698,92648,14537,28929,23100,5567,7860,17431,Tag0,unknown
1605701331611,200,56,1.23046875E-5,0,0,0,336698,92648,14537,28929,23100,5567,7860,17431,Tag0,unknown
1605701331630,200,257,5.64697265625E-5,0,0,0,336698,92648,14537,28929,23100,5567,7860,17431,Tag0,unknown
1605701331640,200,26,5.712890625E-6,0,0,0,336698,92648,14537,28929,23100,5567,7860,17431,Tag0,unknown
1605701331650,200,-257,-5.64697265625E-5,0,0,0,336698,92648,14537,28929,23100,5567,7860,17431,Tag0,unknown
1605701331662,200,112,2.4609375E-5,0,0,0,336698,92648,14537,28929,23100,5567,7860,17431,Tag0,unknown
1605701331684,200,99,2.1752929687500003E-5,0,0,0,336698,92648,14537,28929,23100,5567,7860,17431,Tag0,unknown
1605701331696,200,86,1.8896484375000003E-5,0,0,0,336698,92648,14537,28929,23100,5567,7860,17431,Tag0,unknown
1605701331706,200,260,5.712890625E-5,0,0,0,336698,92648,14537,28929,23100,5567,7860,17431,Tag0,unknown
1605701331724,200,-16,-3.515625E-6,0,0,0,336698,92648,14537,28929,23100,5567,7860,17431,Tag0,unknown
1605701331734,200,51,1.1206054687499999E-5,0,0,0,336698,92648,14537,28929,23100,5567,7860,17431,Tag0,unknown
1605701331758,200,25,5.4931640625E-6,0,0,0,336698,92648,14537,28929,23100,5567,7860,17431,Tag0,unknown
1605701331768,200,-205,-4.50439453125E-5,0,0,0,336698,92648,14537,28929,23100,5567,7860,17431,Tag0,unknown
1605701331782,200,-641,-1.408447265625E-4,0,0,0,336698,92648,14537,28929,23100,5567,7860,17431,Tag0,unknown
1605701331799,200,-470,-1.03271484375E-4,0,0,0,336698,92648,14537,28929,23100,5567,7860,17431,Tag0,unknown
1605701331814,200,-458,-1.00634765625E-4,0,0,0,336698,92648,14537,28929,23100,5567,7860,17431,Tag0,unknown
1605701331832,200,-411,-9.03076171875E-5,0,0,0,336698,92648,14537,28929,23100,5567,7860,17431,Tag0,unknown
1605701331846,200,-403,-8.854980468749999E-5,0,0,0,336698,92648,14537,28929,23100,5567,7860,17431,Tag0,unknown
1605701331856,200,118,2.5927734375E-5,0,0,0,336698,92648,14537,28929,23100,5567,7860,17431,Tag0,unknown
1605701331870,200,44,9.66796875E-6,0,0,0,336698,92648,14537,28929,23100,5567,7860,17431,Tag0,unknown
1605701331880,200,-103,-2.26318359375E-5,0,0,0,336698,92648,14537,28929,23100,5567,7860,17431,Tag0,unknown
1605701331905,200,280,6.15234375E-5,0,0,0,336698,92648,14537,28929,23100,5567,7860,17431,Tag0,unknown
1605701331919,200,368,8.0859375E-5,0,0,0,336698,92648,14537,28929,23100,5567,7860,17431,Tag0,unknown
1605701331929,200,345,7.58056640625E-5,0,0,0,336698,92648,14537,28929,23100,5567,7860,17431,Tag0,unknown
1605701331949,200,325,7.14111328125E-5,0,0,0,336698,92648,14537,28929,23100,5567,7860,17431,Tag0,unknown
1605701331961,200,197,4.32861328125E-5,0,0,0,336698,92648,14537,28929,23100,5567,7860,17431,Tag0,unknown
1605701331978,200,329,7.229003906250001E-5,0,0,0,336698,92648,14537,28929,23100,5567,7860,17431,Tag0,unknown
1605701331996,200,264,5.80078125E-5,0,0,0,336698,92648,14537,28929,23100,5567,7860,17431,Tag0,unknown
1605701332006,200,-121,-2.6586914062500003E-5,0,0,0,336698,92648,14537,28929,23100,5567,7860,17431,Tag0,unknown
1605701332017,200,124,2.724609375E-5,0,0,0,336698,92648,14537,28929,23100,5567,7860,17431,Tag0,unknown
1605701332030,200,103,2.26318359375E-5,0,0,0,336698,92648,14537,28929,23100,5567,7860,17431,Tag0,unknown
1605701332050,200,113,2.48291015625E-5,0,0,0,336698,92648,14537,28929,23100,5567,7860,17431,Tag0,unknown
1605701332064,200,7,1.5380859375E-6,0,0,0,336698,92648,14537,28929,23100,5567,7860,17431,Tag0,unknown
1605701332086,200,-355,-7.80029296875E-5,0,0,0,677573,20435,6956,4603,4828,2955,4120,1884,Tag0,unknown
1605701332098,200,-360,-7.91015625E-5,0,0,0,677573,20435,6956,4603,4828,2955,4120,1884,Tag0,unknown
1605701332120,200,24,5.2734375E-6,0,0,0,677573,20435,6956,4603,4828,2955,4120,1884,Tag0,unknown
1605701332131,200,-88,-1.93359375E-5,0,0,0,677573,20435,6956,4603,4828,2955,4120,1884,Tag0,unknown
1605701332154,200,-123,-2.70263671875E-5,0,0,0,677573,20435,6956,4603,4828,2955,4120,1884,Tag0,unknown
1605701332166,200,309,6.78955078125E-5,0,0,0,677573,20435,6956,4603,4828,2955,4120,1884,Tag0,unknown
1605701332183,200,70,1.5380859375E-5,0,0,0,677573,20435,6956,4603,4828,2955,4120,1884,Tag0,unknown
1605701332216,200,530,1.16455078125E-4,0,0,0,677573,20435,6956,4603,4828,2955,4120,1884,Tag0,unknown
1605701332233,200,391,8.591308593750001E-5,0,0,0,677573,20435,6956,4603,4828,2955,4120,1884,Tag0,unknown
1605701332243,200,263,5.7788085937500005E-5,0,0,0,677573,20435,6956,4603,4828,2955,4120,1884,Tag0,unknown
1605701332253,200,-61,-1.34033203125E-5,0,0,0,677573,20435,6956,4603,4828,2955,4120,1884,Tag0,unknown
1605701332266,200,-73,-1.6040039062500002E-5,0,0,0,677573,20435,6956,4603,4828,2955,4120,1884,Tag0,unknown
1605701332289,200,52,1.142578125E-5,0,0,0,677573,20435,6956,4603,4828,2955,4120,1884,Tag0,unknown
1605701332299,200,-116,-2.548828125E-5,0,0,0,677573,20435,6956,4603,4828,2955,4120,1884,Tag0,unknown
1605701332323,200,-294,-6.4599609375E-5,0,0,0,677573,20435,6956,4603,4828,2955,4120,1884,Tag0,unknown
1605701332336,200,-249,-5.47119140625E-5,0,0,0,677573,20435,6956,4603,4828,2955,4120,1884,Tag0,unknown
1605701332357,200,327,7.18505859375E-5,0,0,0,677573,20435,6956,4603,4828,2955,4120,1884,Tag0,unknown
1605701332367,200,619,1.360107421875E-4,0,0,0,677573,20435,6956,4603,4828,2955,4120,1884,Tag0,unknown
1605701332377,200,-91,-1.99951171875E-5,0,0,0,677573,20435,6956,4603,4828,2955,4120,1884,Tag0,unknown
1605701332395,200,-45,-9.8876953125E-6,0,0,0,677573,20435,6956,4603,4828,2955,4120,1884,Tag0,unknown
1605701332415,200,23,5.0537109375E-6,0,0,0,677573,20435,6956,4603,4828,2955,4120,1884,Tag0,unknown
1605701332475,200,-110,-2.4169921875E-5,0,0,0,677573,20435,6956,4603,4828,2955,4120,1884,Tag0,unknown
1605701332485,200,100,2.197265625E-5,0,0,0,677573,20435,6956,4603,4828,2955,4120,1884,Tag0,unknown
1605701332541,200,-603,-1.3249511718750002E-4,0,0,0,677573,20435,6956,4603,4828,2955,4120,1884,Tag0,unknown
1605701332551,200,-541,-1.1887207031250001E-4,0,0,0,677573,20435,6956,4603,4828,2955,4120,1884,Tag0,unknown
1605701332609,200,-277,-6.0864257812500005E-5,0,0,0,677573,20435,6956,4603,4828,2955,4120,1884,Tag0,unknown
1605701332619,200,37,8.1298828125E-6,0,0,0,677573,20435,6956,4603,4828,2955,4120,1884,Tag0,unknown
1605701332748,200,119,2.6147460937500004E-5,0,0,0,677573,20435,6956,4603,4828,2955,4120,1884,Tag0,unknown
1605701332778,200,-20,-4.39453125E-6,0,0,0,677573,20435,6956,4603,4828,2955,4120,1884,Tag0,unknown
1605701332788,200,-115,-2.52685546875E-5,0,0,0,677573,20435,6956,4603,4828,2955,4120,1884,Tag0,unknown
1605701332798,200,-11,-2.4169921875E-6,0,0,0,677573,20435,6956,4603,4828,2955,4120,1884,Tag0,unknown
1605701332814,200,115,2.52685546875E-5,0,0,0,677573,20435,6956,4603,4828,2955,4120,1884,Tag0,unknown
1605701332834,200,-104,-2.28515625E-5,0,0,0,677573,20435,6956,4603,4828,2955,4120,1884,Tag0,unknown
1605701332884,200,7,1.5380859375E-6,0,0,0,677573,20435,6956,4603,4828,2955,4120,1884,Tag0,unknown
1605701332950,200,279,6.13037109375E-5,0,0,0,677573,20435,6956,4603,4828,2955,4120,1884,Tag0,unknown
1605701332973,200,-95,-2.08740234375E-5,0,0,0,677573,20435,6956,4603,4828,2955,4120,1884,Tag0,unknown
1605701332983,200,-43,-9.448242187500001E-6,0,0,0,677573,20435,6956,4603,4828,2955,4120,1884,Tag0,unknown
1605701333042,200,-46,-1.0107421875E-5,0,0,0,677573,20435,6956,4603,4828,2955,4120,1884,Tag0,unknown
1605701333053,200,-80,-1.7578125E-5,0,0,0,677573,20435,6956,4603,4828,2955,4120,1884,Tag0,unknown
1605701333063,200,-85,-1.86767578125E-5,0,0,0,677573,20435,6956,4603,4828,2955,4120,1884,Tag0,unknown
1605701333073,200,22,4.833984375E-6,0,0,0,677573,20435,6956,4603,4828,2955,4120,1884,Tag0,unknown
1605701333083,200,-380,-8.349609375E-5,0,0,0,677573,20435,6956,4603,4828,2955,4120,1884,Tag0,unknown
1605701333093,200,-621,-1.364501953125E-4,0,0,0,677573,20435,6956,4603,4828,2955,4120,1884,Tag0,unknown
1605701333103,200,-517,-1.135986328125E-4,0,0,0,238089,47803,16763004,22499,16754861,26524,16745154,5121,Tag0,unknown
1605701333114,200,-351,-7.71240234375E-5,0,0,0,238089,47803,16763004,22499,16754861,26524,16745154,5121,Tag0,unknown
1605701333137,200,-185,-4.06494140625E-5,0,0,0,238089,47803,16763004,22499,16754861,26524,16745154,5121,Tag0,unknown
1605701333151,200,17,3.7353515625000003E-6,0,0,0,238089,47803,16763004,22499,16754861,26524,16745154,5121,Tag0,unknown
1605701333174,200,107,2.35107421875E-5,0,0,0,238089,47803,16763004,22499,16754861,26524,16745154,5121,Tag0,unknown
1605701333185,200,18,3.955078125E-6,0,0,0,238089,47803,16763004,22499,16754861,26524,16745154,5121,Tag0,unknown
1605701333208,200,313,6.87744140625E-5,0,0,0,238089,47803,16763004,22499,16754861,26524,16745154,5121,Tag0,unknown
1605701333221,200,266,5.8447265625E-5,0,0,0,238089,47803,16763004,22499,16754861,26524,16745154,5121,Tag0,unknown
1605701333231,200,84,1.8457031250000004E-5,0,0,0,238089,47803,16763004,22499,16754861,26524,16745154,5121,Tag0,unknown
1605701333244,200,-51,-1.1206054687499999E-5,0,0,0,238089,47803,16763004,22499,16754861,26524,16745154,5121,Tag0,unknown
1605701333254,200,364,7.998046875E-5,0,0,0,238089,47803,16763004,22499,16754861,26524,16745154,5121,Tag0,unknown
1605701333277,200,554,1.2172851562500001E-4,0,0,0,238089,47803,16763004,22499,16754861,26524,16745154,5121,Tag0,unknown
1605701333287,200,823,1.808349609375E-4,0,0,0,238089,47803,16763004,22499,16754861,26524,16745154,5121,Tag0,unknown
1605701333317,200,877,1.9270019531250003E-4,0,0,0,238089,47803,16763004,22499,16754861,26524,16745154,5121,Tag0,unknown
1605701333337,200,820,1.8017578125E-4,0,0,0,238089,47803,16763004,22499,16754861,26524,16745154,5121,Tag0,unknown
1605701333355,200,341,7.492675781250002E-5,0,0,0,238089,47803,16763004,22499,16754861,26524,16745154,5121,Tag0,unknown
1605701333372,200,349,7.668457031250001E-5,0,0,0,238089,47803,16763004,22499,16754861,26524,16745154,5121,Tag0,unknown
1605701333382,200,-61,-1.34033203125E-5,0,0,0,238089,47803,16763004,22499,16754861,26524,16745154,5121,Tag0,unknown
1605701333393,200,100,2.197265625E-5,0,0,0,238089,47803,16763004,22499,16754861,26524,16745154,5121,Tag0,unknown
1605701333404,200,-181,-3.9770507812500004E-5,0,0,0,238089,47803,16763004,22499,16754861,26524,16745154,5121,Tag0,unknown
1605701333426,200,-761,-1.672119140625E-4,0,0,0,238089,47803,16763004,22499,16754861,26524,16745154,5121,Tag0,unknown
1605701333438,200,-803,-1.764404296875E-4,0,0,0,238089,47803,16763004,22499,16754861,26524,16745154,5121,Tag0,unknown
1605701333448,200,-449,-9.86572265625E-5,0,0,0,238089,47803,16763004,22499,16754861,26524,16745154,5121,Tag0,unknown
1605701333460,200,-228,-5.0097656250000005E-5,0,0,0,238089,47803,16763004,22499,16754861,26524,16745154,5121,Tag0,unknown
1605701333471,200,-373,-8.19580078125E-5,0,0,0,238089,47803,16763004,22499,16754861,26524,16745154,5121,Tag0,unknown
1605701333494,200,58,1.2744140625E-5,0,0,0,238089,47803,16763004,22499,16754861,26524,16745154,5121,Tag0,unknown
1605701333506,200,-104,-2.28515625E-5,0,0,0,238089,47803,16763004,22499,16754861,26524,16745154,5121,Tag0,unknown
1605701333516,200,-465,-1.021728515625E-4,0,0,0,238089,47803,16763004,22499,16754861,26524,16745154,5121,Tag0,unknown
1605701333528,200,-567,-1.245849609375E-4,0,0,0,238089,47803,16763004,22499,16754861,26524,16745154,5121,Tag0,unknown
1605701333538,200,-556,-1.2216796875000002E-4,0,0,0,238089,47803,16763004,22499,16754861,26524,16745154,5121,Tag0,unknown
1605701333561,200,-1145,-2.515869140625E-4,0,0,0,238089,47803,16763004,22499,16754861,26524,16745154,5121,Tag0,unknown
1605701333571,200,-711,-1.562255859375E-4,0,0,0,238089,47803,16763004,22499,16754861,26524,16745154,5121,Tag0,unknown
1605701333595,200,-519,-1.140380859375E-4,0,0,0,238089,47803,16763004,22499,16754861,26524,16745154,5121,Tag0,unknown
1605701333605,200,-163,-3.5815429687500006E-5,0,0,0,238089,47803,16763004,22499,16754861,26524,16745154,5121,Tag0,unknown
1605701333632,200,-1591,-3.4958496093750004E-4,0,0,0,238089,47803,16763004,22499,16754861,26524,16745154,5121,Tag0,unknown
1605701333642,200,-1542,-3.38818359375E-4,0,0,0,238089,47803,16763004,22499,16754861,26524,16745154,5121,Tag0,unknown
1605701333666,200,-1364,-2.9970703125000006E-4,0,0,0,238089,47803,16763004,22499,16754861,26524,16745154,5121,Tag0,unknown
1605701333676,200,-918,-2.01708984375E-4,0,0,0,238089,47803,16763004,22499,16754861,26524,16745154,5121,Tag0,unknown
1605701333686,200,-772,-1.6962890625000002E-4,0,0,0,238089,47803,16763004,22499,16754861,26524,16745154,5121,Tag0,unknown
1605701333705,200,-398,-8.745117187499999E-5,0,0,0,238089,47803,16763004,22499,16754861,26524,16745154,5121,Tag0,unknown
1605701333721,200,-621,-1.364501953125E-4,0,0,0,238089,47803,16763004,22499,16754861,26524,16745154,5121,Tag0,unknown
1605701333745,200,-219,-4.81201171875E-5,0,0,0,238089,47803,16763004,22499,16754861,26524,16745154,5121,Tag0,unknown
1605701333755,200,-199,-4.3725585937499995E-5,0,0,0,238089,47803,16763004,22499,16754861,26524,16745154,5121,Tag0,unknown
1605701333765,200,-310,-6.8115234375E-5,0,0,0,238089,47803,16763004,22499,16754861,26524,16745154,5121,Tag0,unknown
1605701333781,200,-299,-6.56982421875E-5,0,0,0,238089,47803,16763004,22499,16754861,26524,16745154,5121,Tag0,unknown
1605701333791,200,-275,-6.04248046875E-5,0,0,0,238089,47803,16763004,22499,16754861,26524,16745154,5121,Tag0,unknown
1605701333817,200,-261,-5.73486328125E-5,0,0,0,238089,47803,16763004,22499,16754861,26524,16745154,5121,Tag0,unknown
1605701333827,200,18,3.955078125E-6,0,0,0,238089,47803,16763004,22499,16754861,26524,16745154,5121,Tag0,unknown
1605701333856,200,37,8.1298828125E-6,0,0,0,238089,47803,16763004,22499,16754861,26524,16745154,5121,Tag0,unknown
1605701333872,200,39,8.5693359375E-6,0,0,0,238089,47803,16763004,22499,16754861,26524,16745154,5121,Tag0,unknown
1605701333890,200,48,1.0546875E-5,0,0,0,238089,47803,16763004,22499,16754861,26524,16745154,5121,Tag0,unknown
1605701333907,200,50,1.0986328125E-5,0,0,0,238089,47803,16763004,22499,16754861,26524,16745154,5121,Tag0,unknown
1605701333917,200,57,1.2524414062500001E-5,0,0,0,238089,47803,16763004,22499,16754861,26524,16745154,5121,Tag0,unknown
1605701333927,200,59,1.29638671875E-5,0,0,0,238089,47803,16763004,22499,16754861,26524,16745154,5121,Tag0,unknown
1605701333941,200,59,1.29638671875E-5,0,0,0,238089,47803,16763004,22499,16754861,26524,16745154,5121,Tag0,unknown
1605701333961,200,64,1.40625E-5,0,0,0,238089,47803,16763004,22499,16754861,26524,16745154,5121,Tag0,unknown
1605701333974,200,65,1.42822265625E-5,0,0,0,238089,47803,16763004,22499,16754861,26524,16745154,5121,Tag0,unknown
1605701333984,200,-45,-9.8876953125E-6,0,0,0,238089,47803,16763004,22499,16754861,26524,16745154,5121,Tag0,unknown
1605701334001,200,160,3.515625E-5,0,0,0,238089,47803,16763004,22499,16754861,26524,16745154,5121,Tag0,unknown
1605701334011,200,852,1.8720703125E-4,0,0,0,238089,47803,16763004,22499,16754861,26524,16745154,5121,Tag0,unknown
1605701334024,200,1041,2.287353515625E-4,0,0,0,238089,47803,16763004,22499,16754861,26524,16745154,5121,Tag0,unknown
1605701334043,200,947,2.0808105468750001E-4,0,0,0,641775,260099,14434,16747821,16760447,75923,28354,13991,Tag0,unknown
1605701334071,200,1108,2.4345703125000002E-4,0,0,0,641775,260099,14434,16747821,16760447,75923,28354,13991,Tag0,unknown
1605701334091,200,1121,2.463134765625E-4,0,0,0,641775,260099,14434,16747821,16760447,75923,28354,13991,Tag0,unknown
1605701334101,200,1082,2.3774414062500003E-4,0,0,0,641775,260099,14434,16747821,16760447,75923,28354,13991,Tag0,unknown
1605701334116,200,853,1.874267578125E-4,0,0,0,641775,260099,14434,16747821,16760447,75923,28354,13991,Tag0,unknown
1605701334126,200,651,1.430419921875E-4,0,0,0,641775,260099,14434,16747821,16760447,75923,28354,13991,Tag0,unknown
1605701334154,200,1299,2.854248046875E-4,0,0,0,641775,260099,14434,16747821,16760447,75923,28354,13991,Tag0,unknown
1605701334174,200,1289,2.8322753906250003E-4,0,0,0,641775,260099,14434,16747821,16760447,75923,28354,13991,Tag0,unknown
1605701334184,200,693,1.522705078125E-4,0,0,0,641775,260099,14434,16747821,16760447,75923,28354,13991,Tag0,unknown
1605701334194,200,409,8.986816406250001E-5,0,0,0,641775,260099,14434,16747821,16760447,75923,28354,13991,Tag0,unknown
1605701334208,200,235,5.16357421875E-5,0,0,0,641775,260099,14434,16747821,16760447,75923,28354,13991,Tag0,unknown
1605701334236,200,227,4.98779296875E-5,0,0,0,641775,260099,14434,16747821,16760447,75923,28354,13991,Tag0,unknown
1605701334246,200,330,7.2509765625E-5,0,0,0,641775,260099,14434,16747821,16760447,75923,28354,13991,Tag0,unknown
1605701334270,200,192,4.21875E-5,0,0,0,641775,260099,14434,16747821,16760447,75923,28354,13991,Tag0,unknown
1605701334280,200,405,8.89892578125E-5,0,0,0,641775,260099,14434,16747821,16760447,75923,28354,13991,Tag0,unknown
1605701334309,200,803,1.764404296875E-4,0,0,0,641775,260099,14434,16747821,16760447,75923,28354,13991,Tag0,unknown
1605701334325,200,448,9.84375E-5,0,0,0,641775,260099,14434,16747821,16760447,75923,28354,13991,Tag0,unknown
1605701334344,200,161,3.53759765625E-5,0,0,0,641775,260099,14434,16747821,16760447,75923,28354,13991,Tag0,unknown
1605701334366,200,301,6.613769531250001E-5,0,0,0,641775,260099,14434,16747821,16760447,75923,28354,13991,Tag0,unknown
1605701334376,200,-377,-8.28369140625E-5,0,0,0,641775,260099,14434,16747821,16760447,75923,28354,13991,Tag0,unknown
1605701334386,200,-597,-1.3117675781250003E-4,0,0,0,641775,260099,14434,16747821,16760447,75923,28354,13991,Tag0,unknown
1605701334415,200,-145,-3.18603515625E-5,0,0,0,641775,260099,14434,16747821,16760447,75923,28354,13991,Tag0,unknown
1605701334425,200,89,1.95556640625E-5,0,0,0,641775,260099,14434,16747821,16760447,75923,28354,13991,Tag0,unknown
1605701334462,200,-90,-1.9775390625E-5,0,0,0,641775,260099,14434,16747821,16760447,75923,28354,13991,Tag0,unknown
1605701334475,200,-32,-7.03125E-6,0,0,0,641775,260099,14434,16747821,16760447,75923,28354,13991,Tag0,unknown
1605701334501,200,67,1.4721679687500002E-5,0,0,0,641775,260099,14434,16747821,16760447,75923,28354,13991,Tag0,unknown
1605701334511,200,-84,-1.8457031250000004E-5,0,0,0,641775,260099,14434,16747821,16760447,75923,28354,13991,Tag0,unknown
1605701334521,200,-13,-2.8564453125E-6,0,0,0,641775,260099,14434,16747821,16760447,75923,28354,13991,Tag0,unknown
1605701334531,200,-62,-1.3623046875E-5,0,0,0,641775,260099,14434,16747821,16760447,75923,28354,13991,Tag0,unknown
1605701334543,200,-19,-4.1748046875E-6,0,0,0,641775,260099,14434,16747821,16760447,75923,28354,13991,Tag0,unknown
1605701334563,200,4,8.7890625E-7,0,0,0,641775,260099,14434,16747821,16760447,75923,28354,13991,Tag0,unknown
1605701334577,200,-347,-7.62451171875E-5,0,0,0,641775,260099,14434,16747821,16760447,75923,28354,13991,Tag0,unknown
1605701334587,200,-355,-7.80029296875E-5,0,0,0,641775,260099,14434,16747821,16760447,75923,28354,13991,Tag0,unknown
1605701334600,200,-291,-6.39404296875E-5,0,0,0,641775,260099,14434,16747821,16760447,75923,28354,13991,Tag0,unknown
1605701334610,200,-280,-6.15234375E-5,0,0,0,641775,260099,14434,16747821,16760447,75923,28354,13991,Tag0,unknown
1605701334634,200,186,4.0869140625E-5,0,0,0,641775,260099,14434,16747821,16760447,75923,28354,13991,Tag0,unknown
1605701334646,200,580,1.2744140625E-4,0,0,0,641775,260099,14434,16747821,16760447,75923,28354,13991,Tag0,unknown
1605701334656,200,225,4.94384765625E-5,0,0,0,641775,260099,14434,16747821,16760447,75923,28354,13991,Tag0,unknown
1605701334670,200,515,1.131591796875E-4,0,0,0,641775,260099,14434,16747821,16760447,75923,28354,13991,Tag0,unknown
1605701334680,200,169,3.7133789062499996E-5,0,0,0,641775,260099,14434,16747821,16760447,75923,28354,13991,Tag0,unknown
1605701334704,200,368,8.0859375E-5,0,0,0,641775,260099,14434,16747821,16760447,75923,28354,13991,Tag0,unknown
1605701334714,200,305,6.70166015625E-5,0,0,0,641775,260099,14434,16747821,16760447,75923,28354,13991,Tag0,unknown
1605701334727,200,-47,-1.0327148437500001E-5,0,0,0,641775,260099,14434,16747821,16760447,75923,28354,13991,Tag0,unknown
1605701334744,200,-73,-1.6040039062500002E-5,0,0,0,641775,260099,14434,16747821,16760447,75923,28354,13991,Tag0,unknown
1605701334779,200,-123,-2.70263671875E-5,0,0,0,641775,260099,14434,16747821,16760447,75923,28354,13991,Tag0,unknown
1605701334796,200,123,2.70263671875E-5,0,0,0,641775,260099,14434,16747821,16760447,75923,28354,13991,Tag0,unknown
1605701334806,200,-517,-1.135986328125E-4,0,0,0,641775,260099,14434,16747821,16760447,75923,28354,13991,Tag0,unknown
1605701334820,200,-857,-1.8830566406250002E-4,0,0,0,641775,260099,14434,16747821,16760447,75923,28354,13991,Tag0,unknown
1605701334833,200,-753,-1.6545410156250002E-4,0,0,0,641775,260099,14434,16747821,16760447,75923,28354,13991,Tag0,unknown
1605701334854,200,-755,-1.658935546875E-4,0,0,0,641775,260099,14434,16747821,16760447,75923,28354,13991,Tag0,unknown
1605701334864,200,-985,-2.164306640625E-4,0,0,0,641775,260099,14434,16747821,16760447,75923,28354,13991,Tag0,unknown
1605701334875,200,-1400,-3.076171875E-4,0,0,0,641775,260099,14434,16747821,16760447,75923,28354,13991,Tag0,unknown
1605701334890,200,-1160,-2.548828125E-4,0,0,0,641775,260099,14434,16747821,16760447,75923,28354,13991,Tag0,unknown
1605701334911,200,-1361,-2.990478515625E-4,0,0,0,641775,260099,14434,16747821,16760447,75923,28354,13991,Tag0,unknown
1605701334927,200,-337,-7.40478515625E-5,0,0,0,641775,260099,14434,16747821,16760447,75923,28354,13991,Tag0,unknown
1605701334944,200,305,6.70166015625E-5,0,0,0,641775,260099,14434,16747821,16760447,75923,28354,13991,Tag0,unknown
1605701334963,200,-19,-4.1748046875E-6,0,0,0,641775,260099,14434,16747821,16760447,75923,28354,13991,Tag0,unknown
1605701334979,200,264,5.80078125E-5,0,0,0,641775,260099,14434,16747821,16760447,75923,28354,13991,Tag0,unknown
1605701334996,200,1124,2.4697265625E-4,0,0,0,641775,260099,14434,16747821,16760447,75923,28354,13991,Tag0,unknown
1605701335012,200,997,2.1906738281250002E-4,0,0,0,641775,260099,14434,16747821,16760447,75923,28354,13991,Tag0,unknown
1605701335022,200,484,1.0634765625000001E-4,0,0,0,641775,260099,14434,16747821,16760447,75923,28354,13991,Tag0,unknown
1605701335039,200,416,9.140625E-5,0,0,0,641775,260099,14434,16747821,16760447,75923,28354,13991,Tag0,unknown
1605701335049,200,563,1.237060546875E-4,0,0,0,99048,8671,1388,2648,2900,1114,460,16777119,Tag0,unknown
1605701335075,200,325,7.14111328125E-5,0,0,0,99048,8671,1388,2648,2900,1114,460,16777119,Tag0,unknown
1605701335095,200,161,3.53759765625E-5,0,0,0,99048,8671,1388,2648,2900,1114,460,16777119,Tag0,unknown
1605701335113,200,203,4.460449218750001E-5,0,0,0,99048,8671,1388,2648,2900,1114,460,16777119,Tag0,unknown
1605701335130,200,353,7.75634765625E-5,0,0,0,99048,8671,1388,2648,2900,1114,460,16777119,Tag0,unknown
1605701335150,200,-13,-2.8564453125E-6,0,0,0,99048,8671,1388,2648,2900,1114,460,16777119,Tag0,unknown
1605701335164,200,-30,-6.591796875E-6,0,0,0,99048,8671,1388,2648,2900,1114,460,16777119,Tag0,unknown
1605701335185,200,-117,-2.5708007812499998E-5,0,0,0,99048,8671,1388,2648,2900,1114,460,16777119,Tag0,unknown
1605701335200,200,117,2.5708007812499998E-5,0,0,0,99048,8671,1388,2648,2900,1114,460,16777119,Tag0,unknown
1605701335210,200,33,7.2509765625E-6,0,0,0,99048,8671,1388,2648,2900,1114,460,16777119,Tag0,unknown
1605701335224,200,66,1.4501953125E-5,0,0,0,99048,8671,1388,2648,2900,1114,460,16777119,Tag0,unknown
1605701335234,200,59,1.29638671875E-5,0,0,0,99048,8671,1388,2648,2900,1114,460,16777119,Tag0,unknown
1605701335258,200,49,1.07666015625E-5,0,0,0,99048,8671,1388,2648,2900,1114,460,16777119,Tag0,unknown
1605701335268,200,103,2.26318359375E-5,0,0,0,99048,8671,1388,2648,2900,1114,460,16777119,Tag0,unknown
1605701335278,200,-258,-5.6689453125000004E-5,0,0,0,99048,8671,1388,2648,2900,1114,460,16777119,Tag0,unknown
1605701335294,200,-372,-8.173828125E-5,0,0,0,99048,8671,1388,2648,2900,1114,460,16777119,Tag0,unknown
1605701335312,200,-301,-6.613769531250001E-5,0,0,0,99048,8671,1388,2648,2900,1114,460,16777119,Tag0,unknown
1605701335330,200,-329,-7.229003906250001E-5,0,0,0,99048,8671,1388,2648,2900,1114,460,16777119,Tag0,unknown
1605701335346,200,-301,-6.613769531250001E-5,0,0,0,99048,8671,1388,2648,2900,1114,460,16777119,Tag0,unknown
1605701335356,200,120,2.63671875E-5,0,0,0,99048,8671,1388,2648,2900,1114,460,16777119,Tag0,unknown
1605701335368,200,-123,-2.70263671875E-5,0,0,0,99048,8671,1388,2648,2900,1114,460,16777119,Tag0,unknown
1605701335381,200,-105,-2.30712890625E-5,0,0,0,99048,8671,1388,2648,2900,1114,460,16777119,Tag0,unknown
1605701335402,200,102,2.2412109374999998E-5,0,0,0,99048,8671,1388,2648,2900,1114,460,16777119,Tag0,unknown
1605701335420,200,56,1.23046875E-5,0,0,0,99048,8671,1388,2648,2900,1114,460,16777119,Tag0,unknown
1605701335430,200,-289,-6.35009765625E-5,0,0,0,99048,8671,1388,2648,2900,1114,460,16777119,Tag0,unknown
1605701335444,200,1,2.197265625E-7,0,0,0,99048,8671,1388,2648,2900,1114,460,16777119,Tag0,unknown
1605701335465,200,-296,-6.50390625E-5,0,0,0,99048,8671,1388,2648,2900,1114,460,16777119,Tag0,unknown
1605701335481,200,-266,-5.8447265625E-5,0,0,0,99048,8671,1388,2648,2900,1114,460,16777119,Tag0,unknown
1605701335491,200,-300,-6.591796875E-5,0,0,0,99048,8671,1388,2648,2900,1114,460,16777119,Tag0,unknown
1605701335516,200,-263,-5.7788085937500005E-5,0,0,0,99048,8671,1388,2648,2900,1114,460,16777119,Tag0,unknown
1605701335532,200,21,4.614257812500001E-6,0,0,0,99048,8671,1388,2648,2900,1114,460,16777119,Tag0,unknown
1605701335558,200,-315,-6.92138671875E-5,0,0,0,99048,8671,1388,2648,2900,1114,460,16777119,Tag0,unknown
1605701335568,200,-340,-7.470703125E-5,0,0,0,99048,8671,1388,2648,2900,1114,460,16777119,Tag0,unknown
1605701335589,200,74,1.6259765625E-5,0,0,0,99048,8671,1388,2648,2900,1114,460,16777119,Tag0,unknown
1605701335599,200,49,1.07666015625E-5,0,0,0,99048,8671,1388,2648,2900,1114,460,16777119,Tag0,unknown
1605701335623,200,113,2.48291015625E-5,0,0,0,99048,8671,1388,2648,2900,1114,460,16777119,Tag0,unknown
1605701335633,200,-106,-2.3291015625000003E-5,0,0,0,99048,8671,1388,2648,2900,1114,460,16777119,Tag0,unknown
1605701335643,200,67,1.4721679687500002E-5,0,0,0,99048,8671,1388,2648,2900,1114,460,16777119,Tag0,unknown
1605701335659,200,-257,-5.64697265625E-5,0,0,0,99048,8671,1388,2648,2900,1114,460,16777119,Tag0,unknown
1605701335669,200,-289,-6.35009765625E-5,0,0,0,99048,8671,1388,2648,2900,1114,460,16777119,Tag0,unknown
1605701335699,200,-327,-7.18505859375E-5,0,0,0,99048,8671,1388,2648,2900,1114,460,16777119,Tag0,unknown
1605701335716,200,-216,-4.7460937500000004E-5,0,0,0,99048,8671,1388,2648,2900,1114,460,16777119,Tag0,unknown
1605701335726,200,55,1.20849609375E-5,0,0,0,99048,8671,1388,2648,2900,1114,460,16777119,Tag0,unknown
1605701335738,200,121,2.6586914062500003E-5,0,0,0,99048,8671,1388,2648,2900,1114,460,16777119,Tag0,unknown
1605701335748,200,-158,-3.4716796875000005E-5,0,0,0,99048,8671,1388,2648,2900,1114,460,16777119,Tag0,unknown
1605701335769,200,-377,-8.28369140625E-5,0,0,0,99048,8671,1388,2648,2900,1114,460,16777119,Tag0,unknown
1605701335781,200,-525,-1.153564453125E-4,0,0,0,99048,8671,1388,2648,2900,1114,460,16777119,Tag0,unknown
1605701335791,200,-609,-1.338134765625E-4,0,0,0,99048,8671,1388,2648,2900,1114,460,16777119,Tag0,unknown
1605701335805,200,-616,-1.353515625E-4,0,0,0,99048,8671,1388,2648,2900,1114,460,16777119,Tag0,unknown
1605701335816,200,-411,-9.03076171875E-5,0,0,0,99048,8671,1388,2648,2900,1114,460,16777119,Tag0,unknown
1605701335840,200,-485,-1.065673828125E-4,0,0,0,99048,8671,1388,2648,2900,1114,460,16777119,Tag0,unknown
1605701335850,200,-391,-8.591308593750001E-5,0,0,0,99048,8671,1388,2648,2900,1114,460,16777119,Tag0,unknown
1605701335860,200,-572,-1.2568359375E-4,0,0,0,99048,8671,1388,2648,2900,1114,460,16777119,Tag0,unknown
1605701335881,200,-258,-5.6689453125000004E-5,0,0,0,99048,8671,1388,2648,2900,1114,460,16777119,Tag0,unknown
1605701335900,200,2,4.39453125E-7,0,0,0,99048,8671,1388,2648,2900,1114,460,16777119,Tag0,unknown
1605701335917,200,-129,-2.8344726562500002E-5,0,0,0,99048,8671,1388,2648,2900,1114,460,16777119,Tag0,unknown
1605701335933,200,-312,-6.85546875E-5,0,0,0,99048,8671,1388,2648,2900,1114,460,16777119,Tag0,unknown
1605701335950,200,-358,-7.8662109375E-5,0,0,0,99048,8671,1388,2648,2900,1114,460,16777119,Tag0,unknown
1605701335967,200,-285,-6.26220703125E-5,0,0,0,99048,8671,1388,2648,2900,1114,460,16777119,Tag0,unknown
1605701335985,200,-565,-1.241455078125E-4,0,0,0,99048,8671,1388,2648,2900,1114,460,16777119,Tag0,unknown
1605701335999,200,-380,-8.349609375E-5,0,0,0,99048,8671,1388,2648,2900,1114,460,16777119,Tag0,unknown
1605701336018,200,225,4.94384765625E-5,0,0,0,99048,8671,1388,2648,2900,1114,460,16777119,Tag0,unknown
1605701336032,200,278,6.108398437500001E-5,0,0,0,99048,8671,1388,2648,2900,1114,460,16777119,Tag0,unknown
1605701336061,200,123,2.70263671875E-5,0,0,0,1355109,34801,4099,5673,3602,6528,1068,1235,Tag0,unknown
1605701336071,200,-14,-3.076171875E-6,0,0,0,1355109,34801,4099,5673,3602,6528,1068,1235,Tag0,unknown
1605701336090,200,193,4.2407226562500005E-5,0,0,0,1355109,34801,4099,5673,3602,6528,1068,1235,Tag0,unknown
1605701336100,200,605,1.329345703125E-4,0,0,0,1355109,34801,4099,5673,3602,6528,1068,1235,Tag0,unknown
1605701336123,200,753,1.6545410156250002E-4,0,0,0,1355109,34801,4099,5673,3602,6528,1068,1235,Tag0,unknown
1605701336134,200,1031,2.265380859375E-4,0,0,0,1355109,34801,4099,5673,3602,6528,1068,1235,Tag0,unknown
1605701336144,200,578,1.27001953125E-4,0,0,0,1355109,34801,4099,5673,3602,6528,1068,1235,Tag0,unknown
1605701336161,200,233,5.1196289062500006E-5,0,0,0,1355109,34801,4099,5673,3602,6528,1068,1235,Tag0,unknown
1605701336171,200,358,7.8662109375E-5,0,0,0,1355109,34801,4099,5673,3602,6528,1068,1235,Tag0,unknown
1605701336196,200,337,7.40478515625E-5,0,0,0,1355109,34801,4099,5673,3602,6528,1068,1235,Tag0,unknown
1605701336206,200,289,6.35009765625E-5,0,0,0,1355109,34801,4099,5673,3602,6528,1068,1235,Tag0,unknown
1605701336216,200,-53,-1.1645507812500002E-5,0,0,0,1355109,34801,4099,5673,3602,6528,1068,1235,Tag0,unknown
1605701336232,200,-84,-1.8457031250000004E-5,0,0,0,1355109,34801,4099,5673,3602,6528,1068,1235,Tag0,unknown
1605701336251,200,-90,-1.9775390625E-5,0,0,0,1355109,34801,4099,5673,3602,6528,1068,1235,Tag0,unknown
1605701336267,200,118,2.5927734375E-5,0,0,0,1355109,34801,4099,5673,3602,6528,1068,1235,Tag0,unknown
1605701336283,200,-378,-8.3056640625E-5,0,0,0,1355109,34801,4099,5673,3602,6528,1068,1235,Tag0,unknown
1605701336312,200,-179,-3.93310546875E-5,0,0,0,1355109,34801,4099,5673,3602,6528,1068,1235,Tag0,unknown
1605701336322,200,-697,-1.5314941406250002E-4,0,0,0,1355109,34801,4099,5673,3602,6528,1068,1235,Tag0,unknown
1605701336336,200,-851,-1.869873046875E-4,0,0,0,1355109,34801,4099,5673,3602,6528,1068,1235,Tag0,unknown
1605701336346,200,-709,-1.557861328125E-4,0,0,0,1355109,34801,4099,5673,3602,6528,1068,1235,Tag0,unknown
1605701336356,200,-437,-9.602050781250001E-5,0,0,0,1355109,34801,4099,5673,3602,6528,1068,1235,Tag0,unknown
1605701336381,200,-772,-1.6962890625000002E-4,0,0,0,1355109,34801,4099,5673,3602,6528,1068,1235,Tag0,unknown
1605701336391,200,-801,-1.760009765625E-4,0,0,0,1355109,34801,4099,5673,3602,6528,1068,1235,Tag0,unknown
1605701336419,200,-675,-1.483154296875E-4,0,0,0,1355109,34801,4099,5673,3602,6528,1068,1235,Tag0,unknown
1605701336434,200,-849,-1.865478515625E-4,0,0,0,1355109,34801,4099,5673,3602,6528,1068,1235,Tag0,unknown
1605701336444,200,-211,-4.63623046875E-5,0,0,0,1355109,34801,4099,5673,3602,6528,1068,1235,Tag0,unknown
1605701336461,200,83,1.82373046875E-5,0,0,0,1355109,34801,4099,5673,3602,6528,1068,1235,Tag0,unknown
1605701336471,200,-59,-1.29638671875E-5,0,0,0,1355109,34801,4099,5673,3602,6528,1068,1235,Tag0,unknown
1605701336486,200,-595,-1.307373046875E-4,0,0,0,1355109,34801,4099,5673,3602,6528,1068,1235,Tag0,unknown
1605701336508,200,-227,-4.98779296875E-5,0,0,0,1355109,34801,4099,5673,3602,6528,1068,1235,Tag0,unknown
1605701336520,200,-232,-5.09765625E-5,0,0,0,1355109,34801,4099,5673,3602,6528,1068,1235,Tag0,unknown
1605701336530,200,-77,-1.69189453125E-5,0,0,0,1355109,34801,4099,5673,3602,6528,1068,1235,Tag0,unknown
1605701336540,200,-12,-2.63671875E-6,0,0,0,1355109,34801,4099,5673,3602,6528,1068,1235,Tag0,unknown
1605701336551,200,-85,-1.86767578125E-5,0,0,0,1355109,34801,4099,5673,3602,6528,1068,1235,Tag0,unknown
1605701336576,200,347,7.62451171875E-5,0,0,0,1355109,34801,4099,5673,3602,6528,1068,1235,Tag0,unknown
1605701336586,200,-21,-4.614257812500001E-6,0,0,0,1355109,34801,4099,5673,3602,6528,1068,1235,Tag0,unknown
1605701336613,200,101,2.2192382812500002E-5,0,0,0,1355109,34801,4099,5673,3602,6528,1068,1235,Tag0,unknown
1605701336623,200,78,1.7138671875E-5,0,0,0,1355109,34801,4099,5673,3602,6528,1068,1235,Tag0,unknown
1605701336636,200,55,1.20849609375E-5,0,0,0,1355109,34801,4099,5673,3602,6528,1068,1235,Tag0,unknown
1605701336655,200,-230,-5.0537109375E-5,0,0,0,1355109,34801,4099,5673,3602,6528,1068,1235,Tag0,unknown
1605701336670,200,-1019,-2.239013671875E-4,0,0,0,1355109,34801,4099,5673,3602,6528,1068,1235,Tag0,unknown
1605701336680,200,-481,-1.056884765625E-4,0,0,0,1355109,34801,4099,5673,3602,6528,1068,1235,Tag0,unknown
1605701336703,200,-209,-4.59228515625E-5,0,0,0,1355109,34801,4099,5673,3602,6528,1068,1235,Tag0,unknown
1605701336723,200,-143,-3.14208984375E-5,0,0,0,1355109,34801,4099,5673,3602,6528,1068,1235,Tag0,unknown
1605701336736,200,7,1.5380859375E-6,0,0,0,1355109,34801,4099,5673,3602,6528,1068,1235,Tag0,unknown
1605701336760,200,53,1.1645507812500002E-5,0,0,0,1355109,34801,4099,5673,3602,6528,1068,1235,Tag0,unknown
1605701336771,200,-103,-2.26318359375E-5,0,0,0,1355109,34801,4099,5673,3602,6528,1068,1235,Tag0,unknown
1605701336781,200,138,3.0322265625E-5,0,0,0,1355109,34801,4099,5673,3602,6528,1068,1235,Tag0,unknown
1605701336798,200,246,5.4052734375E-5,0,0,0,1355109,34801,4099,5673,3602,6528,1068,1235,Tag0,unknown
1605701336808,200,689,1.513916015625E-4,0,0,0,1355109,34801,4099,5673,3602,6528,1068,1235,Tag0,unknown
1605701336832,200,1165,2.559814453125E-4,0,0,0,1355109,34801,4099,5673,3602,6528,1068,1235,Tag0,unknown
1605701336842,200,1174,2.5795898437500005E-4,0,0,0,1355109,34801,4099,5673,3602,6528,1068,1235,Tag0,unknown
1605701336874,200,749,1.645751953125E-4,0,0,0,1355109,34801,4099,5673,3602,6528,1068,1235,Tag0,unknown
1605701336890,200,681,1.496337890625E-4,0,0,0,1355109,34801,4099,5673,3602,6528,1068,1235,Tag0,unknown
1605701336909,200,637,1.399658203125E-4,0,0,0,1355109,34801,4099,5673,3602,6528,1068,1235,Tag0,unknown
1605701336919,200,-21,-4.614257812500001E-6,0,0,0,1355109,34801,4099,5673,3602,6528,1068,1235,Tag0,unknown
1605701336939,200,91,1.99951171875E-5,0,0,0,1355109,34801,4099,5673,3602,6528,1068,1235,Tag0,unknown
1605701336958,200,73,1.6040039062500002E-5,0,0,0,1355109,34801,4099,5673,3602,6528,1068,1235,Tag0,unknown
1605701336975,200,-69,-1.51611328125E-5,0,0,0,1355109,34801,4099,5673,3602,6528,1068,1235,Tag0,unknown
1605701336988,200,-73,-1.6040039062500002E-5,0,0,0,1355109,34801,4099,5673,3602,6528,1068,1235,Tag0,unknown
1605701336998,200,-28,-6.15234375E-6,0,0,0,1355109,34801,4099,5673,3602,6528,1068,1235,Tag0,unknown
1605701337017,200,-87,-1.91162109375E-5,0,0,0,1355109,34801,4099,5673,3602,6528,1068,1235,Tag0,unknown
1605701337037,200,-38,-8.349609375E-6,0,0,0,1355109,34801,4099,5673,3602,6528,1068,1235,Tag0,unknown
1605701337059,200,-268,-5.8886718750000006E-5,0,0,0,405129,188303,16768704,68785,141037,16759384,12997,5825,Tag0,unknown
1605701337089,200,-194,-4.2626953125E-5,0,0,0,405129,188303,16768704,68785,141037,16759384,12997,5825,Tag0,unknown
1605701337104,200,-225,-4.94384765625E-5,0,0,0,405129,188303,16768704,68785,141037,16759384,12997,5825,Tag0,unknown
1605701337126,200,-322,-7.0751953125E-5,0,0,0,405129,188303,16768704,68785,141037,16759384,12997,5825,Tag0,unknown
1605701337139,200,-212,-4.6582031250000006E-5,0,0,0,405129,188303,16768704,68785,141037,16759384,12997,5825,Tag0,unknown
1605701337162,200,-173,-3.80126953125E-5,0,0,0,405129,188303,16768704,68785,141037,16759384,12997,5825,Tag0,unknown
1605701337173,200,-214,-4.7021484375E-5,0,0,0,405129,188303,16768704,68785,141037,16759384,12997,5825,Tag0,unknown
1605701337183,200,-516,-1.1337890625000001E-4,0,0,0,405129,188303,16768704,68785,141037,16759384,12997,5825,Tag0,unknown
1605701337198,200,-524,-1.1513671875E-4,0,0,0,405129,188303,16768704,68785,141037,16759384,12997,5825,Tag0,unknown
1605701337208,200,-550,-1.20849609375E-4,0,0,0,405129,188303,16768704,68785,141037,16759384,12997,5825,Tag0,unknown
1605701337231,200,-585,-1.285400390625E-4,0,0,0,405129,188303,16768704,68785,141037,16759384,12997,5825,Tag0,unknown
1605701337244,200,-183,-4.02099609375E-5,0,0,0,405129,188303,16768704,68785,141037,16759384,12997,5825,Tag0,unknown
1605701337254,200,-520,-1.142578125E-4,0,0,0,405129,188303,16768704,68785,141037,16759384,12997,5825,Tag0,unknown
1605701337274,200,-305,-6.70166015625E-5,0,0,0,405129,188303,16768704,68785,141037,16759384,12997,5825,Tag0,unknown
1605701337289,200,87,1.91162109375E-5,0,0,0,405129,188303,16768704,68785,141037,16759384,12997,5825,Tag0,unknown
1605701337305,200,-212,-4.6582031250000006E-5,0,0,0,405129,188303,16768704,68785,141037,16759384,12997,5825,Tag0,unknown
1605701337334,200,-587,-1.2897949218750003E-4,0,0,0,405129,188303,16768704,68785,141037,16759384,12997,5825,Tag0,unknown
1605701337344,200,-565,-1.241455078125E-4,0,0,0,405129,188303,16768704,68785,141037,16759384,12997,5825,Tag0,unknown
1605701337354,200,-228,-5.0097656250000005E-5,0,0,0,405129,188303,16768704,68785,141037,16759384,12997,5825,Tag0,unknown
1605701337370,200,-180,-3.955078125E-5,0,0,0,405129,188303,16768704,68785,141037,16759384,12997,5825,Tag0,unknown
1605701337389,200,-246,-5.4052734375E-5,0,0,0,405129,188303,16768704,68785,141037,16759384,12997,5825,Tag0,unknown
1605701337406,200,-468,-1.0283203124999999E-4,0,0,0,405129,188303,16768704,68785,141037,16759384,12997,5825,Tag0,unknown
1605701337424,200,-370,-8.1298828125E-5,0,0,0,405129,188303,16768704,68785,141037,16759384,12997,5825,Tag0,unknown
1605701337482,200,-317,-6.96533203125E-5,0,0,0,405129,188303,16768704,68785,141037,16759384,12997,5825,Tag0,unknown
1605701337494,200,-251,-5.5151367187500004E-5,0,0,0,405129,188303,16768704,68785,141037,16759384,12997,5825,Tag0,unknown
