timestampMs,poorSignal,eegRawValue,eegRawValueVolts,attention,meditation,blinkStrength,delta,theta,alphaLow,alphaHigh,betaLow,betaHigh,gammaLow,gammaMid,tagEvent,location
1610202165226,200,293,6.43798828125E-5,0,0,56,1346536,108119,13884,1891,5605,18814,6096,9183,Tag0,unknown
1610202165258,200,66,1.4501953125E-5,0,0,56,1346536,108119,13884,1891,5605,18814,6096,9183,Tag0,unknown
1610202165276,200,125,2.74658203125E-5,0,0,56,1346536,108119,13884,1891,5605,18814,6096,9183,Tag0,unknown
1610202165302,200,-118,-2.5927734375E-5,0,0,56,1346536,108119,13884,1891,5605,18814,6096,9183,Tag0,unknown
1610202165326,200,60,1.318359375E-5,0,0,56,1346536,108119,13884,1891,5605,18814,6096,9183,Tag0,unknown
1610202165342,200,49,1.07666015625E-5,0,0,56,1346536,108119,13884,1891,5605,18814,6096,9183,Tag0,unknown
1610202165376,200,39,8.5693359375E-6,0,0,56,1346536,108119,13884,1891,5605,18814,6096,9183,Tag0,unknown
1610202165392,200,25,5.4931640625E-6,0,0,56,1346536,108119,13884,1891,5605,18814,6096,9183,Tag0,unknown
1610202165425,200,-100,-2.197265625E-5,0,0,56,1346536,108119,13884,1891,5605,18814,6096,9183,Tag0,unknown
1610202165443,200,-266,-5.8447265625E-5,0,0,56,1346536,108119,13884,1891,5605,18814,6096,9183,Tag0,unknown
1610202165466,200,81,1.77978515625E-5,0,0,56,1346536,108119,13884,1891,5605,18814,6096,9183,Tag0,unknown
1610202165476,200,36,7.91015625E-6,0,0,56,1346536,108119,13884,1891,5605,18814,6096,9183,Tag0,unknown
1610202165500,200,4,8.7890625E-7,0,0,56,1346536,108119,13884,1891,5605,18814,6096,9183,Tag0,unknown
1610202165510,200,26,5.712890625E-6,0,0,56,1346536,108119,13884,1891,5605,18814,6096,9183,Tag0,unknown
1610202165538,200,51,1.1206054687499999E-5,0,0,56,1346536,108119,13884,1891,5605,18814,6096,9183,Tag0,unknown
1610202165571,200,-273,-5.998535156250001E-5,0,0,56,1346536,108119,13884,1891,5605,18814,6096,9183,Tag0,unknown
1610202165593,200,-96,-2.109375E-5,0,0,56,1346536,108119,13884,1891,5605,18814,6096,9183,Tag0,unknown
1610202165627,200,294,6.4599609375E-5,0,0,56,1346536,108119,13884,1891,5605,18814,6096,9183,Tag0,unknown
1610202165643,200,289,6.35009765625E-5,0,0,56,1346536,108119,13884,1891,5605,18814,6096,9183,Tag0,unknown
1610202165676,200,-267,-5.86669921875E-5,0,0,56,1346536,108119,13884,1891,5605,18814,6096,9183,Tag0,unknown
1610202165693,200,-273,-5.998535156250001E-5,0,0,56,1346536,108119,13884,1891,5605,18814,6096,9183,Tag0,unknown
1610202165715,200,-381,-8.371582031250001E-5,0,0,56,1346536,108119,13884,1891,5605,18814,6096,9183,Tag0,unknown
1610202165731,200,-369,-8.10791015625E-5,0,0,56,1346536,108119,13884,1891,5605,18814,6096,9183,Tag0,unknown
1610202165752,200,5,1.0986328125E-6,0,0,56,1346536,108119,13884,1891,5605,18814,6096,9183,Tag0,unknown
1610202165764,200,1,2.197265625E-7,0,0,56,1346536,108119,13884,1891,5605,18814,6096,9183,Tag0,unknown
1610202165774,200,295,6.48193359375E-5,0,0,56,1346536,108119,13884,1891,5605,18814,6096,9183,Tag0,unknown
1610202165797,200,279,6.13037109375E-5,0,0,56,1281260,1155057,28665,16768683,16749270,83479,16765344,74157,Tag0,unknown
1610202165815,200,294,6.4599609375E-5,0,0,56,1281260,1155057,28665,16768683,16749270,83479,16765344,74157,Tag0,unknown
1610202165833,200,-517,-1.135986328125E-4,0,0,56,1281260,1155057,28665,16768683,16749270,83479,16765344,74157,Tag0,unknown
1610202165846,200,-516,-1.1337890625000001E-4,0,0,56,1281260,1155057,28665,16768683,16749270,83479,16765344,74157,Tag0,unknown
1610202165863,200,-459,-1.008544921875E-4,0,0,56,1281260,1155057,28665,16768683,16749270,83479,16765344,74157,Tag0,unknown
1610202165879,200,-573,-1.259033203125E-4,0,0,56,1281260,1155057,28665,16768683,16749270,83479,16765344,74157,Tag0,unknown
1610202165902,200,-530,-1.16455078125E-4,0,0,56,1281260,1155057,28665,16768683,16749270,83479,16765344,74157,Tag0,unknown
1610202165912,200,-228,-5.0097656250000005E-5,0,0,56,1281260,1155057,28665,16768683,16749270,83479,16765344,74157,Tag0,unknown
1610202165936,200,-348,-7.646484375E-5,0,0,56,1281260,1155057,28665,16768683,16749270,83479,16765344,74157,Tag0,unknown
1610202165948,200,-296,-6.50390625E-5,0,0,56,1281260,1155057,28665,16768683,16749270,83479,16765344,74157,Tag0,unknown
1610202165958,200,313,6.87744140625E-5,0,0,56,1281260,1155057,28665,16768683,16749270,83479,16765344,74157,Tag0,unknown
1610202165981,200,321,7.053222656250001E-5,0,0,56,1281260,1155057,28665,16768683,16749270,83479,16765344,74157,Tag0,unknown
1610202165997,200,264,5.80078125E-5,0,0,56,1281260,1155057,28665,16768683,16749270,83479,16765344,74157,Tag0,unknown
1610202166054,200,-4,-8.7890625E-7,0,0,56,1281260,1155057,28665,16768683,16749270,83479,16765344,74157,Tag0,unknown
1610202166065,200,-35,-7.6904296875E-6,0,0,56,1281260,1155057,28665,16768683,16749270,83479,16765344,74157,Tag0,unknown
1610202166080,200,-15,-3.2958984375E-6,0,0,56,1281260,1155057,28665,16768683,16749270,83479,16765344,74157,Tag0,unknown
1610202166090,200,-104,-2.28515625E-5,0,0,56,1281260,1155057,28665,16768683,16749270,83479,16765344,74157,Tag0,unknown
1610202166129,200,123,2.70263671875E-5,0,0,56,1281260,1155057,28665,16768683,16749270,83479,16765344,74157,Tag0,unknown
1610202166146,200,115,2.52685546875E-5,0,0,56,1281260,1155057,28665,16768683,16749270,83479,16765344,74157,Tag0,unknown
1610202166156,200,9,1.9775390625E-6,0,0,56,1281260,1155057,28665,16768683,16749270,83479,16765344,74157,Tag0,unknown
1610202166184,200,-324,-7.119140625E-5,0,0,56,1281260,1155057,28665,16768683,16749270,83479,16765344,74157,Tag0,unknown
1610202166195,200,-333,-7.316894531249999E-5,0,0,56,1281260,1155057,28665,16768683,16749270,83479,16765344,74157,Tag0,unknown
1610202166213,200,-131,-2.87841796875E-5,0,0,56,1281260,1155057,28665,16768683,16749270,83479,16765344,74157,Tag0,unknown
1610202166230,200,3,6.591796875E-7,0,0,56,1281260,1155057,28665,16768683,16749270,83479,16765344,74157,Tag0,unknown
1610202166240,200,-361,-7.93212890625E-5,0,0,56,1281260,1155057,28665,16768683,16749270,83479,16765344,74157,Tag0,unknown
1610202166250,200,-273,-5.998535156250001E-5,0,0,56,1281260,1155057,28665,16768683,16749270,83479,16765344,74157,Tag0,unknown
1610202166277,200,-363,-7.97607421875E-5,0,0,56,1281260,1155057,28665,16768683,16749270,83479,16765344,74157,Tag0,unknown
1610202166296,200,-341,-7.492675781250002E-5,0,0,56,1281260,1155057,28665,16768683,16749270,83479,16765344,74157,Tag0,unknown
1610202166306,200,75,1.64794921875E-5,0,0,56,1281260,1155057,28665,16768683,16749270,83479,16765344,74157,Tag0,unknown
1610202166330,200,-372,-8.173828125E-5,0,0,56,1281260,1155057,28665,16768683,16749270,83479,16765344,74157,Tag0,unknown
1610202166356,200,-299,-6.56982421875E-5,0,0,56,1281260,1155057,28665,16768683,16749270,83479,16765344,74157,Tag0,unknown
1610202166366,200,50,1.0986328125E-5,0,0,56,1281260,1155057,28665,16768683,16749270,83479,16765344,74157,Tag0,unknown
1610202166381,200,107,2.35107421875E-5,0,0,56,1281260,1155057,28665,16768683,16749270,83479,16765344,74157,Tag0,unknown
1610202166396,200,-373,-8.19580078125E-5,0,0,56,1281260,1155057,28665,16768683,16749270,83479,16765344,74157,Tag0,unknown
1610202166411,200,-371,-8.151855468750001E-5,0,0,56,1281260,1155057,28665,16768683,16749270,83479,16765344,74157,Tag0,unknown
1610202166433,200,-77,-1.69189453125E-5,0,0,56,1281260,1155057,28665,16768683,16749270,83479,16765344,74157,Tag0,unknown
1610202166445,200,-120,-2.63671875E-5,0,0,56,1281260,1155057,28665,16768683,16749270,83479,16765344,74157,Tag0,unknown
1610202166467,200,35,7.6904296875E-6,0,0,56,1281260,1155057,28665,16768683,16749270,83479,16765344,74157,Tag0,unknown
1610202166479,200,108,2.3730468750000002E-5,0,0,56,1281260,1155057,28665,16768683,16749270,83479,16765344,74157,Tag0,unknown
1610202166504,200,315,6.92138671875E-5,0,0,56,1281260,1155057,28665,16768683,16749270,83479,16765344,74157,Tag0,unknown
1610202166514,200,-93,-2.04345703125E-5,0,0,56,1281260,1155057,28665,16768683,16749270,83479,16765344,74157,Tag0,unknown
1610202166543,200,361,7.93212890625E-5,0,0,56,1281260,1155057,28665,16768683,16749270,83479,16765344,74157,Tag0,unknown
1610202166563,200,169,3.7133789062499996E-5,0,0,56,1281260,1155057,28665,16768683,16749270,83479,16765344,74157,Tag0,unknown
1610202166573,200,612,1.3447265625000002E-4,0,0,56,1281260,1155057,28665,16768683,16749270,83479,16765344,74157,Tag0,unknown
1610202166597,200,531,1.1667480468750001E-4,0,0,56,1281260,1155057,28665,16768683,16749270,83479,16765344,74157,Tag0,unknown
1610202166614,200,327,7.18505859375E-5,0,0,56,1281260,1155057,28665,16768683,16749270,83479,16765344,74157,Tag0,unknown
1610202166630,200,265,5.82275390625E-5,0,0,56,1281260,1155057,28665,16768683,16749270,83479,16765344,74157,Tag0,unknown
1610202166645,200,358,7.8662109375E-5,0,0,56,1281260,1155057,28665,16768683,16749270,83479,16765344,74157,Tag0,unknown
1610202166662,200,-58,-1.2744140625E-5,0,0,56,1281260,1155057,28665,16768683,16749270,83479,16765344,74157,Tag0,unknown
1610202166689,200,-339,-7.448730468750001E-5,0,0,56,1281260,1155057,28665,16768683,16749270,83479,16765344,74157,Tag0,unknown
1610202166699,200,-513,-1.127197265625E-4,0,0,56,1281260,1155057,28665,16768683,16749270,83479,16765344,74157,Tag0,unknown
1610202166712,200,-489,-1.0744628906250001E-4,0,0,56,1281260,1155057,28665,16768683,16749270,83479,16765344,74157,Tag0,unknown
1610202166729,200,-427,-9.382324218750001E-5,0,0,56,1281260,1155057,28665,16768683,16749270,83479,16765344,74157,Tag0,unknown
1610202166746,200,-466,-1.0239257812500001E-4,0,0,56,1281260,1155057,28665,16768683,16749270,83479,16765344,74157,Tag0,unknown
1610202166768,200,-237,-5.2075195312500004E-5,0,0,56,1281260,1155057,28665,16768683,16749270,83479,16765344,74157,Tag0,unknown
1610202166781,200,-296,-6.50390625E-5,0,0,56,1920877,93057,54287,16769218,16748326,20860,21240,6747,Tag0,unknown
1610202166804,200,-319,-7.00927734375E-5,0,0,56,1920877,93057,54287,16769218,16748326,20860,21240,6747,Tag0,unknown
1610202166814,200,-264,-5.80078125E-5,0,0,56,1920877,93057,54287,16769218,16748326,20860,21240,6747,Tag0,unknown
1610202166830,200,-321,-7.053222656250001E-5,0,0,56,1920877,93057,54287,16769218,16748326,20860,21240,6747,Tag0,unknown
1610202166847,200,-257,-5.64697265625E-5,0,0,56,1920877,93057,54287,16769218,16748326,20860,21240,6747,Tag0,unknown
1610202166877,200,-346,-7.6025390625E-5,0,0,56,1920877,93057,54287,16769218,16748326,20860,21240,6747,Tag0,unknown
1610202166896,200,-288,-6.328125E-5,0,0,56,1920877,93057,54287,16769218,16748326,20860,21240,6747,Tag0,unknown
1610202166923,200,-90,-1.9775390625E-5,0,0,56,1920877,93057,54287,16769218,16748326,20860,21240,6747,Tag0,unknown
1610202166933,200,-51,-1.1206054687499999E-5,0,0,56,1920877,93057,54287,16769218,16748326,20860,21240,6747,Tag0,unknown
1610202166947,200,107,2.35107421875E-5,0,0,56,1920877,93057,54287,16769218,16748326,20860,21240,6747,Tag0,unknown
1610202166963,200,52,1.142578125E-5,0,0,56,1920877,93057,54287,16769218,16748326,20860,21240,6747,Tag0,unknown
1610202166989,200,-339,-7.448730468750001E-5,0,0,56,1920877,93057,54287,16769218,16748326,20860,21240,6747,Tag0,unknown
1610202166999,200,-377,-8.28369140625E-5,0,0,56,1920877,93057,54287,16769218,16748326,20860,21240,6747,Tag0,unknown
1610202167028,200,-313,-6.87744140625E-5,0,0,56,1920877,93057,54287,16769218,16748326,20860,21240,6747,Tag0,unknown
1610202167046,200,-349,-7.668457031250001E-5,0,0,56,1920877,93057,54287,16769218,16748326,20860,21240,6747,Tag0,unknown
1610202167066,200,-147,-3.22998046875E-5,0,0,56,1920877,93057,54287,16769218,16748326,20860,21240,6747,Tag0,unknown
1610202167080,200,-188,-4.1308593750000004E-5,0,0,56,1920877,93057,54287,16769218,16748326,20860,21240,6747,Tag0,unknown
1610202167090,200,44,9.66796875E-6,0,0,56,1920877,93057,54287,16769218,16748326,20860,21240,6747,Tag0,unknown
1610202167109,200,-294,-6.4599609375E-5,0,0,56,1920877,93057,54287,16769218,16748326,20860,21240,6747,Tag0,unknown
1610202167119,200,85,1.86767578125E-5,0,0,56,1920877,93057,54287,16769218,16748326,20860,21240,6747,Tag0,unknown
1610202167129,200,-126,-2.7685546875E-5,0,0,56,1920877,93057,54287,16769218,16748326,20860,21240,6747,Tag0,unknown
1610202167148,200,123,2.70263671875E-5,0,0,56,1920877,93057,54287,16769218,16748326,20860,21240,6747,Tag0,unknown
1610202167164,200,-16,-3.515625E-6,0,0,56,1920877,93057,54287,16769218,16748326,20860,21240,6747,Tag0,unknown
1610202167182,200,-116,-2.548828125E-5,0,0,56,1920877,93057,54287,16769218,16748326,20860,21240,6747,Tag0,unknown
1610202167197,200,-120,-2.63671875E-5,0,0,56,1920877,93057,54287,16769218,16748326,20860,21240,6747,Tag0,unknown
1610202167215,200,37,8.1298828125E-6,0,0,56,1920877,93057,54287,16769218,16748326,20860,21240,6747,Tag0,unknown
1610202167231,200,-263,-5.7788085937500005E-5,0,0,56,1920877,93057,54287,16769218,16748326,20860,21240,6747,Tag0,unknown
1610202167241,200,39,8.5693359375E-6,0,0,56,1920877,93057,54287,16769218,16748326,20860,21240,6747,Tag0,unknown
1610202167265,200,122,2.6806640625E-5,0,0,56,1920877,93057,54287,16769218,16748326,20860,21240,6747,Tag0,unknown
1610202167280,200,-46,-1.0107421875E-5,0,0,56,1920877,93057,54287,16769218,16748326,20860,21240,6747,Tag0,unknown
1610202167299,200,-90,-1.9775390625E-5,0,0,56,1920877,93057,54287,16769218,16748326,20860,21240,6747,Tag0,unknown
1610202167312,200,-72,-1.58203125E-5,0,0,56,1920877,93057,54287,16769218,16748326,20860,21240,6747,Tag0,unknown
1610202167332,200,121,2.6586914062500003E-5,0,0,56,1920877,93057,54287,16769218,16748326,20860,21240,6747,Tag0,unknown
1610202167347,200,-57,-1.2524414062500001E-5,0,0,56,1920877,93057,54287,16769218,16748326,20860,21240,6747,Tag0,unknown
1610202167357,200,-304,-6.6796875E-5,0,0,56,1920877,93057,54287,16769218,16748326,20860,21240,6747,Tag0,unknown
1610202167374,200,88,1.93359375E-5,0,0,56,1920877,93057,54287,16769218,16748326,20860,21240,6747,Tag0,unknown
1610202167384,200,-297,-6.525878906250001E-5,0,0,56,1920877,93057,54287,16769218,16748326,20860,21240,6747,Tag0,unknown
1610202167407,200,-260,-5.712890625E-5,0,0,56,1920877,93057,54287,16769218,16748326,20860,21240,6747,Tag0,unknown
1610202167417,200,54,1.1865234375000001E-5,0,0,56,1920877,93057,54287,16769218,16748326,20860,21240,6747,Tag0,unknown
1610202167430,200,-355,-7.80029296875E-5,0,0,56,1920877,93057,54287,16769218,16748326,20860,21240,6747,Tag0,unknown
1610202167448,200,-857,-1.8830566406250002E-4,0,0,56,1920877,93057,54287,16769218,16748326,20860,21240,6747,Tag0,unknown
1610202167463,200,-741,-1.6281738281249998E-4,0,0,56,1920877,93057,54287,16769218,16748326,20860,21240,6747,Tag0,unknown
1610202167479,200,-1565,-3.438720703125E-4,0,0,56,1920877,93057,54287,16769218,16748326,20860,21240,6747,Tag0,unknown
1610202167496,200,-1572,-3.4541015625E-4,0,0,56,1920877,93057,54287,16769218,16748326,20860,21240,6747,Tag0,unknown
1610202167519,200,-378,-8.3056640625E-5,0,0,56,1920877,93057,54287,16769218,16748326,20860,21240,6747,Tag0,unknown
1610202167529,200,340,7.470703125E-5,0,0,56,1920877,93057,54287,16769218,16748326,20860,21240,6747,Tag0,unknown
1610202167556,200,1791,3.935302734375E-4,0,0,56,1920877,93057,54287,16769218,16748326,20860,21240,6747,Tag0,unknown
1610202167566,200,1791,3.935302734375E-4,0,0,56,1920877,93057,54287,16769218,16748326,20860,21240,6747,Tag0,unknown
1610202167594,200,23,5.0537109375E-6,0,0,56,1920877,93057,54287,16769218,16748326,20860,21240,6747,Tag0,unknown
1610202167613,200,27,5.9326171875000005E-6,0,0,56,1920877,93057,54287,16769218,16748326,20860,21240,6747,Tag0,unknown
1610202167630,200,137,3.0102539062499998E-5,0,0,56,1920877,93057,54287,16769218,16748326,20860,21240,6747,Tag0,unknown
1610202167647,200,210,4.6142578125E-5,0,0,56,1920877,93057,54287,16769218,16748326,20860,21240,6747,Tag0,unknown
1610202167674,200,-155,-3.40576171875E-5,0,0,56,1920877,93057,54287,16769218,16748326,20860,21240,6747,Tag0,unknown
1610202167685,200,7,1.5380859375E-6,0,0,56,1920877,93057,54287,16769218,16748326,20860,21240,6747,Tag0,unknown
1610202167696,200,434,9.5361328125E-5,0,0,56,1920877,93057,54287,16769218,16748326,20860,21240,6747,Tag0,unknown
1610202167713,200,480,1.0546875E-4,0,0,56,1920877,93057,54287,16769218,16748326,20860,21240,6747,Tag0,unknown
1610202167739,200,387,8.50341796875E-5,0,0,56,1920877,93057,54287,16769218,16748326,20860,21240,6747,Tag0,unknown
1610202167750,200,130,2.8564453125E-5,0,0,56,1920877,93057,54287,16769218,16748326,20860,21240,6747,Tag0,unknown
1610202167779,200,-91,-1.99951171875E-5,0,0,56,1920877,93057,54287,16769218,16748326,20860,21240,6747,Tag0,unknown
1610202167799,200,77,1.69189453125E-5,0,0,56,1920877,93057,54287,16769218,16748326,20860,21240,6747,Tag0,unknown
1610202167809,200,-389,-8.54736328125E-5,0,0,56,792167,206366,12463,14244,16748396,10769,4955,3774,Tag0,unknown
1610202167822,200,-961,-2.111572265625E-4,0,0,56,792167,206366,12463,14244,16748396,10769,4955,3774,Tag0,unknown
1610202167834,200,-1111,-2.441162109375E-4,0,0,56,792167,206366,12463,14244,16748396,10769,4955,3774,Tag0,unknown
1610202167855,200,-99,-2.1752929687500003E-5,0,0,56,792167,206366,12463,14244,16748396,10769,4955,3774,Tag0,unknown
1610202167865,200,279,6.13037109375E-5,0,0,56,792167,206366,12463,14244,16748396,10769,4955,3774,Tag0,unknown
1610202167887,200,-69,-1.51611328125E-5,0,0,56,792167,206366,12463,14244,16748396,10769,4955,3774,Tag0,unknown
1610202167897,200,-3,-6.591796875E-7,0,0,56,792167,206366,12463,14244,16748396,10769,4955,3774,Tag0,unknown
1610202167913,200,27,5.9326171875000005E-6,0,0,56,792167,206366,12463,14244,16748396,10769,4955,3774,Tag0,unknown
1610202167930,200,72,1.58203125E-5,0,0,56,792167,206366,12463,14244,16748396,10769,4955,3774,Tag0,unknown
1610202167946,200,-82,-1.8017578124999998E-5,0,0,56,792167,206366,12463,14244,16748396,10769,4955,3774,Tag0,unknown
1610202167963,200,-7,-1.5380859375E-6,0,0,56,792167,206366,12463,14244,16748396,10769,4955,3774,Tag0,unknown
1610202167979,200,366,8.0419921875E-5,0,0,56,792167,206366,12463,14244,16748396,10769,4955,3774,Tag0,unknown
1610202168002,200,245,5.38330078125E-5,0,0,56,792167,206366,12463,14244,16748396,10769,4955,3774,Tag0,unknown
1610202168013,200,313,6.87744140625E-5,0,0,56,792167,206366,12463,14244,16748396,10769,4955,3774,Tag0,unknown
1610202168023,200,-55,-1.20849609375E-5,0,0,56,792167,206366,12463,14244,16748396,10769,4955,3774,Tag0,unknown
1610202168033,200,44,9.66796875E-6,0,0,56,792167,206366,12463,14244,16748396,10769,4955,3774,Tag0,unknown
1610202168047,200,84,1.8457031250000004E-5,0,0,56,792167,206366,12463,14244,16748396,10769,4955,3774,Tag0,unknown
1610202168064,200,-42,-9.228515625000002E-6,0,0,56,792167,206366,12463,14244,16748396,10769,4955,3774,Tag0,unknown
1610202168081,200,331,7.272949218750001E-5,0,0,56,792167,206366,12463,14244,16748396,10769,4955,3774,Tag0,unknown
1610202168097,200,381,8.371582031250001E-5,0,0,56,792167,206366,12463,14244,16748396,10769,4955,3774,Tag0,unknown
1610202168124,200,-218,-4.7900390625E-5,0,0,56,792167,206366,12463,14244,16748396,10769,4955,3774,Tag0,unknown
1610202168134,200,-545,-1.197509765625E-4,0,0,56,792167,206366,12463,14244,16748396,10769,4955,3774,Tag0,unknown
1610202168146,200,-218,-4.7900390625E-5,0,0,56,792167,206366,12463,14244,16748396,10769,4955,3774,Tag0,unknown
1610202168163,200,-622,-1.3666992187500002E-4,0,0,56,792167,206366,12463,14244,16748396,10769,4955,3774,Tag0,unknown
1610202168192,200,-617,-1.355712890625E-4,0,0,56,792167,206366,12463,14244,16748396,10769,4955,3774,Tag0,unknown
1610202168202,200,-524,-1.1513671875E-4,0,0,56,792167,206366,12463,14244,16748396,10769,4955,3774,Tag0,unknown
1610202168229,200,-611,-1.3425292968749999E-4,0,0,56,792167,206366,12463,14244,16748396,10769,4955,3774,Tag0,unknown
1610202168246,200,-578,-1.27001953125E-4,0,0,56,792167,206366,12463,14244,16748396,10769,4955,3774,Tag0,unknown
1610202168256,200,89,1.95556640625E-5,0,0,56,792167,206366,12463,14244,16748396,10769,4955,3774,Tag0,unknown
1610202168267,200,-7,-1.5380859375E-6,0,0,56,792167,206366,12463,14244,16748396,10769,4955,3774,Tag0,unknown
1610202168280,200,329,7.229003906250001E-5,0,0,56,792167,206366,12463,14244,16748396,10769,4955,3774,Tag0,unknown
1610202168302,200,273,5.998535156250001E-5,0,0,56,792167,206366,12463,14244,16748396,10769,4955,3774,Tag0,unknown
1610202168314,200,289,6.35009765625E-5,0,0,56,792167,206366,12463,14244,16748396,10769,4955,3774,Tag0,unknown
1610202168338,200,275,6.04248046875E-5,0,0,56,792167,206366,12463,14244,16748396,10769,4955,3774,Tag0,unknown
1610202168348,200,71,1.56005859375E-5,0,0,56,792167,206366,12463,14244,16748396,10769,4955,3774,Tag0,unknown
1610202168379,200,-120,-2.63671875E-5,0,0,56,792167,206366,12463,14244,16748396,10769,4955,3774,Tag0,unknown
1610202168396,200,71,1.56005859375E-5,0,0,56,792167,206366,12463,14244,16748396,10769,4955,3774,Tag0,unknown
1610202168406,200,-300,-6.591796875E-5,0,0,56,792167,206366,12463,14244,16748396,10769,4955,3774,Tag0,unknown
1610202168416,200,-328,-7.207031249999999E-5,0,0,56,792167,206366,12463,14244,16748396,10769,4955,3774,Tag0,unknown
1610202168431,200,19,4.1748046875E-6,0,0,56,792167,206366,12463,14244,16748396,10769,4955,3774,Tag0,unknown
1610202168462,200,-125,-2.74658203125E-5,0,0,56,792167,206366,12463,14244,16748396,10769,4955,3774,Tag0,unknown
1610202168480,200,97,2.13134765625E-5,0,0,56,792167,206366,12463,14244,16748396,10769,4955,3774,Tag0,unknown
1610202168497,200,-99,-2.1752929687500003E-5,0,0,56,792167,206366,12463,14244,16748396,10769,4955,3774,Tag0,unknown
1610202168513,200,110,2.4169921875E-5,0,0,56,792167,206366,12463,14244,16748396,10769,4955,3774,Tag0,unknown
1610202168534,200,316,6.943359375000001E-5,0,0,56,792167,206366,12463,14244,16748396,10769,4955,3774,Tag0,unknown
1610202168548,200,294,6.4599609375E-5,0,0,56,792167,206366,12463,14244,16748396,10769,4955,3774,Tag0,unknown
1610202168563,200,-109,-2.39501953125E-5,0,0,56,792167,206366,12463,14244,16748396,10769,4955,3774,Tag0,unknown
1610202168581,200,-117,-2.5708007812499998E-5,0,0,56,792167,206366,12463,14244,16748396,10769,4955,3774,Tag0,unknown
1610202168598,200,113,2.48291015625E-5,0,0,56,792167,206366,12463,14244,16748396,10769,4955,3774,Tag0,unknown
1610202168613,200,83,1.82373046875E-5,0,0,56,792167,206366,12463,14244,16748396,10769,4955,3774,Tag0,unknown
1610202168631,200,105,2.30712890625E-5,0,0,56,792167,206366,12463,14244,16748396,10769,4955,3774,Tag0,unknown
1610202168647,200,32,7.03125E-6,0,0,56,792167,206366,12463,14244,16748396,10769,4955,3774,Tag0,unknown
1610202168657,200,5,1.0986328125E-6,0,0,56,792167,206366,12463,14244,16748396,10769,4955,3774,Tag0,unknown
1610202168677,200,120,2.63671875E-5,0,0,56,792167,206366,12463,14244,16748396,10769,4955,3774,Tag0,unknown
1610202168696,200,98,2.1533203125E-5,0,0,56,792167,206366,12463,14244,16748396,10769,4955,3774,Tag0,unknown
1610202168712,200,56,1.23046875E-5,0,0,56,792167,206366,12463,14244,16748396,10769,4955,3774,Tag0,unknown
1610202168730,200,90,1.9775390625E-5,0,0,56,792167,206366,12463,14244,16748396,10769,4955,3774,Tag0,unknown
1610202168753,200,17,3.7353515625000003E-6,0,0,56,792167,206366,12463,14244,16748396,10769,4955,3774,Tag0,unknown
1610202168763,200,-295,-6.48193359375E-5,0,0,56,792167,206366,12463,14244,16748396,10769,4955,3774,Tag0,unknown
1610202168783,200,-635,-1.395263671875E-4,0,0,56,2205001,65720,16758105,16765572,34671,17757,21547,8475,Tag0,unknown
1610202168797,200,-401,-8.811035156250001E-5,0,0,56,2205001,65720,16758105,16765572,34671,17757,21547,8475,Tag0,unknown
1610202168828,200,-382,-8.3935546875E-5,0,0,56,2205001,65720,16758105,16765572,34671,17757,21547,8475,Tag0,unknown
1610202168846,200,-167,-3.6694335937500004E-5,0,0,56,2205001,65720,16758105,16765572,34671,17757,21547,8475,Tag0,unknown
1610202168856,200,114,2.5048828125000003E-5,0,0,56,2205001,65720,16758105,16765572,34671,17757,21547,8475,Tag0,unknown
1610202168868,200,71,1.56005859375E-5,0,0,56,2205001,65720,16758105,16765572,34671,17757,21547,8475,Tag0,unknown
1610202168880,200,-71,-1.56005859375E-5,0,0,56,2205001,65720,16758105,16765572,34671,17757,21547,8475,Tag0,unknown
1610202168903,200,-68,-1.4941406250000001E-5,0,0,56,2205001,65720,16758105,16765572,34671,17757,21547,8475,Tag0,unknown
1610202168913,200,-47,-1.0327148437500001E-5,0,0,56,2205001,65720,16758105,16765572,34671,17757,21547,8475,Tag0,unknown
1610202168923,200,309,6.78955078125E-5,0,0,56,2205001,65720,16758105,16765572,34671,17757,21547,8475,Tag0,unknown
1610202168939,200,273,5.998535156250001E-5,0,0,56,2205001,65720,16758105,16765572,34671,17757,21547,8475,Tag0,unknown
1610202168949,200,137,3.0102539062499998E-5,0,0,56,2205001,65720,16758105,16765572,34671,17757,21547,8475,Tag0,unknown
1610202168978,200,248,5.44921875E-5,0,0,56,2205001,65720,16758105,16765572,34671,17757,21547,8475,Tag0,unknown
1610202168997,200,231,5.07568359375E-5,0,0,56,2205001,65720,16758105,16765572,34671,17757,21547,8475,Tag0,unknown
1610202169016,200,375,8.23974609375E-5,0,0,56,2205001,65720,16758105,16765572,34671,17757,21547,8475,Tag0,unknown
1610202169031,200,144,3.1640625E-5,0,0,56,2205001,65720,16758105,16765572,34671,17757,21547,8475,Tag0,unknown
1610202169041,200,-115,-2.52685546875E-5,0,0,56,2205001,65720,16758105,16765572,34671,17757,21547,8475,Tag0,unknown
1610202169054,200,-301,-6.613769531250001E-5,0,0,56,2205001,65720,16758105,16765572,34671,17757,21547,8475,Tag0,unknown
1610202169064,200,-304,-6.6796875E-5,0,0,56,2205001,65720,16758105,16765572,34671,17757,21547,8475,Tag0,unknown
1610202169088,200,-188,-4.1308593750000004E-5,0,0,56,2205001,65720,16758105,16765572,34671,17757,21547,8475,Tag0,unknown
1610202169099,200,-312,-6.85546875E-5,0,0,56,2205001,65720,16758105,16765572,34671,17757,21547,8475,Tag0,unknown
1610202169113,200,-327,-7.18505859375E-5,0,0,56,2205001,65720,16758105,16765572,34671,17757,21547,8475,Tag0,unknown
1610202169135,200,-263,-5.7788085937500005E-5,0,0,56,2205001,65720,16758105,16765572,34671,17757,21547,8475,Tag0,unknown
1610202169147,200,-281,-6.17431640625E-5,0,0,56,2205001,65720,16758105,16765572,34671,17757,21547,8475,Tag0,unknown
1610202169163,200,91,1.99951171875E-5,0,0,56,2205001,65720,16758105,16765572,34671,17757,21547,8475,Tag0,unknown
1610202169180,200,9,1.9775390625E-6,0,0,56,2205001,65720,16758105,16765572,34671,17757,21547,8475,Tag0,unknown
1610202169197,200,-44,-9.66796875E-6,0,0,56,2205001,65720,16758105,16765572,34671,17757,21547,8475,Tag0,unknown
1610202169213,200,40,8.7890625E-6,0,0,56,2205001,65720,16758105,16765572,34671,17757,21547,8475,Tag0,unknown
1610202169241,200,-127,-2.79052734375E-5,0,0,56,2205001,65720,16758105,16765572,34671,17757,21547,8475,Tag0,unknown
1610202169263,200,77,1.69189453125E-5,0,0,56,2205001,65720,16758105,16765572,34671,17757,21547,8475,Tag0,unknown
1610202169283,200,-57,-1.2524414062500001E-5,0,0,56,2205001,65720,16758105,16765572,34671,17757,21547,8475,Tag0,unknown
1610202169297,200,-63,-1.38427734375E-5,0,0,56,2205001,65720,16758105,16765572,34671,17757,21547,8475,Tag0,unknown
1610202169323,200,-301,-6.613769531250001E-5,0,0,56,2205001,65720,16758105,16765572,34671,17757,21547,8475,Tag0,unknown
1610202169333,200,85,1.86767578125E-5,0,0,56,2205001,65720,16758105,16765572,34671,17757,21547,8475,Tag0,unknown
1610202169356,200,82,1.8017578124999998E-5,0,0,56,2205001,65720,16758105,16765572,34671,17757,21547,8475,Tag0,unknown
1610202169366,200,12,2.63671875E-6,0,0,56,2205001,65720,16758105,16765572,34671,17757,21547,8475,Tag0,unknown
1610202169380,200,18,3.955078125E-6,0,0,56,2205001,65720,16758105,16765572,34671,17757,21547,8475,Tag0,unknown
1610202169398,200,-99,-2.1752929687500003E-5,0,0,56,2205001,65720,16758105,16765572,34671,17757,21547,8475,Tag0,unknown
1610202169415,200,105,2.30712890625E-5,0,0,56,2205001,65720,16758105,16765572,34671,17757,21547,8475,Tag0,unknown
1610202169452,200,1,2.197265625E-7,0,0,56,2205001,65720,16758105,16765572,34671,17757,21547,8475,Tag0,unknown
1610202169463,200,27,5.9326171875000005E-6,0,0,56,2205001,65720,16758105,16765572,34671,17757,21547,8475,Tag0,unknown
1610202169473,200,120,2.63671875E-5,0,0,56,2205001,65720,16758105,16765572,34671,17757,21547,8475,Tag0,unknown
1610202169503,200,83,1.82373046875E-5,0,0,56,2205001,65720,16758105,16765572,34671,17757,21547,8475,Tag0,unknown
1610202169514,200,69,1.51611328125E-5,0,0,56,2205001,65720,16758105,16765572,34671,17757,21547,8475,Tag0,unknown
1610202169531,200,-340,-7.470703125E-5,0,0,56,2205001,65720,16758105,16765572,34671,17757,21547,8475,Tag0,unknown
1610202169546,200,-276,-6.064453125E-5,0,0,56,2205001,65720,16758105,16765572,34671,17757,21547,8475,Tag0,unknown
1610202169577,200,117,2.5708007812499998E-5,0,0,56,2205001,65720,16758105,16765572,34671,17757,21547,8475,Tag0,unknown
1610202169596,200,109,2.39501953125E-5,0,0,56,2205001,65720,16758105,16765572,34671,17757,21547,8475,Tag0,unknown
1610202169606,200,-131,-2.87841796875E-5,0,0,56,2205001,65720,16758105,16765572,34671,17757,21547,8475,Tag0,unknown
1610202169616,200,40,8.7890625E-6,0,0,56,2205001,65720,16758105,16765572,34671,17757,21547,8475,Tag0,unknown
1610202169630,200,28,6.15234375E-6,0,0,56,2205001,65720,16758105,16765572,34671,17757,21547,8475,Tag0,unknown
1610202169652,200,-286,-6.2841796875E-5,0,0,56,2205001,65720,16758105,16765572,34671,17757,21547,8475,Tag0,unknown
1610202169663,200,-315,-6.92138671875E-5,0,0,56,2205001,65720,16758105,16765572,34671,17757,21547,8475,Tag0,unknown
1610202169702,200,-64,-1.40625E-5,0,0,56,2205001,65720,16758105,16765572,34671,17757,21547,8475,Tag0,unknown
1610202169712,200,-77,-1.69189453125E-5,0,0,56,2205001,65720,16758105,16765572,34671,17757,21547,8475,Tag0,unknown
1610202169729,200,125,2.74658203125E-5,0,0,56,2205001,65720,16758105,16765572,34671,17757,21547,8475,Tag0,unknown
1610202169746,200,100,2.197265625E-5,0,0,56,2205001,65720,16758105,16765572,34671,17757,21547,8475,Tag0,unknown
1610202169764,200,-53,-1.1645507812500002E-5,0,0,56,361587,16750614,8374,6603,3076,4147,5795,1242,Tag0,unknown
1610202169781,200,21,4.614257812500001E-6,0,0,56,361587,16750614,8374,6603,3076,4147,5795,1242,Tag0,unknown
1610202169802,200,23,5.0537109375E-6,0,0,56,361587,16750614,8374,6603,3076,4147,5795,1242,Tag0,unknown
1610202169816,200,-277,-6.0864257812500005E-5,0,0,56,361587,16750614,8374,6603,3076,4147,5795,1242,Tag0,unknown
1610202169837,200,-68,-1.4941406250000001E-5,0,0,56,361587,16750614,8374,6603,3076,4147,5795,1242,Tag0,unknown
1610202169847,200,-69,-1.51611328125E-5,0,0,56,361587,16750614,8374,6603,3076,4147,5795,1242,Tag0,unknown
1610202169877,200,11,2.4169921875E-6,0,0,56,361587,16750614,8374,6603,3076,4147,5795,1242,Tag0,unknown
1610202169896,200,69,1.51611328125E-5,0,0,56,361587,16750614,8374,6603,3076,4147,5795,1242,Tag0,unknown
1610202169906,200,-111,-2.43896484375E-5,0,0,56,361587,16750614,8374,6603,3076,4147,5795,1242,Tag0,unknown
1610202169925,200,-95,-2.08740234375E-5,0,0,56,361587,16750614,8374,6603,3076,4147,5795,1242,Tag0,unknown
1610202169935,200,72,1.58203125E-5,0,0,56,361587,16750614,8374,6603,3076,4147,5795,1242,Tag0,unknown
1610202169947,200,89,1.95556640625E-5,0,0,56,361587,16750614,8374,6603,3076,4147,5795,1242,Tag0,unknown
1610202169971,200,-258,-5.6689453125000004E-5,0,0,56,361587,16750614,8374,6603,3076,4147,5795,1242,Tag0,unknown
1610202169981,200,37,8.1298828125E-6,0,0,56,361587,16750614,8374,6603,3076,4147,5795,1242,Tag0,unknown
1610202170011,200,-267,-5.86669921875E-5,0,0,56,361587,16750614,8374,6603,3076,4147,5795,1242,Tag0,unknown
1610202170030,200,10,2.197265625E-6,0,0,56,361587,16750614,8374,6603,3076,4147,5795,1242,Tag0,unknown
1610202170040,200,43,9.448242187500001E-6,0,0,56,361587,16750614,8374,6603,3076,4147,5795,1242,Tag0,unknown
1610202170064,200,34,7.4707031250000005E-6,0,0,56,361587,16750614,8374,6603,3076,4147,5795,1242,Tag0,unknown
1610202170082,200,76,1.669921875E-5,0,0,56,361587,16750614,8374,6603,3076,4147,5795,1242,Tag0,unknown
1610202170098,200,2,4.39453125E-7,0,0,56,361587,16750614,8374,6603,3076,4147,5795,1242,Tag0,unknown
1610202170108,200,76,1.669921875E-5,0,0,56,361587,16750614,8374,6603,3076,4147,5795,1242,Tag0,unknown
1610202170118,200,-89,-1.95556640625E-5,0,0,56,361587,16750614,8374,6603,3076,4147,5795,1242,Tag0,unknown
1610202170131,200,-257,-5.64697265625E-5,0,0,56,361587,16750614,8374,6603,3076,4147,5795,1242,Tag0,unknown
1610202170151,200,-267,-5.86669921875E-5,0,0,56,361587,16750614,8374,6603,3076,4147,5795,1242,Tag0,unknown
1610202170164,200,-265,-5.82275390625E-5,0,0,56,361587,16750614,8374,6603,3076,4147,5795,1242,Tag0,unknown
1610202170174,200,121,2.6586914062500003E-5,0,0,56,361587,16750614,8374,6603,3076,4147,5795,1242,Tag0,unknown
1610202170184,200,59,1.29638671875E-5,0,0,56,361587,16750614,8374,6603,3076,4147,5795,1242,Tag0,unknown
1610202170197,200,106,2.3291015625000003E-5,0,0,56,361587,16750614,8374,6603,3076,4147,5795,1242,Tag0,unknown
1610202170217,200,86,1.8896484375000003E-5,0,0,56,361587,16750614,8374,6603,3076,4147,5795,1242,Tag0,unknown
1610202170230,200,58,1.2744140625E-5,0,0,56,361587,16750614,8374,6603,3076,4147,5795,1242,Tag0,unknown
1610202170253,200,72,1.58203125E-5,0,0,56,361587,16750614,8374,6603,3076,4147,5795,1242,Tag0,unknown
1610202170264,200,107,2.35107421875E-5,0,0,56,361587,16750614,8374,6603,3076,4147,5795,1242,Tag0,unknown
1610202170274,200,53,1.1645507812500002E-5,0,0,56,361587,16750614,8374,6603,3076,4147,5795,1242,Tag0,unknown
1610202170293,200,-85,-1.86767578125E-5,0,0,56,361587,16750614,8374,6603,3076,4147,5795,1242,Tag0,unknown
1610202170303,200,68,1.4941406250000001E-5,0,0,56,361587,16750614,8374,6603,3076,4147,5795,1242,Tag0,unknown
1610202170313,200,36,7.91015625E-6,0,0,56,361587,16750614,8374,6603,3076,4147,5795,1242,Tag0,unknown
1610202170332,200,-261,-5.73486328125E-5,0,0,56,361587,16750614,8374,6603,3076,4147,5795,1242,Tag0,unknown
1610202170346,200,-259,-5.69091796875E-5,0,0,56,361587,16750614,8374,6603,3076,4147,5795,1242,Tag0,unknown
1610202170367,200,-116,-2.548828125E-5,0,0,56,361587,16750614,8374,6603,3076,4147,5795,1242,Tag0,unknown
1610202170380,200,88,1.93359375E-5,0,0,56,361587,16750614,8374,6603,3076,4147,5795,1242,Tag0,unknown
1610202170402,200,32,7.03125E-6,0,0,56,361587,16750614,8374,6603,3076,4147,5795,1242,Tag0,unknown
1610202170414,200,7,1.5380859375E-6,0,0,56,361587,16750614,8374,6603,3076,4147,5795,1242,Tag0,unknown
1610202170443,200,-366,-8.0419921875E-5,0,0,56,361587,16750614,8374,6603,3076,4147,5795,1242,Tag0,unknown
1610202170464,200,-323,-7.09716796875E-5,0,0,56,361587,16750614,8374,6603,3076,4147,5795,1242,Tag0,unknown
1610202170483,200,108,2.3730468750000002E-5,0,0,56,361587,16750614,8374,6603,3076,4147,5795,1242,Tag0,unknown
1610202170496,200,51,1.1206054687499999E-5,0,0,56,361587,16750614,8374,6603,3076,4147,5795,1242,Tag0,unknown
1610202170518,200,-15,-3.2958984375E-6,0,0,56,361587,16750614,8374,6603,3076,4147,5795,1242,Tag0,unknown
1610202170531,200,-83,-1.82373046875E-5,0,0,56,361587,16750614,8374,6603,3076,4147,5795,1242,Tag0,unknown
1610202170541,200,-121,-2.6586914062500003E-5,0,0,56,361587,16750614,8374,6603,3076,4147,5795,1242,Tag0,unknown
1610202170557,200,5,1.0986328125E-6,0,0,56,361587,16750614,8374,6603,3076,4147,5795,1242,Tag0,unknown
1610202170568,200,21,4.614257812500001E-6,0,0,56,361587,16750614,8374,6603,3076,4147,5795,1242,Tag0,unknown
1610202170580,200,10,2.197265625E-6,0,0,56,361587,16750614,8374,6603,3076,4147,5795,1242,Tag0,unknown
1610202170604,200,-127,-2.79052734375E-5,0,0,56,361587,16750614,8374,6603,3076,4147,5795,1242,Tag0,unknown
1610202170614,200,121,2.6586914062500003E-5,0,0,56,361587,16750614,8374,6603,3076,4147,5795,1242,Tag0,unknown
1610202170641,200,-31,-6.8115234375E-6,0,0,56,361587,16750614,8374,6603,3076,4147,5795,1242,Tag0,unknown
1610202170651,200,51,1.1206054687499999E-5,0,0,56,361587,16750614,8374,6603,3076,4147,5795,1242,Tag0,unknown
1610202170664,200,-102,-2.2412109374999998E-5,0,0,56,361587,16750614,8374,6603,3076,4147,5795,1242,Tag0,unknown
1610202170681,200,117,2.5708007812499998E-5,0,0,56,361587,16750614,8374,6603,3076,4147,5795,1242,Tag0,unknown
1610202170698,200,57,1.2524414062500001E-5,0,0,56,361587,16750614,8374,6603,3076,4147,5795,1242,Tag0,unknown
1610202170714,200,-124,-2.724609375E-5,0,0,56,361587,16750614,8374,6603,3076,4147,5795,1242,Tag0,unknown
1610202170731,200,83,1.82373046875E-5,0,0,56,361587,16750614,8374,6603,3076,4147,5795,1242,Tag0,unknown
1610202170741,200,114,2.5048828125000003E-5,0,0,56,361587,16750614,8374,6603,3076,4147,5795,1242,Tag0,unknown
1610202170751,200,23,5.0537109375E-6,0,0,56,361587,16750614,8374,6603,3076,4147,5795,1242,Tag0,unknown
1610202170764,200,5,1.0986328125E-6,0,0,56,361587,16750614,8374,6603,3076,4147,5795,1242,Tag0,unknown
1610202170791,200,118,2.5927734375E-5,0,0,56,16772895,14830,3342,8262,1438,1208,3476,2154,Tag0,unknown
1610202170801,200,-99,-2.1752929687500003E-5,0,0,56,16772895,14830,3342,8262,1438,1208,3476,2154,Tag0,unknown
1610202170825,200,-99,-2.1752929687500003E-5,0,0,56,16772895,14830,3342,8262,1438,1208,3476,2154,Tag0,unknown
1610202170835,200,-107,-2.35107421875E-5,0,0,56,16772895,14830,3342,8262,1438,1208,3476,2154,Tag0,unknown
1610202170847,200,-60,-1.318359375E-5,0,0,56,16772895,14830,3342,8262,1438,1208,3476,2154,Tag0,unknown
1610202170863,200,75,1.64794921875E-5,0,0,56,16772895,14830,3342,8262,1438,1208,3476,2154,Tag0,unknown
1610202170887,200,43,9.448242187500001E-6,0,0,56,16772895,14830,3342,8262,1438,1208,3476,2154,Tag0,unknown
1610202170897,200,25,5.4931640625E-6,0,0,56,16772895,14830,3342,8262,1438,1208,3476,2154,Tag0,unknown
1610202170928,200,122,2.6806640625E-5,0,0,56,16772895,14830,3342,8262,1438,1208,3476,2154,Tag0,unknown
1610202170947,200,-126,-2.7685546875E-5,0,0,56,16772895,14830,3342,8262,1438,1208,3476,2154,Tag0,unknown
1610202170982,200,22,4.833984375E-6,0,0,56,16772895,14830,3342,8262,1438,1208,3476,2154,Tag0,unknown
1610202170997,200,13,2.8564453125E-6,0,0,56,16772895,14830,3342,8262,1438,1208,3476,2154,Tag0,unknown
1610202171007,200,-121,-2.6586914062500003E-5,0,0,56,16772895,14830,3342,8262,1438,1208,3476,2154,Tag0,unknown
1610202171017,200,323,7.09716796875E-5,0,0,56,16772895,14830,3342,8262,1438,1208,3476,2154,Tag0,unknown
1610202171031,200,113,2.48291015625E-5,0,0,56,16772895,14830,3342,8262,1438,1208,3476,2154,Tag0,unknown
1610202171047,200,55,1.20849609375E-5,0,0,56,16772895,14830,3342,8262,1438,1208,3476,2154,Tag0,unknown
1610202171078,200,-510,-1.12060546875E-4,0,0,56,16772895,14830,3342,8262,1438,1208,3476,2154,Tag0,unknown
1610202171098,200,-793,-1.742431640625E-4,0,0,56,16772895,14830,3342,8262,1438,1208,3476,2154,Tag0,unknown
1610202171116,200,-365,-8.02001953125E-5,0,0,56,16772895,14830,3342,8262,1438,1208,3476,2154,Tag0,unknown
1610202171131,200,3,6.591796875E-7,0,0,56,16772895,14830,3342,8262,1438,1208,3476,2154,Tag0,unknown
1610202171156,200,597,1.3117675781250003E-4,0,0,56,16772895,14830,3342,8262,1438,1208,3476,2154,Tag0,unknown
1610202171166,200,521,1.1447753906250001E-4,0,0,56,16772895,14830,3342,8262,1438,1208,3476,2154,Tag0,unknown
1610202171182,200,329,7.229003906250001E-5,0,0,56,16772895,14830,3342,8262,1438,1208,3476,2154,Tag0,unknown
1610202171197,200,-78,-1.7138671875E-5,0,0,56,16772895,14830,3342,8262,1438,1208,3476,2154,Tag0,unknown
1610202171227,200,97,2.13134765625E-5,0,0,56,16772895,14830,3342,8262,1438,1208,3476,2154,Tag0,unknown
1610202171237,200,53,1.1645507812500002E-5,0,0,56,16772895,14830,3342,8262,1438,1208,3476,2154,Tag0,unknown
1610202171248,200,-23,-5.0537109375E-6,0,0,56,16772895,14830,3342,8262,1438,1208,3476,2154,Tag0,unknown
1610202171267,200,294,6.4599609375E-5,0,0,56,16772895,14830,3342,8262,1438,1208,3476,2154,Tag0,unknown
1610202171281,200,-7,-1.5380859375E-6,0,0,56,16772895,14830,3342,8262,1438,1208,3476,2154,Tag0,unknown
1610202171306,200,376,8.261718750000001E-5,0,0,56,16772895,14830,3342,8262,1438,1208,3476,2154,Tag0,unknown
1610202171316,200,315,6.92138671875E-5,0,0,56,16772895,14830,3342,8262,1438,1208,3476,2154,Tag0,unknown
1610202171340,200,-4,-8.7890625E-7,0,0,56,16772895,14830,3342,8262,1438,1208,3476,2154,Tag0,unknown
1610202171350,200,-38,-8.349609375E-6,0,0,56,16772895,14830,3342,8262,1438,1208,3476,2154,Tag0,unknown
1610202171363,200,-80,-1.7578125E-5,0,0,56,16772895,14830,3342,8262,1438,1208,3476,2154,Tag0,unknown
1610202171381,200,-257,-5.64697265625E-5,0,0,56,16772895,14830,3342,8262,1438,1208,3476,2154,Tag0,unknown
1610202171398,200,-140,-3.076171875E-5,0,0,56,16772895,14830,3342,8262,1438,1208,3476,2154,Tag0,unknown
1610202171415,200,-215,-4.72412109375E-5,0,0,56,16772895,14830,3342,8262,1438,1208,3476,2154,Tag0,unknown
1610202171431,200,-331,-7.272949218750001E-5,0,0,56,16772895,14830,3342,8262,1438,1208,3476,2154,Tag0,unknown
1610202171452,200,-139,-3.0541992187500004E-5,0,0,56,16772895,14830,3342,8262,1438,1208,3476,2154,Tag0,unknown
1610202171466,200,-362,-7.954101562500001E-5,0,0,56,16772895,14830,3342,8262,1438,1208,3476,2154,Tag0,unknown
1610202171486,200,-199,-4.3725585937499995E-5,0,0,56,16772895,14830,3342,8262,1438,1208,3476,2154,Tag0,unknown
1610202171498,200,-157,-3.44970703125E-5,0,0,56,16772895,14830,3342,8262,1438,1208,3476,2154,Tag0,unknown
1610202171529,200,-219,-4.81201171875E-5,0,0,56,16772895,14830,3342,8262,1438,1208,3476,2154,Tag0,unknown
1610202171548,200,-517,-1.135986328125E-4,0,0,56,16772895,14830,3342,8262,1438,1208,3476,2154,Tag0,unknown
1610202171568,200,39,8.5693359375E-6,0,0,56,16772895,14830,3342,8262,1438,1208,3476,2154,Tag0,unknown
1610202171581,200,106,2.3291015625000003E-5,0,0,56,16772895,14830,3342,8262,1438,1208,3476,2154,Tag0,unknown
1610202171606,200,-103,-2.26318359375E-5,0,0,56,16772895,14830,3342,8262,1438,1208,3476,2154,Tag0,unknown
1610202171616,200,49,1.07666015625E-5,0,0,56,16772895,14830,3342,8262,1438,1208,3476,2154,Tag0,unknown
1610202171626,200,278,6.108398437500001E-5,0,0,56,16772895,14830,3342,8262,1438,1208,3476,2154,Tag0,unknown
1610202171650,200,-15,-3.2958984375E-6,0,0,56,16772895,14830,3342,8262,1438,1208,3476,2154,Tag0,unknown
1610202171671,200,-31,-6.8115234375E-6,0,0,56,16772895,14830,3342,8262,1438,1208,3476,2154,Tag0,unknown
1610202171684,200,-35,-7.6904296875E-6,0,0,56,16772895,14830,3342,8262,1438,1208,3476,2154,Tag0,unknown
1610202171699,200,-119,-2.6147460937500004E-5,0,0,56,16772895,14830,3342,8262,1438,1208,3476,2154,Tag0,unknown
1610202171714,200,119,2.6147460937500004E-5,0,0,56,16772895,14830,3342,8262,1438,1208,3476,2154,Tag0,unknown
1610202171744,200,101,2.2192382812500002E-5,0,0,56,16772895,14830,3342,8262,1438,1208,3476,2154,Tag0,unknown
1610202171754,200,19,4.1748046875E-6,0,0,56,1092609,612214,168695,142708,63957,93590,16756066,29022,Tag0,unknown
1610202171766,200,97,2.13134765625E-5,0,0,56,1092609,612214,168695,142708,63957,93590,16756066,29022,Tag0,unknown
1610202171780,200,44,9.66796875E-6,0,0,56,1092609,612214,168695,142708,63957,93590,16756066,29022,Tag0,unknown
1610202171800,200,18,3.955078125E-6,0,0,56,1092609,612214,168695,142708,63957,93590,16756066,29022,Tag0,unknown
1610202171827,200,19,4.1748046875E-6,0,0,56,1092609,612214,168695,142708,63957,93590,16756066,29022,Tag0,unknown
1610202171847,200,-261,-5.73486328125E-5,0,0,56,1092609,612214,168695,142708,63957,93590,16756066,29022,Tag0,unknown
1610202171863,200,107,2.35107421875E-5,0,0,56,1092609,612214,168695,142708,63957,93590,16756066,29022,Tag0,unknown
1610202171880,200,71,1.56005859375E-5,0,0,56,1092609,612214,168695,142708,63957,93590,16756066,29022,Tag0,unknown
1610202171903,200,-295,-6.48193359375E-5,0,0,56,1092609,612214,168695,142708,63957,93590,16756066,29022,Tag0,unknown
1610202171913,200,24,5.2734375E-6,0,0,56,1092609,612214,168695,142708,63957,93590,16756066,29022,Tag0,unknown
1610202171937,200,-334,-7.338867187500001E-5,0,0,56,1092609,612214,168695,142708,63957,93590,16756066,29022,Tag0,unknown
1610202171947,200,-269,-5.9106445312499996E-5,0,0,56,1092609,612214,168695,142708,63957,93590,16756066,29022,Tag0,unknown
1610202171957,200,-279,-6.13037109375E-5,0,0,56,1092609,612214,168695,142708,63957,93590,16756066,29022,Tag0,unknown
1610202171978,200,98,2.1533203125E-5,0,0,56,1092609,612214,168695,142708,63957,93590,16756066,29022,Tag0,unknown
1610202171997,200,80,1.7578125E-5,0,0,56,1092609,612214,168695,142708,63957,93590,16756066,29022,Tag0,unknown
1610202172014,200,4,8.7890625E-7,0,0,56,1092609,612214,168695,142708,63957,93590,16756066,29022,Tag0,unknown
1610202172031,200,-294,-6.4599609375E-5,0,0,56,1092609,612214,168695,142708,63957,93590,16756066,29022,Tag0,unknown
1610202172052,200,-257,-5.64697265625E-5,0,0,56,1092609,612214,168695,142708,63957,93590,16756066,29022,Tag0,unknown
1610202172063,200,-293,-6.43798828125E-5,0,0,56,1092609,612214,168695,142708,63957,93590,16756066,29022,Tag0,unknown
1610202172081,200,-339,-7.448730468750001E-5,0,0,56,1092609,612214,168695,142708,63957,93590,16756066,29022,Tag0,unknown
1610202172098,200,-261,-5.73486328125E-5,0,0,56,1092609,612214,168695,142708,63957,93590,16756066,29022,Tag0,unknown
1610202172127,200,83,1.82373046875E-5,0,0,56,1092609,612214,168695,142708,63957,93590,16756066,29022,Tag0,unknown
1610202172147,200,91,1.99951171875E-5,0,0,56,1092609,612214,168695,142708,63957,93590,16756066,29022,Tag0,unknown
1610202172175,200,-267,-5.86669921875E-5,0,0,56,1092609,612214,168695,142708,63957,93590,16756066,29022,Tag0,unknown
1610202172185,200,-109,-2.39501953125E-5,0,0,56,1092609,612214,168695,142708,63957,93590,16756066,29022,Tag0,unknown
1610202172205,200,-119,-2.6147460937500004E-5,0,0,56,1092609,612214,168695,142708,63957,93590,16756066,29022,Tag0,unknown
1610202172215,200,36,7.91015625E-6,0,0,56,1092609,612214,168695,142708,63957,93590,16756066,29022,Tag0,unknown
1610202172230,200,33,7.2509765625E-6,0,0,56,1092609,612214,168695,142708,63957,93590,16756066,29022,Tag0,unknown
1610202172280,200,-282,-6.1962890625E-5,0,0,56,1092609,612214,168695,142708,63957,93590,16756066,29022,Tag0,unknown
1610202172297,200,-313,-6.87744140625E-5,0,0,56,1092609,612214,168695,142708,63957,93590,16756066,29022,Tag0,unknown
1610202172307,200,8,1.7578125E-6,0,0,56,1092609,612214,168695,142708,63957,93590,16756066,29022,Tag0,unknown
1610202172324,200,-21,-4.614257812500001E-6,0,0,56,1092609,612214,168695,142708,63957,93590,16756066,29022,Tag0,unknown
1610202172334,200,-344,-7.558593750000001E-5,0,0,56,1092609,612214,168695,142708,63957,93590,16756066,29022,Tag0,unknown
1610202172347,200,45,9.8876953125E-6,0,0,56,1092609,612214,168695,142708,63957,93590,16756066,29022,Tag0,unknown
1610202172364,200,-10,-2.197265625E-6,0,0,56,1092609,612214,168695,142708,63957,93590,16756066,29022,Tag0,unknown
1610202172386,200,-16,-3.515625E-6,0,0,56,1092609,612214,168695,142708,63957,93590,16756066,29022,Tag0,unknown
1610202172397,200,-46,-1.0107421875E-5,0,0,56,1092609,612214,168695,142708,63957,93590,16756066,29022,Tag0,unknown
1610202172427,200,83,1.82373046875E-5,0,0,56,1092609,612214,168695,142708,63957,93590,16756066,29022,Tag0,unknown
1610202172447,200,125,2.74658203125E-5,0,0,56,1092609,612214,168695,142708,63957,93590,16756066,29022,Tag0,unknown
1610202172471,200,6,1.318359375E-6,0,0,56,1092609,612214,168695,142708,63957,93590,16756066,29022,Tag0,unknown
1610202172481,200,1,2.197265625E-7,0,0,56,1092609,612214,168695,142708,63957,93590,16756066,29022,Tag0,unknown
1610202172491,200,60,1.318359375E-5,0,0,56,1092609,612214,168695,142708,63957,93590,16756066,29022,Tag0,unknown
1610202172508,200,273,5.998535156250001E-5,0,0,56,1092609,612214,168695,142708,63957,93590,16756066,29022,Tag0,unknown
1610202172518,200,-61,-1.34033203125E-5,0,0,56,1092609,612214,168695,142708,63957,93590,16756066,29022,Tag0,unknown
1610202172542,200,26,5.712890625E-6,0,0,56,1092609,612214,168695,142708,63957,93590,16756066,29022,Tag0,unknown
1610202172552,200,84,1.8457031250000004E-5,0,0,56,1092609,612214,168695,142708,63957,93590,16756066,29022,Tag0,unknown
1610202172563,200,-258,-5.6689453125000004E-5,0,0,56,1092609,612214,168695,142708,63957,93590,16756066,29022,Tag0,unknown
1610202172585,200,113,2.48291015625E-5,0,0,56,1092609,612214,168695,142708,63957,93590,16756066,29022,Tag0,unknown
1610202172597,200,-111,-2.43896484375E-5,0,0,56,1092609,612214,168695,142708,63957,93590,16756066,29022,Tag0,unknown
1610202172614,200,22,4.833984375E-6,0,0,56,1092609,612214,168695,142708,63957,93590,16756066,29022,Tag0,unknown
1610202172631,200,81,1.77978515625E-5,0,0,56,1092609,612214,168695,142708,63957,93590,16756066,29022,Tag0,unknown
1610202172646,200,-109,-2.39501953125E-5,0,0,56,1092609,612214,168695,142708,63957,93590,16756066,29022,Tag0,unknown
1610202172664,200,77,1.69189453125E-5,0,0,56,1092609,612214,168695,142708,63957,93590,16756066,29022,Tag0,unknown
1610202172681,200,-75,-1.64794921875E-5,0,0,56,1092609,612214,168695,142708,63957,93590,16756066,29022,Tag0,unknown
1610202172697,200,62,1.3623046875E-5,0,0,56,1092609,612214,168695,142708,63957,93590,16756066,29022,Tag0,unknown
1610202172714,200,7,1.5380859375E-6,0,0,56,1092609,612214,168695,142708,63957,93590,16756066,29022,Tag0,unknown
1610202172732,200,8,1.7578125E-6,0,0,56,1092609,612214,168695,142708,63957,93590,16756066,29022,Tag0,unknown
1610202172748,200,-265,-5.82275390625E-5,0,0,56,1092609,612214,168695,142708,63957,93590,16756066,29022,Tag0,unknown
1610202172758,200,-263,-5.7788085937500005E-5,0,0,56,613855,308029,16750733,12441,4177,12817,19584,16332,Tag0,unknown
1610202172770,200,-313,-6.87744140625E-5,0,0,56,613855,308029,16750733,12441,4177,12817,19584,16332,Tag0,unknown
1610202172780,200,-305,-6.70166015625E-5,0,0,56,613855,308029,16750733,12441,4177,12817,19584,16332,Tag0,unknown
1610202172805,200,-322,-7.0751953125E-5,0,0,56,613855,308029,16750733,12441,4177,12817,19584,16332,Tag0,unknown
1610202172815,200,51,1.1206054687499999E-5,0,0,56,613855,308029,16750733,12441,4177,12817,19584,16332,Tag0,unknown
1610202172831,200,-301,-6.613769531250001E-5,0,0,56,613855,308029,16750733,12441,4177,12817,19584,16332,Tag0,unknown
1610202172847,200,-103,-2.26318359375E-5,0,0,56,613855,308029,16750733,12441,4177,12817,19584,16332,Tag0,unknown
1610202172877,200,-120,-2.63671875E-5,0,0,56,613855,308029,16750733,12441,4177,12817,19584,16332,Tag0,unknown
1610202172897,200,-128,-2.8125E-5,0,0,56,613855,308029,16750733,12441,4177,12817,19584,16332,Tag0,unknown
1610202172916,200,91,1.99951171875E-5,0,0,56,613855,308029,16750733,12441,4177,12817,19584,16332,Tag0,unknown
1610202172931,200,27,5.9326171875000005E-6,0,0,56,613855,308029,16750733,12441,4177,12817,19584,16332,Tag0,unknown
1610202172952,200,26,5.712890625E-6,0,0,56,613855,308029,16750733,12441,4177,12817,19584,16332,Tag0,unknown
1610202172963,200,41,9.008789062499999E-6,0,0,56,613855,308029,16750733,12441,4177,12817,19584,16332,Tag0,unknown
1610202172973,200,-269,-5.9106445312499996E-5,0,0,56,613855,308029,16750733,12441,4177,12817,19584,16332,Tag0,unknown
1610202172989,200,-262,-5.7568359375E-5,0,0,56,613855,308029,16750733,12441,4177,12817,19584,16332,Tag0,unknown
1610202172999,200,65,1.42822265625E-5,0,0,56,613855,308029,16750733,12441,4177,12817,19584,16332,Tag0,unknown
1610202173030,200,56,1.23046875E-5,0,0,56,613855,308029,16750733,12441,4177,12817,19584,16332,Tag0,unknown
1610202173047,200,102,2.2412109374999998E-5,0,0,56,613855,308029,16750733,12441,4177,12817,19584,16332,Tag0,unknown
1610202173057,200,-80,-1.7578125E-5,0,0,56,613855,308029,16750733,12441,4177,12817,19584,16332,Tag0,unknown
1610202173069,200,-11,-2.4169921875E-6,0,0,56,613855,308029,16750733,12441,4177,12817,19584,16332,Tag0,unknown
1610202173081,200,-20,-4.39453125E-6,0,0,56,613855,308029,16750733,12441,4177,12817,19584,16332,Tag0,unknown
1610202173107,200,17,3.7353515625000003E-6,0,0,56,613855,308029,16750733,12441,4177,12817,19584,16332,Tag0,unknown
1610202173119,200,27,5.9326171875000005E-6,0,0,56,613855,308029,16750733,12441,4177,12817,19584,16332,Tag0,unknown
1610202173141,200,-262,-5.7568359375E-5,0,0,56,613855,308029,16750733,12441,4177,12817,19584,16332,Tag0,unknown
1610202173151,200,59,1.29638671875E-5,0,0,56,613855,308029,16750733,12441,4177,12817,19584,16332,Tag0,unknown
1610202173164,200,55,1.20849609375E-5,0,0,56,613855,308029,16750733,12441,4177,12817,19584,16332,Tag0,unknown
1610202173184,200,-616,-1.353515625E-4,0,0,56,613855,308029,16750733,12441,4177,12817,19584,16332,Tag0,unknown
1610202173197,200,82,1.8017578124999998E-5,0,0,56,613855,308029,16750733,12441,4177,12817,19584,16332,Tag0,unknown
1610202173213,200,64,1.40625E-5,0,0,56,613855,308029,16750733,12441,4177,12817,19584,16332,Tag0,unknown
1610202173253,200,310,6.8115234375E-5,0,0,56,613855,308029,16750733,12441,4177,12817,19584,16332,Tag0,unknown
1610202173264,200,294,6.4599609375E-5,0,0,56,613855,308029,16750733,12441,4177,12817,19584,16332,Tag0,unknown
1610202173274,200,-10,-2.197265625E-6,0,0,56,613855,308029,16750733,12441,4177,12817,19584,16332,Tag0,unknown
1610202173292,200,355,7.80029296875E-5,0,0,56,613855,308029,16750733,12441,4177,12817,19584,16332,Tag0,unknown
1610202173302,200,109,2.39501953125E-5,0,0,56,613855,308029,16750733,12441,4177,12817,19584,16332,Tag0,unknown
1610202173318,200,305,6.70166015625E-5,0,0,56,613855,308029,16750733,12441,4177,12817,19584,16332,Tag0,unknown
1610202173336,200,278,6.108398437500001E-5,0,0,56,613855,308029,16750733,12441,4177,12817,19584,16332,Tag0,unknown
1610202173348,200,-93,-2.04345703125E-5,0,0,56,613855,308029,16750733,12441,4177,12817,19584,16332,Tag0,unknown
1610202173365,200,-109,-2.39501953125E-5,0,0,56,613855,308029,16750733,12441,4177,12817,19584,16332,Tag0,unknown
1610202173381,200,84,1.8457031250000004E-5,0,0,56,613855,308029,16750733,12441,4177,12817,19584,16332,Tag0,unknown
1610202173402,200,-275,-6.04248046875E-5,0,0,56,613855,308029,16750733,12441,4177,12817,19584,16332,Tag0,unknown
1610202173414,200,-267,-5.86669921875E-5,0,0,56,613855,308029,16750733,12441,4177,12817,19584,16332,Tag0,unknown
1610202173436,200,-369,-8.10791015625E-5,0,0,56,613855,308029,16750733,12441,4177,12817,19584,16332,Tag0,unknown
1610202173448,200,-259,-5.69091796875E-5,0,0,56,613855,308029,16750733,12441,4177,12817,19584,16332,Tag0,unknown
1610202173458,200,-301,-6.613769531250001E-5,0,0,56,613855,308029,16750733,12441,4177,12817,19584,16332,Tag0,unknown
1610202173477,200,-327,-7.18505859375E-5,0,0,56,613855,308029,16750733,12441,4177,12817,19584,16332,Tag0,unknown
1610202173496,200,55,1.20849609375E-5,0,0,56,613855,308029,16750733,12441,4177,12817,19584,16332,Tag0,unknown
1610202173515,200,-316,-6.943359375000001E-5,0,0,56,613855,308029,16750733,12441,4177,12817,19584,16332,Tag0,unknown
1610202173531,200,43,9.448242187500001E-6,0,0,56,613855,308029,16750733,12441,4177,12817,19584,16332,Tag0,unknown
1610202173560,200,-151,-3.31787109375E-5,0,0,56,613855,308029,16750733,12441,4177,12817,19584,16332,Tag0,unknown
1610202173570,200,-131,-2.87841796875E-5,0,0,56,613855,308029,16750733,12441,4177,12817,19584,16332,Tag0,unknown
1610202173580,200,-308,-6.767578125E-5,0,0,56,613855,308029,16750733,12441,4177,12817,19584,16332,Tag0,unknown
1610202173597,200,-281,-6.17431640625E-5,0,0,56,613855,308029,16750733,12441,4177,12817,19584,16332,Tag0,unknown
1610202173615,200,-328,-7.207031249999999E-5,0,0,56,613855,308029,16750733,12441,4177,12817,19584,16332,Tag0,unknown
1610202173633,200,93,2.04345703125E-5,0,0,56,613855,308029,16750733,12441,4177,12817,19584,16332,Tag0,unknown
1610202173648,200,41,9.008789062499999E-6,0,0,56,613855,308029,16750733,12441,4177,12817,19584,16332,Tag0,unknown
1610202173677,200,264,5.80078125E-5,0,0,56,613855,308029,16750733,12441,4177,12817,19584,16332,Tag0,unknown
1610202173688,200,-25,-5.4931640625E-6,0,0,56,613855,308029,16750733,12441,4177,12817,19584,16332,Tag0,unknown
1610202173699,200,-106,-2.3291015625000003E-5,0,0,56,613855,308029,16750733,12441,4177,12817,19584,16332,Tag0,unknown
1610202173718,200,295,6.48193359375E-5,0,0,56,613855,308029,16750733,12441,4177,12817,19584,16332,Tag0,unknown
1610202173732,200,281,6.17431640625E-5,0,0,56,613855,308029,16750733,12441,4177,12817,19584,16332,Tag0,unknown
1610202173763,200,305,6.70166015625E-5,0,0,56,1403766,63401,16610,66962,29110,9609,25799,17459,Tag0,unknown
1610202173780,200,365,8.02001953125E-5,0,0,56,1403766,63401,16610,66962,29110,9609,25799,17459,Tag0,unknown
1610202173790,200,-40,-8.7890625E-6,0,0,56,1403766,63401,16610,66962,29110,9609,25799,17459,Tag0,unknown
1610202173807,200,-64,-1.40625E-5,0,0,56,1403766,63401,16610,66962,29110,9609,25799,17459,Tag0,unknown
1610202173817,200,265,5.82275390625E-5,0,0,56,1403766,63401,16610,66962,29110,9609,25799,17459,Tag0,unknown
1610202173852,200,-281,-6.17431640625E-5,0,0,56,1403766,63401,16610,66962,29110,9609,25799,17459,Tag0,unknown
1610202173863,200,-341,-7.492675781250002E-5,0,0,56,1403766,63401,16610,66962,29110,9609,25799,17459,Tag0,unknown
1610202173873,200,-365,-8.02001953125E-5,0,0,56,1403766,63401,16610,66962,29110,9609,25799,17459,Tag0,unknown
1610202173890,200,-365,-8.02001953125E-5,0,0,56,1403766,63401,16610,66962,29110,9609,25799,17459,Tag0,unknown
1610202173900,200,-140,-3.076171875E-5,0,0,56,1403766,63401,16610,66962,29110,9609,25799,17459,Tag0,unknown
1610202173914,200,22,4.833984375E-6,0,0,56,1403766,63401,16610,66962,29110,9609,25799,17459,Tag0,unknown
1610202173931,200,19,4.1748046875E-6,0,0,56,1403766,63401,16610,66962,29110,9609,25799,17459,Tag0,unknown
1610202173947,200,-179,-3.93310546875E-5,0,0,56,1403766,63401,16610,66962,29110,9609,25799,17459,Tag0,unknown
1610202173967,200,-330,-7.2509765625E-5,0,0,56,1403766,63401,16610,66962,29110,9609,25799,17459,Tag0,unknown
1610202173981,200,116,2.548828125E-5,0,0,56,1403766,63401,16610,66962,29110,9609,25799,17459,Tag0,unknown
1610202174002,200,9,1.9775390625E-6,0,0,56,1403766,63401,16610,66962,29110,9609,25799,17459,Tag0,unknown
1610202174015,200,39,8.5693359375E-6,0,0,56,1403766,63401,16610,66962,29110,9609,25799,17459,Tag0,unknown
1610202174037,200,5,1.0986328125E-6,0,0,56,1403766,63401,16610,66962,29110,9609,25799,17459,Tag0,unknown
1610202174048,200,-310,-6.8115234375E-5,0,0,56,1403766,63401,16610,66962,29110,9609,25799,17459,Tag0,unknown
1610202174065,200,-300,-6.591796875E-5,0,0,56,1403766,63401,16610,66962,29110,9609,25799,17459,Tag0,unknown
1610202174084,200,-309,-6.78955078125E-5,0,0,56,1403766,63401,16610,66962,29110,9609,25799,17459,Tag0,unknown
1610202174098,200,-149,-3.27392578125E-5,0,0,56,1403766,63401,16610,66962,29110,9609,25799,17459,Tag0,unknown
1610202174117,200,40,8.7890625E-6,0,0,56,1403766,63401,16610,66962,29110,9609,25799,17459,Tag0,unknown
1610202174152,200,-111,-2.43896484375E-5,0,0,56,1403766,63401,16610,66962,29110,9609,25799,17459,Tag0,unknown
1610202174164,200,57,1.2524414062500001E-5,0,0,56,1403766,63401,16610,66962,29110,9609,25799,17459,Tag0,unknown
1610202174174,200,98,2.1533203125E-5,0,0,56,1403766,63401,16610,66962,29110,9609,25799,17459,Tag0,unknown
1610202174199,200,118,2.5927734375E-5,0,0,56,1403766,63401,16610,66962,29110,9609,25799,17459,Tag0,unknown
1610202174214,200,-86,-1.8896484375000003E-5,0,0,56,1403766,63401,16610,66962,29110,9609,25799,17459,Tag0,unknown
1610202174234,200,-75,-1.64794921875E-5,0,0,56,1403766,63401,16610,66962,29110,9609,25799,17459,Tag0,unknown
1610202174248,200,117,2.5708007812499998E-5,0,0,56,1403766,63401,16610,66962,29110,9609,25799,17459,Tag0,unknown
1610202174258,200,51,1.1206054687499999E-5,0,0,56,1403766,63401,16610,66962,29110,9609,25799,17459,Tag0,unknown
1610202174269,200,84,1.8457031250000004E-5,0,0,56,1403766,63401,16610,66962,29110,9609,25799,17459,Tag0,unknown
1610202174282,200,74,1.6259765625E-5,0,0,56,1403766,63401,16610,66962,29110,9609,25799,17459,Tag0,unknown
1610202174302,200,-259,-5.69091796875E-5,0,0,56,1403766,63401,16610,66962,29110,9609,25799,17459,Tag0,unknown
1610202174315,200,-309,-6.78955078125E-5,0,0,56,1403766,63401,16610,66962,29110,9609,25799,17459,Tag0,unknown
1610202174331,200,117,2.5708007812499998E-5,0,0,56,1403766,63401,16610,66962,29110,9609,25799,17459,Tag0,unknown
1610202174349,200,-339,-7.448730468750001E-5,0,0,56,1403766,63401,16610,66962,29110,9609,25799,17459,Tag0,unknown
1610202174365,200,-147,-3.22998046875E-5,0,0,56,1403766,63401,16610,66962,29110,9609,25799,17459,Tag0,unknown
1610202174375,200,91,1.99951171875E-5,0,0,56,1403766,63401,16610,66962,29110,9609,25799,17459,Tag0,unknown
1610202174385,200,-289,-6.35009765625E-5,0,0,56,1403766,63401,16610,66962,29110,9609,25799,17459,Tag0,unknown
1610202174398,200,-259,-5.69091796875E-5,0,0,56,1403766,63401,16610,66962,29110,9609,25799,17459,Tag0,unknown
1610202174416,200,100,2.197265625E-5,0,0,56,1403766,63401,16610,66962,29110,9609,25799,17459,Tag0,unknown
1610202174456,200,-29,-6.3720703125E-6,0,0,56,1403766,63401,16610,66962,29110,9609,25799,17459,Tag0,unknown
1610202174466,200,56,1.23046875E-5,0,0,56,1403766,63401,16610,66962,29110,9609,25799,17459,Tag0,unknown
1610202174476,200,-37,-8.1298828125E-6,0,0,56,1403766,63401,16610,66962,29110,9609,25799,17459,Tag0,unknown
1610202174496,200,116,2.548828125E-5,0,0,56,1403766,63401,16610,66962,29110,9609,25799,17459,Tag0,unknown
1610202174515,200,69,1.51611328125E-5,0,0,56,1403766,63401,16610,66962,29110,9609,25799,17459,Tag0,unknown
1610202174533,200,23,5.0537109375E-6,0,0,56,1403766,63401,16610,66962,29110,9609,25799,17459,Tag0,unknown
1610202174548,200,-348,-7.646484375E-5,0,0,56,1403766,63401,16610,66962,29110,9609,25799,17459,Tag0,unknown
1610202174574,200,-279,-6.13037109375E-5,0,0,56,1403766,63401,16610,66962,29110,9609,25799,17459,Tag0,unknown
1610202174584,200,17,3.7353515625000003E-6,0,0,56,1403766,63401,16610,66962,29110,9609,25799,17459,Tag0,unknown
1610202174594,200,-293,-6.43798828125E-5,0,0,56,1403766,63401,16610,66962,29110,9609,25799,17459,Tag0,unknown
1610202174618,200,-123,-2.70263671875E-5,0,0,56,1403766,63401,16610,66962,29110,9609,25799,17459,Tag0,unknown
1610202174635,200,5,1.0986328125E-6,0,0,56,1403766,63401,16610,66962,29110,9609,25799,17459,Tag0,unknown
1610202174656,200,82,1.8017578124999998E-5,0,0,56,1403766,63401,16610,66962,29110,9609,25799,17459,Tag0,unknown
1610202174666,200,-103,-2.26318359375E-5,0,0,56,1403766,63401,16610,66962,29110,9609,25799,17459,Tag0,unknown
1610202174682,200,-78,-1.7138671875E-5,0,0,56,1403766,63401,16610,66962,29110,9609,25799,17459,Tag0,unknown
1610202174698,200,-47,-1.0327148437500001E-5,0,0,56,1403766,63401,16610,66962,29110,9609,25799,17459,Tag0,unknown
1610202174720,200,-121,-2.6586914062500003E-5,0,0,56,1403766,63401,16610,66962,29110,9609,25799,17459,Tag0,unknown
1610202174731,200,8,1.7578125E-6,0,0,56,1403766,63401,16610,66962,29110,9609,25799,17459,Tag0,unknown
1610202174753,200,-337,-7.40478515625E-5,0,0,56,810853,121349,4713,29722,15735,17280,15462,16204,Tag0,unknown
1610202174765,200,-163,-3.5815429687500006E-5,0,0,56,810853,121349,4713,29722,15735,17280,15462,16204,Tag0,unknown
1610202174782,200,-77,-1.69189453125E-5,0,0,56,810853,121349,4713,29722,15735,17280,15462,16204,Tag0,unknown
1610202174799,200,112,2.4609375E-5,0,0,56,810853,121349,4713,29722,15735,17280,15462,16204,Tag0,unknown
1610202174814,200,60,1.318359375E-5,0,0,56,810853,121349,4713,29722,15735,17280,15462,16204,Tag0,unknown
1610202174833,200,-152,-3.33984375E-5,0,0,56,810853,121349,4713,29722,15735,17280,15462,16204,Tag0,unknown
1610202174850,200,-225,-4.94384765625E-5,0,0,56,810853,121349,4713,29722,15735,17280,15462,16204,Tag0,unknown
1610202174869,200,-584,-1.2832031250000002E-4,0,0,56,810853,121349,4713,29722,15735,17280,15462,16204,Tag0,unknown
1610202174881,200,-573,-1.259033203125E-4,0,0,56,810853,121349,4713,29722,15735,17280,15462,16204,Tag0,unknown
1610202174901,200,-515,-1.131591796875E-4,0,0,56,810853,121349,4713,29722,15735,17280,15462,16204,Tag0,unknown
1610202174915,200,-225,-4.94384765625E-5,0,0,56,810853,121349,4713,29722,15735,17280,15462,16204,Tag0,unknown
1610202174925,200,289,6.35009765625E-5,0,0,56,810853,121349,4713,29722,15735,17280,15462,16204,Tag0,unknown
1610202174942,200,262,5.7568359375E-5,0,0,56,810853,121349,4713,29722,15735,17280,15462,16204,Tag0,unknown
1610202174952,200,59,1.29638671875E-5,0,0,56,810853,121349,4713,29722,15735,17280,15462,16204,Tag0,unknown
1610202174979,200,-275,-6.04248046875E-5,0,0,56,810853,121349,4713,29722,15735,17280,15462,16204,Tag0,unknown
1610202174999,200,-303,-6.65771484375E-5,0,0,56,810853,121349,4713,29722,15735,17280,15462,16204,Tag0,unknown
1610202175016,200,555,1.219482421875E-4,0,0,56,810853,121349,4713,29722,15735,17280,15462,16204,Tag0,unknown
1610202175031,200,213,4.68017578125E-5,0,0,56,810853,121349,4713,29722,15735,17280,15462,16204,Tag0,unknown
1610202175053,200,182,3.9990234375E-5,0,0,56,810853,121349,4713,29722,15735,17280,15462,16204,Tag0,unknown
1610202175065,200,178,3.9111328125E-5,0,0,56,810853,121349,4713,29722,15735,17280,15462,16204,Tag0,unknown
1610202175090,200,258,5.6689453125000004E-5,0,0,56,810853,121349,4713,29722,15735,17280,15462,16204,Tag0,unknown
1610202175100,200,293,6.43798828125E-5,0,0,56,810853,121349,4713,29722,15735,17280,15462,16204,Tag0,unknown
1610202175115,200,-86,-1.8896484375000003E-5,0,0,56,810853,121349,4713,29722,15735,17280,15462,16204,Tag0,unknown
1610202175133,200,323,7.09716796875E-5,0,0,56,810853,121349,4713,29722,15735,17280,15462,16204,Tag0,unknown
1610202175161,200,251,5.5151367187500004E-5,0,0,56,810853,121349,4713,29722,15735,17280,15462,16204,Tag0,unknown
1610202175171,200,-47,-1.0327148437500001E-5,0,0,56,810853,121349,4713,29722,15735,17280,15462,16204,Tag0,unknown
1610202175204,200,-127,-2.79052734375E-5,0,0,56,810853,121349,4713,29722,15735,17280,15462,16204,Tag0,unknown
1610202175215,200,92,2.021484375E-5,0,0,56,810853,121349,4713,29722,15735,17280,15462,16204,Tag0,unknown
1610202175242,200,-548,-1.2041015624999999E-4,0,0,56,810853,121349,4713,29722,15735,17280,15462,16204,Tag0,unknown
1610202175252,200,-617,-1.355712890625E-4,0,0,56,810853,121349,4713,29722,15735,17280,15462,16204,Tag0,unknown
1610202175262,200,-233,-5.1196289062500006E-5,0,0,56,810853,121349,4713,29722,15735,17280,15462,16204,Tag0,unknown
1610202175281,200,-217,-4.76806640625E-5,0,0,56,810853,121349,4713,29722,15735,17280,15462,16204,Tag0,unknown
1610202175298,200,-139,-3.0541992187500004E-5,0,0,56,810853,121349,4713,29722,15735,17280,15462,16204,Tag0,unknown
1610202175316,200,-293,-6.43798828125E-5,0,0,56,810853,121349,4713,29722,15735,17280,15462,16204,Tag0,unknown
1610202175333,200,-307,-6.74560546875E-5,0,0,56,810853,121349,4713,29722,15735,17280,15462,16204,Tag0,unknown
1610202175353,200,-121,-2.6586914062500003E-5,0,0,56,810853,121349,4713,29722,15735,17280,15462,16204,Tag0,unknown
1610202175365,200,89,1.95556640625E-5,0,0,56,810853,121349,4713,29722,15735,17280,15462,16204,Tag0,unknown
1610202175387,200,-59,-1.29638671875E-5,0,0,56,810853,121349,4713,29722,15735,17280,15462,16204,Tag0,unknown
1610202175399,200,-27,-5.9326171875000005E-6,0,0,56,810853,121349,4713,29722,15735,17280,15462,16204,Tag0,unknown
1610202175428,200,28,6.15234375E-6,0,0,56,810853,121349,4713,29722,15735,17280,15462,16204,Tag0,unknown
1610202175438,200,103,2.26318359375E-5,0,0,56,810853,121349,4713,29722,15735,17280,15462,16204,Tag0,unknown
1610202175462,200,-332,-7.294921875E-5,0,0,56,810853,121349,4713,29722,15735,17280,15462,16204,Tag0,unknown
1610202175481,200,-259,-5.69091796875E-5,0,0,56,810853,121349,4713,29722,15735,17280,15462,16204,Tag0,unknown
1610202175491,200,-169,-3.7133789062499996E-5,0,0,56,810853,121349,4713,29722,15735,17280,15462,16204,Tag0,unknown
1610202175504,200,2,4.39453125E-7,0,0,56,810853,121349,4713,29722,15735,17280,15462,16204,Tag0,unknown
1610202175515,200,-281,-6.17431640625E-5,0,0,56,810853,121349,4713,29722,15735,17280,15462,16204,Tag0,unknown
1610202175536,200,-377,-8.28369140625E-5,0,0,56,810853,121349,4713,29722,15735,17280,15462,16204,Tag0,unknown
1610202175548,200,-377,-8.28369140625E-5,0,0,56,810853,121349,4713,29722,15735,17280,15462,16204,Tag0,unknown
1610202175558,200,-333,-7.316894531249999E-5,0,0,56,810853,121349,4713,29722,15735,17280,15462,16204,Tag0,unknown
1610202175577,200,-145,-3.18603515625E-5,0,0,56,810853,121349,4713,29722,15735,17280,15462,16204,Tag0,unknown
1610202175598,200,-217,-4.76806640625E-5,0,0,56,810853,121349,4713,29722,15735,17280,15462,16204,Tag0,unknown
1610202175620,200,-238,-5.229492187500001E-5,0,0,56,810853,121349,4713,29722,15735,17280,15462,16204,Tag0,unknown
1610202175631,200,-537,-1.179931640625E-4,0,0,56,810853,121349,4713,29722,15735,17280,15462,16204,Tag0,unknown
1610202175658,200,-395,-8.67919921875E-5,0,0,56,810853,121349,4713,29722,15735,17280,15462,16204,Tag0,unknown
1610202175668,200,-517,-1.135986328125E-4,0,0,56,810853,121349,4713,29722,15735,17280,15462,16204,Tag0,unknown
1610202175698,200,179,3.93310546875E-5,0,0,56,810853,121349,4713,29722,15735,17280,15462,16204,Tag0,unknown
1610202175714,200,247,5.42724609375E-5,0,0,56,810853,121349,4713,29722,15735,17280,15462,16204,Tag0,unknown
1610202175732,200,186,4.0869140625E-5,0,0,56,810853,121349,4713,29722,15735,17280,15462,16204,Tag0,unknown
1610202175749,200,297,6.525878906250001E-5,0,0,56,810853,121349,4713,29722,15735,17280,15462,16204,Tag0,unknown
1610202175759,200,-4,-8.7890625E-7,0,0,56,1828741,87181,16770901,16766541,23404,13273,17639,20251,Tag0,unknown
1610202175769,200,139,3.0541992187500004E-5,0,0,56,1828741,87181,16770901,16766541,23404,13273,17639,20251,Tag0,unknown
1610202175782,200,169,3.7133789062499996E-5,0,0,56,1828741,87181,16770901,16766541,23404,13273,17639,20251,Tag0,unknown
1610202175806,200,323,7.09716796875E-5,0,0,56,1828741,87181,16770901,16766541,23404,13273,17639,20251,Tag0,unknown
1610202175816,200,251,5.5151367187500004E-5,0,0,56,1828741,87181,16770901,16766541,23404,13273,17639,20251,Tag0,unknown
1610202175840,200,-54,-1.1865234375000001E-5,0,0,56,1828741,87181,16770901,16766541,23404,13273,17639,20251,Tag0,unknown
1610202175850,200,347,7.62451171875E-5,0,0,56,1828741,87181,16770901,16766541,23404,13273,17639,20251,Tag0,unknown
1610202175865,200,153,3.3618164062500004E-5,0,0,56,1828741,87181,16770901,16766541,23404,13273,17639,20251,Tag0,unknown
1610202175889,200,334,7.338867187500001E-5,0,0,56,1828741,87181,16770901,16766541,23404,13273,17639,20251,Tag0,unknown
1610202175899,200,325,7.14111328125E-5,0,0,56,1828741,87181,16770901,16766541,23404,13273,17639,20251,Tag0,unknown
1610202175915,200,101,2.2192382812500002E-5,0,0,56,1828741,87181,16770901,16766541,23404,13273,17639,20251,Tag0,unknown
1610202175931,200,-299,-6.56982421875E-5,0,0,56,1828741,87181,16770901,16766541,23404,13273,17639,20251,Tag0,unknown
1610202175947,200,-193,-4.2407226562500005E-5,0,0,56,1828741,87181,16770901,16766541,23404,13273,17639,20251,Tag0,unknown
1610202175965,200,-539,-1.1843261718750001E-4,0,0,56,1828741,87181,16770901,16766541,23404,13273,17639,20251,Tag0,unknown
1610202175985,200,-203,-4.460449218750001E-5,0,0,56,1828741,87181,16770901,16766541,23404,13273,17639,20251,Tag0,unknown
1610202175999,200,-226,-4.9658203125E-5,0,0,56,1828741,87181,16770901,16766541,23404,13273,17639,20251,Tag0,unknown
1610202176009,200,-475,-1.043701171875E-4,0,0,56,1828741,87181,16770901,16766541,23404,13273,17639,20251,Tag0,unknown
1610202176027,200,-387,-8.50341796875E-5,0,0,56,1828741,87181,16770901,16766541,23404,13273,17639,20251,Tag0,unknown
1610202176037,200,-297,-6.525878906250001E-5,0,0,56,1828741,87181,16770901,16766541,23404,13273,17639,20251,Tag0,unknown
1610202176048,200,-283,-6.218261718750001E-5,0,0,56,1828741,87181,16770901,16766541,23404,13273,17639,20251,Tag0,unknown
1610202176067,200,104,2.28515625E-5,0,0,56,1828741,87181,16770901,16766541,23404,13273,17639,20251,Tag0,unknown
1610202176081,200,-55,-1.20849609375E-5,0,0,56,1828741,87181,16770901,16766541,23404,13273,17639,20251,Tag0,unknown
1610202176119,200,-70,-1.5380859375E-5,0,0,56,1828741,87181,16770901,16766541,23404,13273,17639,20251,Tag0,unknown
1610202176131,200,-63,-1.38427734375E-5,0,0,56,1828741,87181,16770901,16766541,23404,13273,17639,20251,Tag0,unknown
1610202176141,200,-70,-1.5380859375E-5,0,0,56,1828741,87181,16770901,16766541,23404,13273,17639,20251,Tag0,unknown
1610202176156,200,-9,-1.9775390625E-6,0,0,56,1828741,87181,16770901,16766541,23404,13273,17639,20251,Tag0,unknown
1610202176166,200,262,5.7568359375E-5,0,0,56,1828741,87181,16770901,16766541,23404,13273,17639,20251,Tag0,unknown
1610202176182,200,-13,-2.8564453125E-6,0,0,56,1828741,87181,16770901,16766541,23404,13273,17639,20251,Tag0,unknown
1610202176198,200,-125,-2.74658203125E-5,0,0,56,1828741,87181,16770901,16766541,23404,13273,17639,20251,Tag0,unknown
1610202176222,200,87,1.91162109375E-5,0,0,56,1828741,87181,16770901,16766541,23404,13273,17639,20251,Tag0,unknown
1610202176232,200,88,1.93359375E-5,0,0,56,1828741,87181,16770901,16766541,23404,13273,17639,20251,Tag0,unknown
1610202176256,200,-230,-5.0537109375E-5,0,0,56,1828741,87181,16770901,16766541,23404,13273,17639,20251,Tag0,unknown
1610202176266,200,-167,-3.6694335937500004E-5,0,0,56,1828741,87181,16770901,16766541,23404,13273,17639,20251,Tag0,unknown
1610202176282,200,-84,-1.8457031250000004E-5,0,0,56,1828741,87181,16770901,16766541,23404,13273,17639,20251,Tag0,unknown
1610202176299,200,97,2.13134765625E-5,0,0,56,1828741,87181,16770901,16766541,23404,13273,17639,20251,Tag0,unknown
1610202176327,200,-261,-5.73486328125E-5,0,0,56,1828741,87181,16770901,16766541,23404,13273,17639,20251,Tag0,unknown
1610202176337,200,11,2.4169921875E-6,0,0,56,1828741,87181,16770901,16766541,23404,13273,17639,20251,Tag0,unknown
1610202176348,200,62,1.3623046875E-5,0,0,56,1828741,87181,16770901,16766541,23404,13273,17639,20251,Tag0,unknown
1610202176369,200,94,2.0654296875000002E-5,0,0,56,1828741,87181,16770901,16766541,23404,13273,17639,20251,Tag0,unknown
1610202176381,200,61,1.34033203125E-5,0,0,56,1828741,87181,16770901,16766541,23404,13273,17639,20251,Tag0,unknown
1610202176405,200,115,2.52685546875E-5,0,0,56,1828741,87181,16770901,16766541,23404,13273,17639,20251,Tag0,unknown
1610202176415,200,-36,-7.91015625E-6,0,0,56,1828741,87181,16770901,16766541,23404,13273,17639,20251,Tag0,unknown
1610202176444,200,-91,-1.99951171875E-5,0,0,56,1828741,87181,16770901,16766541,23404,13273,17639,20251,Tag0,unknown
1610202176454,200,115,2.52685546875E-5,0,0,56,1828741,87181,16770901,16766541,23404,13273,17639,20251,Tag0,unknown
1610202176466,200,7,1.5380859375E-6,0,0,56,1828741,87181,16770901,16766541,23404,13273,17639,20251,Tag0,unknown
1610202176536,200,-325,-7.14111328125E-5,0,0,56,1828741,87181,16770901,16766541,23404,13273,17639,20251,Tag0,unknown
1610202176548,200,-285,-6.26220703125E-5,0,0,56,1828741,87181,16770901,16766541,23404,13273,17639,20251,Tag0,unknown
1610202176631,200,97,2.13134765625E-5,0,0,56,1828741,87181,16770901,16766541,23404,13273,17639,20251,Tag0,unknown
1610202176647,200,29,6.3720703125E-6,0,0,56,1828741,87181,16770901,16766541,23404,13273,17639,20251,Tag0,unknown
1610202176666,200,76,1.669921875E-5,0,0,56,1828741,87181,16770901,16766541,23404,13273,17639,20251,Tag0,unknown
1610202176703,200,-116,-2.548828125E-5,0,0,56,1828741,87181,16770901,16766541,23404,13273,17639,20251,Tag0,unknown
1610202176716,200,121,2.6586914062500003E-5,0,0,56,1828741,87181,16770901,16766541,23404,13273,17639,20251,Tag0,unknown
1610202176732,200,9,1.9775390625E-6,0,0,56,1828741,87181,16770901,16766541,23404,13273,17639,20251,Tag0,unknown
1610202176742,200,71,1.56005859375E-5,0,0,56,1828741,87181,16770901,16766541,23404,13273,17639,20251,Tag0,unknown
1610202176752,200,-267,-5.86669921875E-5,0,0,56,1828741,87181,16770901,16766541,23404,13273,17639,20251,Tag0,unknown
1610202176762,200,-379,-8.32763671875E-5,0,0,56,1828741,87181,16770901,16766541,23404,13273,17639,20251,Tag0,unknown
1610202176785,200,98,2.1533203125E-5,0,0,56,126596,16773112,8312,2947,5165,2827,4207,2208,Tag0,unknown
1610202176798,200,-349,-7.668457031250001E-5,0,0,56,126596,16773112,8312,2947,5165,2827,4207,2208,Tag0,unknown
1610202176822,200,-551,-1.210693359375E-4,0,0,56,126596,16773112,8312,2947,5165,2827,4207,2208,Tag0,unknown
1610202176832,200,-545,-1.197509765625E-4,0,0,56,126596,16773112,8312,2947,5165,2827,4207,2208,Tag0,unknown
1610202176856,200,-520,-1.142578125E-4,0,0,56,126596,16773112,8312,2947,5165,2827,4207,2208,Tag0,unknown
1610202176866,200,-348,-7.646484375E-5,0,0,56,126596,16773112,8312,2947,5165,2827,4207,2208,Tag0,unknown
1610202176892,200,-5,-1.0986328125E-6,0,0,56,126596,16773112,8312,2947,5165,2827,4207,2208,Tag0,unknown
1610202176902,200,334,7.338867187500001E-5,0,0,56,126596,16773112,8312,2947,5165,2827,4207,2208,Tag0,unknown
1610202176929,200,10,2.197265625E-6,0,0,56,126596,16773112,8312,2947,5165,2827,4207,2208,Tag0,unknown
1610202176947,200,-269,-5.9106445312499996E-5,0,0,56,126596,16773112,8312,2947,5165,2827,4207,2208,Tag0,unknown
1610202176966,200,199,4.3725585937499995E-5,0,0,56,126596,16773112,8312,2947,5165,2827,4207,2208,Tag0,unknown
1610202176981,200,233,5.1196289062500006E-5,0,0,56,126596,16773112,8312,2947,5165,2827,4207,2208,Tag0,unknown
1610202177003,200,518,1.13818359375E-4,0,0,56,126596,16773112,8312,2947,5165,2827,4207,2208,Tag0,unknown
1610202177015,200,254,5.5810546875E-5,0,0,56,126596,16773112,8312,2947,5165,2827,4207,2208,Tag0,unknown
1610202177025,200,189,4.15283203125E-5,0,0,56,126596,16773112,8312,2947,5165,2827,4207,2208,Tag0,unknown
1610202177039,200,376,8.261718750000001E-5,0,0,56,126596,16773112,8312,2947,5165,2827,4207,2208,Tag0,unknown
1610202177049,200,344,7.558593750000001E-5,0,0,56,126596,16773112,8312,2947,5165,2827,4207,2208,Tag0,unknown
1610202177078,200,349,7.668457031250001E-5,0,0,56,126596,16773112,8312,2947,5165,2827,4207,2208,Tag0,unknown
1610202177099,200,297,6.525878906250001E-5,0,0,56,126596,16773112,8312,2947,5165,2827,4207,2208,Tag0,unknown
1610202177109,200,-13,-2.8564453125E-6,0,0,56,126596,16773112,8312,2947,5165,2827,4207,2208,Tag0,unknown
1610202177132,200,-284,-6.240234375E-5,0,0,56,126596,16773112,8312,2947,5165,2827,4207,2208,Tag0,unknown
1610202177149,200,54,1.1865234375000001E-5,0,0,56,126596,16773112,8312,2947,5165,2827,4207,2208,Tag0,unknown
1610202177165,200,-141,-3.09814453125E-5,0,0,56,126596,16773112,8312,2947,5165,2827,4207,2208,Tag0,unknown
1610202177181,200,-227,-4.98779296875E-5,0,0,56,126596,16773112,8312,2947,5165,2827,4207,2208,Tag0,unknown
1610202177199,200,-585,-1.285400390625E-4,0,0,56,126596,16773112,8312,2947,5165,2827,4207,2208,Tag0,unknown
1610202177215,200,-146,-3.2080078125000004E-5,0,0,56,126596,16773112,8312,2947,5165,2827,4207,2208,Tag0,unknown
1610202177239,200,-213,-4.68017578125E-5,0,0,56,126596,16773112,8312,2947,5165,2827,4207,2208,Tag0,unknown
1610202177250,200,-235,-5.16357421875E-5,0,0,56,126596,16773112,8312,2947,5165,2827,4207,2208,Tag0,unknown
1610202177264,200,5,1.0986328125E-6,0,0,56,126596,16773112,8312,2947,5165,2827,4207,2208,Tag0,unknown
1610202177282,200,53,1.1645507812500002E-5,0,0,56,126596,16773112,8312,2947,5165,2827,4207,2208,Tag0,unknown
1610202177298,200,-29,-6.3720703125E-6,0,0,56,126596,16773112,8312,2947,5165,2827,4207,2208,Tag0,unknown
1610202177315,200,103,2.26318359375E-5,0,0,56,126596,16773112,8312,2947,5165,2827,4207,2208,Tag0,unknown
1610202177377,200,-54,-1.1865234375000001E-5,0,0,56,126596,16773112,8312,2947,5165,2827,4207,2208,Tag0,unknown
1610202177398,200,-29,-6.3720703125E-6,0,0,56,126596,16773112,8312,2947,5165,2827,4207,2208,Tag0,unknown
1610202177415,200,369,8.10791015625E-5,0,0,56,126596,16773112,8312,2947,5165,2827,4207,2208,Tag0,unknown
1610202177431,200,-112,-2.4609375E-5,0,0,56,126596,16773112,8312,2947,5165,2827,4207,2208,Tag0,unknown
1610202177452,200,267,5.86669921875E-5,0,0,56,126596,16773112,8312,2947,5165,2827,4207,2208,Tag0,unknown
1610202177465,200,-38,-8.349609375E-6,0,0,56,126596,16773112,8312,2947,5165,2827,4207,2208,Tag0,unknown
1610202177527,200,-200,-4.39453125E-5,0,0,56,126596,16773112,8312,2947,5165,2827,4207,2208,Tag0,unknown
1610202177548,200,-205,-4.50439453125E-5,0,0,56,126596,16773112,8312,2947,5165,2827,4207,2208,Tag0,unknown
1610202177558,200,-217,-4.76806640625E-5,0,0,56,126596,16773112,8312,2947,5165,2827,4207,2208,Tag0,unknown
1610202177570,200,-283,-6.218261718750001E-5,0,0,56,126596,16773112,8312,2947,5165,2827,4207,2208,Tag0,unknown
1610202177581,200,39,8.5693359375E-6,0,0,56,126596,16773112,8312,2947,5165,2827,4207,2208,Tag0,unknown
1610202177607,200,51,1.1206054687499999E-5,0,0,56,126596,16773112,8312,2947,5165,2827,4207,2208,Tag0,unknown
1610202177617,200,-100,-2.197265625E-5,0,0,56,126596,16773112,8312,2947,5165,2827,4207,2208,Tag0,unknown
1610202177631,200,-267,-5.86669921875E-5,0,0,56,126596,16773112,8312,2947,5165,2827,4207,2208,Tag0,unknown
1610202177648,200,55,1.20849609375E-5,0,0,56,126596,16773112,8312,2947,5165,2827,4207,2208,Tag0,unknown
1610202177664,200,-35,-7.6904296875E-6,0,0,56,126596,16773112,8312,2947,5165,2827,4207,2208,Tag0,unknown
1610202177683,200,-257,-5.64697265625E-5,0,0,56,126596,16773112,8312,2947,5165,2827,4207,2208,Tag0,unknown
1610202177702,200,-105,-2.30712890625E-5,0,0,56,126596,16773112,8312,2947,5165,2827,4207,2208,Tag0,unknown
1610202177721,200,-359,-7.88818359375E-5,0,0,56,126596,16773112,8312,2947,5165,2827,4207,2208,Tag0,unknown
1610202177731,200,-291,-6.39404296875E-5,0,0,56,126596,16773112,8312,2947,5165,2827,4207,2208,Tag0,unknown
1610202177752,200,9,1.9775390625E-6,0,0,56,755126,16768765,39587,16753654,21430,25229,23701,19801,Tag0,unknown
1610202177767,200,312,6.85546875E-5,0,0,56,755126,16768765,39587,16753654,21430,25229,23701,19801,Tag0,unknown
1610202177781,200,-38,-8.349609375E-6,0,0,56,755126,16768765,39587,16753654,21430,25229,23701,19801,Tag0,unknown
1610202177798,200,261,5.73486328125E-5,0,0,56,755126,16768765,39587,16753654,21430,25229,23701,19801,Tag0,unknown
1610202177815,200,-122,-2.6806640625E-5,0,0,56,755126,16768765,39587,16753654,21430,25229,23701,19801,Tag0,unknown
1610202177835,200,-39,-8.5693359375E-6,0,0,56,755126,16768765,39587,16753654,21430,25229,23701,19801,Tag0,unknown
1610202177848,200,57,1.2524414062500001E-5,0,0,56,755126,16768765,39587,16753654,21430,25229,23701,19801,Tag0,unknown
1610202177867,200,-103,-2.26318359375E-5,0,0,56,755126,16768765,39587,16753654,21430,25229,23701,19801,Tag0,unknown
1610202177881,200,-96,-2.109375E-5,0,0,56,755126,16768765,39587,16753654,21430,25229,23701,19801,Tag0,unknown
1610202177891,200,1,2.197265625E-7,0,0,56,755126,16768765,39587,16753654,21430,25229,23701,19801,Tag0,unknown
1610202177904,200,-311,-6.833496093750001E-5,0,0,56,755126,16768765,39587,16753654,21430,25229,23701,19801,Tag0,unknown
1610202177915,200,54,1.1865234375000001E-5,0,0,56,755126,16768765,39587,16753654,21430,25229,23701,19801,Tag0,unknown
1610202177941,200,-297,-6.525878906250001E-5,0,0,56,755126,16768765,39587,16753654,21430,25229,23701,19801,Tag0,unknown
1610202177951,200,-340,-7.470703125E-5,0,0,56,755126,16768765,39587,16753654,21430,25229,23701,19801,Tag0,unknown
1610202177964,200,13,2.8564453125E-6,0,0,56,755126,16768765,39587,16753654,21430,25229,23701,19801,Tag0,unknown
1610202177981,200,85,1.86767578125E-5,0,0,56,755126,16768765,39587,16753654,21430,25229,23701,19801,Tag0,unknown
1610202178013,200,-301,-6.613769531250001E-5,0,0,56,755126,16768765,39587,16753654,21430,25229,23701,19801,Tag0,unknown
1610202178032,200,101,2.2192382812500002E-5,0,0,56,755126,16768765,39587,16753654,21430,25229,23701,19801,Tag0,unknown
1610202178054,200,-301,-6.613769531250001E-5,0,0,56,755126,16768765,39587,16753654,21430,25229,23701,19801,Tag0,unknown
1610202178065,200,12,2.63671875E-6,0,0,56,755126,16768765,39587,16753654,21430,25229,23701,19801,Tag0,unknown
1610202178081,200,-60,-1.318359375E-5,0,0,56,755126,16768765,39587,16753654,21430,25229,23701,19801,Tag0,unknown
1610202178101,200,49,1.07666015625E-5,0,0,56,755126,16768765,39587,16753654,21430,25229,23701,19801,Tag0,unknown
1610202178115,200,123,2.70263671875E-5,0,0,56,755126,16768765,39587,16753654,21430,25229,23701,19801,Tag0,unknown
1610202178131,200,81,1.77978515625E-5,0,0,56,755126,16768765,39587,16753654,21430,25229,23701,19801,Tag0,unknown
1610202178148,200,-279,-6.13037109375E-5,0,0,56,755126,16768765,39587,16753654,21430,25229,23701,19801,Tag0,unknown
1610202178165,200,-260,-5.712890625E-5,0,0,56,755126,16768765,39587,16753654,21430,25229,23701,19801,Tag0,unknown
1610202178202,200,-227,-4.98779296875E-5,0,0,56,755126,16768765,39587,16753654,21430,25229,23701,19801,Tag0,unknown
1610202178215,200,-277,-6.0864257812500005E-5,0,0,56,755126,16768765,39587,16753654,21430,25229,23701,19801,Tag0,unknown
1610202178225,200,20,4.39453125E-6,0,0,56,755126,16768765,39587,16753654,21430,25229,23701,19801,Tag0,unknown
1610202178248,200,-313,-6.87744140625E-5,0,0,56,755126,16768765,39587,16753654,21430,25229,23701,19801,Tag0,unknown
1610202178264,200,-305,-6.70166015625E-5,0,0,56,755126,16768765,39587,16753654,21430,25229,23701,19801,Tag0,unknown
1610202178283,200,-64,-1.40625E-5,0,0,56,755126,16768765,39587,16753654,21430,25229,23701,19801,Tag0,unknown
1610202178298,200,55,1.20849609375E-5,0,0,56,755126,16768765,39587,16753654,21430,25229,23701,19801,Tag0,unknown
1610202178318,200,51,1.1206054687499999E-5,0,0,56,755126,16768765,39587,16753654,21430,25229,23701,19801,Tag0,unknown
1610202178352,200,19,4.1748046875E-6,0,0,56,755126,16768765,39587,16753654,21430,25229,23701,19801,Tag0,unknown
1610202178364,200,9,1.9775390625E-6,0,0,56,755126,16768765,39587,16753654,21430,25229,23701,19801,Tag0,unknown
1610202178385,200,34,7.4707031250000005E-6,0,0,56,755126,16768765,39587,16753654,21430,25229,23701,19801,Tag0,unknown
1610202178399,200,39,8.5693359375E-6,0,0,56,755126,16768765,39587,16753654,21430,25229,23701,19801,Tag0,unknown
1610202178415,200,33,7.2509765625E-6,0,0,56,755126,16768765,39587,16753654,21430,25229,23701,19801,Tag0,unknown
1610202178432,200,-77,-1.69189453125E-5,0,0,56,755126,16768765,39587,16753654,21430,25229,23701,19801,Tag0,unknown
1610202178448,200,-267,-5.86669921875E-5,0,0,56,755126,16768765,39587,16753654,21430,25229,23701,19801,Tag0,unknown
1610202178466,200,-107,-2.35107421875E-5,0,0,56,755126,16768765,39587,16753654,21430,25229,23701,19801,Tag0,unknown
1610202178504,200,3,6.591796875E-7,0,0,56,755126,16768765,39587,16753654,21430,25229,23701,19801,Tag0,unknown
1610202178515,200,57,1.2524414062500001E-5,0,0,56,755126,16768765,39587,16753654,21430,25229,23701,19801,Tag0,unknown
1610202178545,200,-329,-7.229003906250001E-5,0,0,56,755126,16768765,39587,16753654,21430,25229,23701,19801,Tag0,unknown
1610202178555,200,72,1.58203125E-5,0,0,56,755126,16768765,39587,16753654,21430,25229,23701,19801,Tag0,unknown
1610202178566,200,-357,-7.844238281250001E-5,0,0,56,755126,16768765,39587,16753654,21430,25229,23701,19801,Tag0,unknown
1610202178585,200,40,8.7890625E-6,0,0,56,755126,16768765,39587,16753654,21430,25229,23701,19801,Tag0,unknown
1610202178600,200,29,6.3720703125E-6,0,0,56,755126,16768765,39587,16753654,21430,25229,23701,19801,Tag0,unknown
1610202178619,200,-312,-6.85546875E-5,0,0,56,755126,16768765,39587,16753654,21430,25229,23701,19801,Tag0,unknown
1610202178633,200,-332,-7.294921875E-5,0,0,56,755126,16768765,39587,16753654,21430,25229,23701,19801,Tag0,unknown
1610202178643,200,116,2.548828125E-5,0,0,56,755126,16768765,39587,16753654,21430,25229,23701,19801,Tag0,unknown
1610202178675,200,308,6.767578125E-5,0,0,56,755126,16768765,39587,16753654,21430,25229,23701,19801,Tag0,unknown
1610202178685,200,101,2.2192382812500002E-5,0,0,56,755126,16768765,39587,16753654,21430,25229,23701,19801,Tag0,unknown
1610202178698,200,281,6.17431640625E-5,0,0,56,755126,16768765,39587,16753654,21430,25229,23701,19801,Tag0,unknown
1610202178728,200,-96,-2.109375E-5,0,0,56,755126,16768765,39587,16753654,21430,25229,23701,19801,Tag0,unknown
1610202178749,200,-299,-6.56982421875E-5,0,0,56,755126,16768765,39587,16753654,21430,25229,23701,19801,Tag0,unknown
1610202178759,200,325,7.14111328125E-5,0,0,56,349399,352463,77916,11099,24485,16760274,24872,16748103,Tag0,unknown
1610202178770,200,65,1.42822265625E-5,0,0,56,349399,352463,77916,11099,24485,16760274,24872,16748103,Tag0,unknown
1610202178783,200,65,1.42822265625E-5,0,0,56,349399,352463,77916,11099,24485,16760274,24872,16748103,Tag0,unknown
1610202178804,200,28,6.15234375E-6,0,0,56,349399,352463,77916,11099,24485,16760274,24872,16748103,Tag0,unknown
1610202178818,200,54,1.1865234375000001E-5,0,0,56,349399,352463,77916,11099,24485,16760274,24872,16748103,Tag0,unknown
1610202178828,200,-371,-8.151855468750001E-5,0,0,56,349399,352463,77916,11099,24485,16760274,24872,16748103,Tag0,unknown
1610202178843,200,1,2.197265625E-7,0,0,56,349399,352463,77916,11099,24485,16760274,24872,16748103,Tag0,unknown
1610202178853,200,105,2.30712890625E-5,0,0,56,349399,352463,77916,11099,24485,16760274,24872,16748103,Tag0,unknown
1610202178879,200,19,4.1748046875E-6,0,0,56,349399,352463,77916,11099,24485,16760274,24872,16748103,Tag0,unknown
1610202178889,200,257,5.64697265625E-5,0,0,56,349399,352463,77916,11099,24485,16760274,24872,16748103,Tag0,unknown
1610202178899,200,-71,-1.56005859375E-5,0,0,56,349399,352463,77916,11099,24485,16760274,24872,16748103,Tag0,unknown
1610202178916,200,-279,-6.13037109375E-5,0,0,56,349399,352463,77916,11099,24485,16760274,24872,16748103,Tag0,unknown
1610202178932,200,6,1.318359375E-6,0,0,56,349399,352463,77916,11099,24485,16760274,24872,16748103,Tag0,unknown
1610202178954,200,113,2.48291015625E-5,0,0,56,349399,352463,77916,11099,24485,16760274,24872,16748103,Tag0,unknown
1610202178965,200,53,1.1645507812500002E-5,0,0,56,349399,352463,77916,11099,24485,16760274,24872,16748103,Tag0,unknown
1610202178975,200,98,2.1533203125E-5,0,0,56,349399,352463,77916,11099,24485,16760274,24872,16748103,Tag0,unknown
1610202178992,200,-333,-7.316894531249999E-5,0,0,56,349399,352463,77916,11099,24485,16760274,24872,16748103,Tag0,unknown
1610202179002,200,-125,-2.74658203125E-5,0,0,56,349399,352463,77916,11099,24485,16760274,24872,16748103,Tag0,unknown
1610202179027,200,-354,-7.778320312500001E-5,0,0,56,349399,352463,77916,11099,24485,16760274,24872,16748103,Tag0,unknown
1610202179049,200,48,1.0546875E-5,0,0,56,349399,352463,77916,11099,24485,16760274,24872,16748103,Tag0,unknown
1610202179066,200,-298,-6.5478515625E-5,0,0,56,349399,352463,77916,11099,24485,16760274,24872,16748103,Tag0,unknown
1610202179083,200,17,3.7353515625000003E-6,0,0,56,349399,352463,77916,11099,24485,16760274,24872,16748103,Tag0,unknown
1610202179103,200,-264,-5.80078125E-5,0,0,56,349399,352463,77916,11099,24485,16760274,24872,16748103,Tag0,unknown
1610202179116,200,18,3.955078125E-6,0,0,56,349399,352463,77916,11099,24485,16760274,24872,16748103,Tag0,unknown
1610202179141,200,97,2.13134765625E-5,0,0,56,349399,352463,77916,11099,24485,16760274,24872,16748103,Tag0,unknown
1610202179151,200,25,5.4931640625E-6,0,0,56,349399,352463,77916,11099,24485,16760274,24872,16748103,Tag0,unknown
1610202179166,200,-337,-7.40478515625E-5,0,0,56,349399,352463,77916,11099,24485,16760274,24872,16748103,Tag0,unknown
1610202179183,200,-167,-3.6694335937500004E-5,0,0,56,349399,352463,77916,11099,24485,16760274,24872,16748103,Tag0,unknown
1610202179211,200,27,5.9326171875000005E-6,0,0,56,349399,352463,77916,11099,24485,16760274,24872,16748103,Tag0,unknown
1610202179221,200,-330,-7.2509765625E-5,0,0,56,349399,352463,77916,11099,24485,16760274,24872,16748103,Tag0,unknown
1610202179233,200,119,2.6147460937500004E-5,0,0,56,349399,352463,77916,11099,24485,16760274,24872,16748103,Tag0,unknown
1610202179253,200,-105,-2.30712890625E-5,0,0,56,349399,352463,77916,11099,24485,16760274,24872,16748103,Tag0,unknown
1610202179266,200,-102,-2.2412109374999998E-5,0,0,56,349399,352463,77916,11099,24485,16760274,24872,16748103,Tag0,unknown
1610202179276,200,105,2.30712890625E-5,0,0,56,349399,352463,77916,11099,24485,16760274,24872,16748103,Tag0,unknown
1610202179291,200,-323,-7.09716796875E-5,0,0,56,349399,352463,77916,11099,24485,16760274,24872,16748103,Tag0,unknown
1610202179302,200,-103,-2.26318359375E-5,0,0,56,349399,352463,77916,11099,24485,16760274,24872,16748103,Tag0,unknown
1610202179318,200,97,2.13134765625E-5,0,0,56,349399,352463,77916,11099,24485,16760274,24872,16748103,Tag0,unknown
1610202179332,200,346,7.6025390625E-5,0,0,56,349399,352463,77916,11099,24485,16760274,24872,16748103,Tag0,unknown
1610202179349,200,114,2.5048828125000003E-5,0,0,56,349399,352463,77916,11099,24485,16760274,24872,16748103,Tag0,unknown
1610202179367,200,112,2.4609375E-5,0,0,56,349399,352463,77916,11099,24485,16760274,24872,16748103,Tag0,unknown
1610202179382,200,101,2.2192382812500002E-5,0,0,56,349399,352463,77916,11099,24485,16760274,24872,16748103,Tag0,unknown
1610202179392,200,-58,-1.2744140625E-5,0,0,56,349399,352463,77916,11099,24485,16760274,24872,16748103,Tag0,unknown
1610202179406,200,4,8.7890625E-7,0,0,56,349399,352463,77916,11099,24485,16760274,24872,16748103,Tag0,unknown
1610202179416,200,-358,-7.8662109375E-5,0,0,56,349399,352463,77916,11099,24485,16760274,24872,16748103,Tag0,unknown
1610202179441,200,-353,-7.75634765625E-5,0,0,56,349399,352463,77916,11099,24485,16760274,24872,16748103,Tag0,unknown
1610202179451,200,-257,-5.64697265625E-5,0,0,56,349399,352463,77916,11099,24485,16760274,24872,16748103,Tag0,unknown
1610202179465,200,1,2.197265625E-7,0,0,56,349399,352463,77916,11099,24485,16760274,24872,16748103,Tag0,unknown
1610202179484,200,-249,-5.47119140625E-5,0,0,56,349399,352463,77916,11099,24485,16760274,24872,16748103,Tag0,unknown
1610202179512,200,-283,-6.218261718750001E-5,0,0,56,349399,352463,77916,11099,24485,16760274,24872,16748103,Tag0,unknown
1610202179532,200,72,1.58203125E-5,0,0,56,349399,352463,77916,11099,24485,16760274,24872,16748103,Tag0,unknown
1610202179561,200,-117,-2.5708007812499998E-5,0,0,56,349399,352463,77916,11099,24485,16760274,24872,16748103,Tag0,unknown
1610202179583,200,-296,-6.50390625E-5,0,0,56,349399,352463,77916,11099,24485,16760274,24872,16748103,Tag0,unknown
1610202179599,200,35,7.6904296875E-6,0,0,56,349399,352463,77916,11099,24485,16760274,24872,16748103,Tag0,unknown
1610202179616,200,53,1.1645507812500002E-5,0,0,56,349399,352463,77916,11099,24485,16760274,24872,16748103,Tag0,unknown
1610202179633,200,76,1.669921875E-5,0,0,56,349399,352463,77916,11099,24485,16760274,24872,16748103,Tag0,unknown
1610202179648,200,-280,-6.15234375E-5,0,0,56,349399,352463,77916,11099,24485,16760274,24872,16748103,Tag0,unknown
1610202179658,200,3,6.591796875E-7,0,0,56,349399,352463,77916,11099,24485,16760274,24872,16748103,Tag0,unknown
1610202179671,200,7,1.5380859375E-6,0,0,56,349399,352463,77916,11099,24485,16760274,24872,16748103,Tag0,unknown
1610202179683,200,23,5.0537109375E-6,0,0,56,349399,352463,77916,11099,24485,16760274,24872,16748103,Tag0,unknown
1610202179698,200,103,2.26318359375E-5,0,0,56,349399,352463,77916,11099,24485,16760274,24872,16748103,Tag0,unknown
1610202179715,200,-48,-1.0546875E-5,0,0,56,349399,352463,77916,11099,24485,16760274,24872,16748103,Tag0,unknown
1610202179744,200,-25,-5.4931640625E-6,0,0,56,110092,28754,30301,6041,4908,2996,6225,6420,Tag0,unknown
1610202179765,200,-57,-1.2524414062500001E-5,0,0,56,110092,28754,30301,6041,4908,2996,6225,6420,Tag0,unknown
1610202179784,200,182,3.9990234375E-5,0,0,56,110092,28754,30301,6041,4908,2996,6225,6420,Tag0,unknown
1610202179799,200,153,3.3618164062500004E-5,0,0,56,110092,28754,30301,6041,4908,2996,6225,6420,Tag0,unknown
1610202179820,200,-95,-2.08740234375E-5,0,0,56,110092,28754,30301,6041,4908,2996,6225,6420,Tag0,unknown
1610202179832,200,-77,-1.69189453125E-5,0,0,56,110092,28754,30301,6041,4908,2996,6225,6420,Tag0,unknown
1610202179842,200,92,2.021484375E-5,0,0,56,110092,28754,30301,6041,4908,2996,6225,6420,Tag0,unknown
1610202179858,200,74,1.6259765625E-5,0,0,56,110092,28754,30301,6041,4908,2996,6225,6420,Tag0,unknown
1610202179868,200,267,5.86669921875E-5,0,0,56,110092,28754,30301,6041,4908,2996,6225,6420,Tag0,unknown
1610202179891,200,-87,-1.91162109375E-5,0,0,56,110092,28754,30301,6041,4908,2996,6225,6420,Tag0,unknown
1610202179901,200,-77,-1.69189453125E-5,0,0,56,110092,28754,30301,6041,4908,2996,6225,6420,Tag0,unknown
1610202179916,200,-258,-5.6689453125000004E-5,0,0,56,110092,28754,30301,6041,4908,2996,6225,6420,Tag0,unknown
1610202179951,200,-281,-6.17431640625E-5,0,0,56,110092,28754,30301,6041,4908,2996,6225,6420,Tag0,unknown
1610202179968,200,-339,-7.448730468750001E-5,0,0,56,110092,28754,30301,6041,4908,2996,6225,6420,Tag0,unknown
1610202179978,200,-379,-8.32763671875E-5,0,0,56,110092,28754,30301,6041,4908,2996,6225,6420,Tag0,unknown
1610202179988,200,-281,-6.17431640625E-5,0,0,56,110092,28754,30301,6041,4908,2996,6225,6420,Tag0,unknown
1610202180003,200,-273,-5.998535156250001E-5,0,0,56,110092,28754,30301,6041,4908,2996,6225,6420,Tag0,unknown
1610202180017,200,-325,-7.14111328125E-5,0,0,56,110092,28754,30301,6041,4908,2996,6225,6420,Tag0,unknown
1610202180036,200,-135,-2.96630859375E-5,0,0,56,110092,28754,30301,6041,4908,2996,6225,6420,Tag0,unknown
1610202180050,200,-141,-3.09814453125E-5,0,0,56,110092,28754,30301,6041,4908,2996,6225,6420,Tag0,unknown
1610202180060,200,-794,-1.74462890625E-4,0,0,56,110092,28754,30301,6041,4908,2996,6225,6420,Tag0,unknown
1610202180085,200,-411,-9.03076171875E-5,0,0,56,110092,28754,30301,6041,4908,2996,6225,6420,Tag0,unknown
1610202180099,200,-137,-3.0102539062499998E-5,0,0,56,110092,28754,30301,6041,4908,2996,6225,6420,Tag0,unknown
1610202180115,200,53,1.1645507812500002E-5,0,0,56,110092,28754,30301,6041,4908,2996,6225,6420,Tag0,unknown
1610202180132,200,7,1.5380859375E-6,0,0,56,110092,28754,30301,6041,4908,2996,6225,6420,Tag0,unknown
1610202180152,200,202,4.4384765625000004E-5,0,0,56,110092,28754,30301,6041,4908,2996,6225,6420,Tag0,unknown
1610202180165,200,237,5.2075195312500004E-5,0,0,56,110092,28754,30301,6041,4908,2996,6225,6420,Tag0,unknown
1610202180186,200,547,1.201904296875E-4,0,0,56,110092,28754,30301,6041,4908,2996,6225,6420,Tag0,unknown
1610202180198,200,224,4.921875E-5,0,0,56,110092,28754,30301,6041,4908,2996,6225,6420,Tag0,unknown
1610202180228,200,-577,-1.2678222656250002E-4,0,0,56,110092,28754,30301,6041,4908,2996,6225,6420,Tag0,unknown
1610202180248,200,-1015,-2.230224609375E-4,0,0,56,110092,28754,30301,6041,4908,2996,6225,6420,Tag0,unknown
1610202180276,200,-1357,-2.981689453125E-4,0,0,56,110092,28754,30301,6041,4908,2996,6225,6420,Tag0,unknown
1610202180286,200,-1319,-2.898193359375E-4,0,0,56,110092,28754,30301,6041,4908,2996,6225,6420,Tag0,unknown
1610202180299,200,-1062,-2.3334960937500002E-4,0,0,56,110092,28754,30301,6041,4908,2996,6225,6420,Tag0,unknown
1610202180319,200,301,6.613769531250001E-5,0,0,56,110092,28754,30301,6041,4908,2996,6225,6420,Tag0,unknown
1610202180341,200,-939,-2.0632324218750002E-4,0,0,56,110092,28754,30301,6041,4908,2996,6225,6420,Tag0,unknown
1610202180351,200,-1081,-2.375244140625E-4,0,0,56,110092,28754,30301,6041,4908,2996,6225,6420,Tag0,unknown
1610202180377,200,-851,-1.869873046875E-4,0,0,56,110092,28754,30301,6041,4908,2996,6225,6420,Tag0,unknown
1610202180391,200,-465,-1.021728515625E-4,0,0,56,110092,28754,30301,6041,4908,2996,6225,6420,Tag0,unknown
1610202180401,200,-571,-1.254638671875E-4,0,0,56,110092,28754,30301,6041,4908,2996,6225,6420,Tag0,unknown
1610202180422,200,-205,-4.50439453125E-5,0,0,56,110092,28754,30301,6041,4908,2996,6225,6420,Tag0,unknown
1610202180432,200,-196,-4.306640625E-5,0,0,56,110092,28754,30301,6041,4908,2996,6225,6420,Tag0,unknown
1610202180455,200,-356,-7.822265625E-5,0,0,56,110092,28754,30301,6041,4908,2996,6225,6420,Tag0,unknown
1610202180466,200,-343,-7.53662109375E-5,0,0,56,110092,28754,30301,6041,4908,2996,6225,6420,Tag0,unknown
1610202180482,200,-259,-5.69091796875E-5,0,0,56,110092,28754,30301,6041,4908,2996,6225,6420,Tag0,unknown
1610202180499,200,1,2.197265625E-7,0,0,56,110092,28754,30301,6041,4908,2996,6225,6420,Tag0,unknown
1610202180528,200,24,5.2734375E-6,0,0,56,110092,28754,30301,6041,4908,2996,6225,6420,Tag0,unknown
1610202180549,200,-39,-8.5693359375E-6,0,0,56,110092,28754,30301,6041,4908,2996,6225,6420,Tag0,unknown
1610202180569,200,1791,3.935302734375E-4,0,0,56,110092,28754,30301,6041,4908,2996,6225,6420,Tag0,unknown
1610202180583,200,1791,3.935302734375E-4,0,0,56,110092,28754,30301,6041,4908,2996,6225,6420,Tag0,unknown
1610202180593,200,1141,2.5070800781250004E-4,0,0,56,110092,28754,30301,6041,4908,2996,6225,6420,Tag0,unknown
1610202180605,200,1101,2.419189453125E-4,0,0,56,110092,28754,30301,6041,4908,2996,6225,6420,Tag0,unknown
1610202180616,200,865,1.900634765625E-4,0,0,56,110092,28754,30301,6041,4908,2996,6225,6420,Tag0,unknown
1610202180636,200,449,9.86572265625E-5,0,0,56,110092,28754,30301,6041,4908,2996,6225,6420,Tag0,unknown
1610202180650,200,426,9.3603515625E-5,0,0,56,110092,28754,30301,6041,4908,2996,6225,6420,Tag0,unknown
1610202180678,200,363,7.97607421875E-5,0,0,56,110092,28754,30301,6041,4908,2996,6225,6420,Tag0,unknown
1610202180699,200,-2048,-4.5E-4,0,0,56,110092,28754,30301,6041,4908,2996,6225,6420,Tag0,unknown
1610202180719,200,-1746,-3.8364257812500003E-4,0,0,56,110092,28754,30301,6041,4908,2996,6225,6420,Tag0,unknown
1610202180733,200,-1420,-3.1201171875E-4,0,0,56,110092,28754,30301,6041,4908,2996,6225,6420,Tag0,unknown
1610202180755,200,1791,3.935302734375E-4,0,0,56,842634,101018,16769929,16767156,16751573,74028,71724,30719,Tag0,unknown
1610202180767,200,1791,3.935302734375E-4,0,0,56,842634,101018,16769929,16767156,16751573,74028,71724,30719,Tag0,unknown
1610202180777,200,457,1.004150390625E-4,0,0,56,842634,101018,16769929,16767156,16751573,74028,71724,30719,Tag0,unknown
1610202180799,200,-2104,-4.6230468750000004E-4,0,0,56,842634,101018,16769929,16767156,16751573,74028,71724,30719,Tag0,unknown
1610202180828,200,-2048,-4.5E-4,0,0,56,842634,101018,16769929,16767156,16751573,74028,71724,30719,Tag0,unknown
1610202180849,200,-2048,-4.5E-4,0,0,56,842634,101018,16769929,16767156,16751573,74028,71724,30719,Tag0,unknown
1610202180870,200,-738,-1.62158203125E-4,0,0,56,842634,101018,16769929,16767156,16751573,74028,71724,30719,Tag0,unknown
1610202180884,200,-854,-1.8764648437500001E-4,0,0,56,842634,101018,16769929,16767156,16751573,74028,71724,30719,Tag0,unknown
1610202180902,200,-131,-2.87841796875E-5,0,0,56,842634,101018,16769929,16767156,16751573,74028,71724,30719,Tag0,unknown
1610202180916,200,-300,-6.591796875E-5,0,0,56,842634,101018,16769929,16767156,16751573,74028,71724,30719,Tag0,unknown
1610202180940,200,805,1.768798828125E-4,0,0,56,842634,101018,16769929,16767156,16751573,74028,71724,30719,Tag0,unknown
1610202180950,200,704,1.546875E-4,0,0,56,842634,101018,16769929,16767156,16751573,74028,71724,30719,Tag0,unknown
1610202180977,200,1791,3.935302734375E-4,0,0,56,842634,101018,16769929,16767156,16751573,74028,71724,30719,Tag0,unknown
1610202180987,200,537,1.179931640625E-4,0,0,56,842634,101018,16769929,16767156,16751573,74028,71724,30719,Tag0,unknown
1610202180999,200,-165,-3.62548828125E-5,0,0,56,842634,101018,16769929,16767156,16751573,74028,71724,30719,Tag0,unknown
1610202181017,200,-1839,-4.0407714843750006E-4,0,0,56,842634,101018,16769929,16767156,16751573,74028,71724,30719,Tag0,unknown
1610202181032,200,-1670,-3.66943359375E-4,0,0,56,842634,101018,16769929,16767156,16751573,74028,71724,30719,Tag0,unknown
1610202181052,200,-1558,-3.4233398437500003E-4,0,0,56,842634,101018,16769929,16767156,16751573,74028,71724,30719,Tag0,unknown
1610202181067,200,-1250,-2.74658203125E-4,0,0,56,842634,101018,16769929,16767156,16751573,74028,71724,30719,Tag0,unknown
1610202181087,200,-469,-1.0305175781250001E-4,0,0,56,842634,101018,16769929,16767156,16751573,74028,71724,30719,Tag0,unknown
1610202181100,200,-451,-9.909667968750001E-5,0,0,56,842634,101018,16769929,16767156,16751573,74028,71724,30719,Tag0,unknown
1610202181128,200,-241,-5.29541015625E-5,0,0,56,842634,101018,16769929,16767156,16751573,74028,71724,30719,Tag0,unknown
1610202181138,200,-156,-3.427734375E-5,0,0,56,842634,101018,16769929,16767156,16751573,74028,71724,30719,Tag0,unknown
1610202181150,200,-151,-3.31787109375E-5,0,0,56,842634,101018,16769929,16767156,16751573,74028,71724,30719,Tag0,unknown
1610202181167,200,-330,-7.2509765625E-5,0,0,56,842634,101018,16769929,16767156,16751573,74028,71724,30719,Tag0,unknown
1610202181183,200,-315,-6.92138671875E-5,0,0,56,842634,101018,16769929,16767156,16751573,74028,71724,30719,Tag0,unknown
1610202181225,200,-263,-5.7788085937500005E-5,0,0,56,842634,101018,16769929,16767156,16751573,74028,71724,30719,Tag0,unknown
1610202181235,200,25,5.4931640625E-6,0,0,56,842634,101018,16769929,16767156,16751573,74028,71724,30719,Tag0,unknown
1610202181250,200,2,4.39453125E-7,0,0,56,842634,101018,16769929,16767156,16751573,74028,71724,30719,Tag0,unknown
1610202181279,200,59,1.29638671875E-5,0,0,56,842634,101018,16769929,16767156,16751573,74028,71724,30719,Tag0,unknown
1610202181289,200,103,2.26318359375E-5,0,0,56,842634,101018,16769929,16767156,16751573,74028,71724,30719,Tag0,unknown
1610202181299,200,-126,-2.7685546875E-5,0,0,56,842634,101018,16769929,16767156,16751573,74028,71724,30719,Tag0,unknown
1610202181320,200,9,1.9775390625E-6,0,0,56,842634,101018,16769929,16767156,16751573,74028,71724,30719,Tag0,unknown
1610202181333,200,13,2.8564453125E-6,0,0,56,842634,101018,16769929,16767156,16751573,74028,71724,30719,Tag0,unknown
1610202181343,200,149,3.27392578125E-5,0,0,56,842634,101018,16769929,16767156,16751573,74028,71724,30719,Tag0,unknown
1610202181357,200,588,1.2919921875E-4,0,0,56,842634,101018,16769929,16767156,16751573,74028,71724,30719,Tag0,unknown
1610202181367,200,661,1.452392578125E-4,0,0,56,842634,101018,16769929,16767156,16751573,74028,71724,30719,Tag0,unknown
1610202181391,200,1582,3.47607421875E-4,0,0,56,842634,101018,16769929,16767156,16751573,74028,71724,30719,Tag0,unknown
1610202181401,200,1827,4.0144042968749997E-4,0,0,56,842634,101018,16769929,16767156,16751573,74028,71724,30719,Tag0,unknown
1610202181417,200,1342,2.94873046875E-4,0,0,56,842634,101018,16769929,16767156,16751573,74028,71724,30719,Tag0,unknown
1610202181434,200,1653,3.632080078125E-4,0,0,56,842634,101018,16769929,16767156,16751573,74028,71724,30719,Tag0,unknown
1610202181450,200,1801,3.957275390625E-4,0,0,56,842634,101018,16769929,16767156,16751573,74028,71724,30719,Tag0,unknown
1610202181460,200,1688,3.708984375E-4,0,0,56,842634,101018,16769929,16767156,16751573,74028,71724,30719,Tag0,unknown
1610202181483,200,1842,4.04736328125E-4,0,0,56,842634,101018,16769929,16767156,16751573,74028,71724,30719,Tag0,unknown
1610202181503,200,1318,2.8959960937500003E-4,0,0,56,842634,101018,16769929,16767156,16751573,74028,71724,30719,Tag0,unknown
1610202181517,200,971,2.133544921875E-4,0,0,56,842634,101018,16769929,16767156,16751573,74028,71724,30719,Tag0,unknown
1610202181536,200,848,1.8632812500000002E-4,0,0,56,842634,101018,16769929,16767156,16751573,74028,71724,30719,Tag0,unknown
1610202181550,200,819,1.799560546875E-4,0,0,56,842634,101018,16769929,16767156,16751573,74028,71724,30719,Tag0,unknown
1610202181579,200,-315,-6.92138671875E-5,0,0,56,842634,101018,16769929,16767156,16751573,74028,71724,30719,Tag0,unknown
1610202181600,200,-177,-3.8891601562500006E-5,0,0,56,842634,101018,16769929,16767156,16751573,74028,71724,30719,Tag0,unknown
1610202181616,200,-1227,-2.696044921875E-4,0,0,56,842634,101018,16769929,16767156,16751573,74028,71724,30719,Tag0,unknown
1610202181635,200,-2127,-4.673583984375E-4,0,0,56,842634,101018,16769929,16767156,16751573,74028,71724,30719,Tag0,unknown
1610202181652,200,-1581,-3.473876953125E-4,0,0,56,842634,101018,16769929,16767156,16751573,74028,71724,30719,Tag0,unknown
1610202181666,200,-1555,-3.416748046875E-4,0,0,56,842634,101018,16769929,16767156,16751573,74028,71724,30719,Tag0,unknown
1610202181686,200,-1290,-2.83447265625E-4,0,0,56,842634,101018,16769929,16767156,16751573,74028,71724,30719,Tag0,unknown
1610202181700,200,-1299,-2.854248046875E-4,0,0,56,842634,101018,16769929,16767156,16751573,74028,71724,30719,Tag0,unknown
1610202181710,200,-1270,-2.79052734375E-4,0,0,56,842634,101018,16769929,16767156,16751573,74028,71724,30719,Tag0,unknown
1610202181720,200,-1209,-2.656494140625E-4,0,0,56,2198770,424599,104583,122470,51306,160673,16776888,16745687,Tag0,unknown
1610202181735,200,-1317,-2.893798828125E-4,0,0,56,2198770,424599,104583,122470,51306,160673,16776888,16745687,Tag0,unknown
1610202181760,200,-887,-1.9489746093750003E-4,0,0,56,2198770,424599,104583,122470,51306,160673,16776888,16745687,Tag0,unknown
1610202181770,200,-612,-1.3447265625000002E-4,0,0,56,2198770,424599,104583,122470,51306,160673,16776888,16745687,Tag0,unknown
1610202181804,200,-219,-4.81201171875E-5,0,0,56,2198770,424599,104583,122470,51306,160673,16776888,16745687,Tag0,unknown
1610202181815,200,-169,-3.7133789062499996E-5,0,0,56,2198770,424599,104583,122470,51306,160673,16776888,16745687,Tag0,unknown
1610202181825,200,-410,-9.0087890625E-5,0,0,56,2198770,424599,104583,122470,51306,160673,16776888,16745687,Tag0,unknown
1610202181840,200,-627,-1.377685546875E-4,0,0,56,2198770,424599,104583,122470,51306,160673,16776888,16745687,Tag0,unknown
1610202181850,200,-611,-1.3425292968749999E-4,0,0,56,2198770,424599,104583,122470,51306,160673,16776888,16745687,Tag0,unknown
1610202181865,200,-181,-3.9770507812500004E-5,0,0,56,2198770,424599,104583,122470,51306,160673,16776888,16745687,Tag0,unknown
1610202181889,200,-355,-7.80029296875E-5,0,0,56,2198770,424599,104583,122470,51306,160673,16776888,16745687,Tag0,unknown
1610202181900,200,-356,-7.822265625E-5,0,0,56,2198770,424599,104583,122470,51306,160673,16776888,16745687,Tag0,unknown
1610202181916,200,19,4.1748046875E-6,0,0,56,2198770,424599,104583,122470,51306,160673,16776888,16745687,Tag0,unknown
1610202181934,200,13,2.8564453125E-6,0,0,56,2198770,424599,104583,122470,51306,160673,16776888,16745687,Tag0,unknown
1610202181949,200,7,1.5380859375E-6,0,0,56,2198770,424599,104583,122470,51306,160673,16776888,16745687,Tag0,unknown
1610202181967,200,-16,-3.515625E-6,0,0,56,2198770,424599,104583,122470,51306,160673,16776888,16745687,Tag0,unknown
1610202181989,200,635,1.395263671875E-4,0,0,56,2198770,424599,104583,122470,51306,160673,16776888,16745687,Tag0,unknown
1610202182001,200,781,1.716064453125E-4,0,0,56,2198770,424599,104583,122470,51306,160673,16776888,16745687,Tag0,unknown
1610202182028,200,1187,2.608154296875E-4,0,0,56,2198770,424599,104583,122470,51306,160673,16776888,16745687,Tag0,unknown
1610202182053,200,1043,2.2917480468750002E-4,0,0,56,2198770,424599,104583,122470,51306,160673,16776888,16745687,Tag0,unknown
1610202182069,200,690,1.51611328125E-4,0,0,56,2198770,424599,104583,122470,51306,160673,16776888,16745687,Tag0,unknown
1610202182083,200,314,6.8994140625E-5,0,0,56,2198770,424599,104583,122470,51306,160673,16776888,16745687,Tag0,unknown
1610202182104,200,37,8.1298828125E-6,0,0,56,2198770,424599,104583,122470,51306,160673,16776888,16745687,Tag0,unknown
1610202182116,200,-129,-2.8344726562500002E-5,0,0,56,2198770,424599,104583,122470,51306,160673,16776888,16745687,Tag0,unknown
1610202182135,200,-249,-5.47119140625E-5,0,0,56,2198770,424599,104583,122470,51306,160673,16776888,16745687,Tag0,unknown
1610202182150,200,-248,-5.44921875E-5,0,0,56,2198770,424599,104583,122470,51306,160673,16776888,16745687,Tag0,unknown
1610202182177,200,-158,-3.4716796875000005E-5,0,0,56,2198770,424599,104583,122470,51306,160673,16776888,16745687,Tag0,unknown
1610202182187,200,-341,-7.492675781250002E-5,0,0,56,2198770,424599,104583,122470,51306,160673,16776888,16745687,Tag0,unknown
1610202182211,200,22,4.833984375E-6,0,0,56,2198770,424599,104583,122470,51306,160673,16776888,16745687,Tag0,unknown
1610202182221,200,-85,-1.86767578125E-5,0,0,56,2198770,424599,104583,122470,51306,160673,16776888,16745687,Tag0,unknown
1610202182234,200,-22,-4.833984375E-6,0,0,56,2198770,424599,104583,122470,51306,160673,16776888,16745687,Tag0,unknown
1610202182253,200,182,3.9990234375E-5,0,0,56,2198770,424599,104583,122470,51306,160673,16776888,16745687,Tag0,unknown
1610202182267,200,193,4.2407226562500005E-5,0,0,56,2198770,424599,104583,122470,51306,160673,16776888,16745687,Tag0,unknown
1610202182287,200,-52,-1.142578125E-5,0,0,56,2198770,424599,104583,122470,51306,160673,16776888,16745687,Tag0,unknown
1610202182305,200,-43,-9.448242187500001E-6,0,0,56,2198770,424599,104583,122470,51306,160673,16776888,16745687,Tag0,unknown
1610202182315,200,-613,-1.3469238281250002E-4,0,0,56,2198770,424599,104583,122470,51306,160673,16776888,16745687,Tag0,unknown
1610202182327,200,-203,-4.460449218750001E-5,0,0,56,2198770,424599,104583,122470,51306,160673,16776888,16745687,Tag0,unknown
1610202182337,200,-531,-1.1667480468750001E-4,0,0,56,2198770,424599,104583,122470,51306,160673,16776888,16745687,Tag0,unknown
1610202182349,200,-626,-1.37548828125E-4,0,0,56,2198770,424599,104583,122470,51306,160673,16776888,16745687,Tag0,unknown
1610202182369,200,-180,-3.955078125E-5,0,0,56,2198770,424599,104583,122470,51306,160673,16776888,16745687,Tag0,unknown
1610202182383,200,-305,-6.70166015625E-5,0,0,56,2198770,424599,104583,122470,51306,160673,16776888,16745687,Tag0,unknown
1610202182402,200,-325,-7.14111328125E-5,0,0,56,2198770,424599,104583,122470,51306,160673,16776888,16745687,Tag0,unknown
1610202182415,200,1,2.197265625E-7,0,0,56,2198770,424599,104583,122470,51306,160673,16776888,16745687,Tag0,unknown
1610202182432,200,6,1.318359375E-6,0,0,56,2198770,424599,104583,122470,51306,160673,16776888,16745687,Tag0,unknown
1610202182449,200,310,6.8115234375E-5,0,0,56,2198770,424599,104583,122470,51306,160673,16776888,16745687,Tag0,unknown
1610202182477,200,-121,-2.6586914062500003E-5,0,0,56,2198770,424599,104583,122470,51306,160673,16776888,16745687,Tag0,unknown
1610202182487,200,84,1.8457031250000004E-5,0,0,56,2198770,424599,104583,122470,51306,160673,16776888,16745687,Tag0,unknown
1610202182502,200,145,3.18603515625E-5,0,0,56,2198770,424599,104583,122470,51306,160673,16776888,16745687,Tag0,unknown
1610202182516,200,173,3.80126953125E-5,0,0,56,2198770,424599,104583,122470,51306,160673,16776888,16745687,Tag0,unknown
1610202182526,200,379,8.32763671875E-5,0,0,56,2198770,424599,104583,122470,51306,160673,16776888,16745687,Tag0,unknown
1610202182553,200,227,4.98779296875E-5,0,0,56,2198770,424599,104583,122470,51306,160673,16776888,16745687,Tag0,unknown
1610202182566,200,197,4.32861328125E-5,0,0,56,2198770,424599,104583,122470,51306,160673,16776888,16745687,Tag0,unknown
1610202182593,200,-11,-2.4169921875E-6,0,0,56,2198770,424599,104583,122470,51306,160673,16776888,16745687,Tag0,unknown
1610202182603,200,67,1.4721679687500002E-5,0,0,56,2198770,424599,104583,122470,51306,160673,16776888,16745687,Tag0,unknown
1610202182616,200,26,5.712890625E-6,0,0,56,2198770,424599,104583,122470,51306,160673,16776888,16745687,Tag0,unknown
1610202182636,200,-217,-4.76806640625E-5,0,0,56,2198770,424599,104583,122470,51306,160673,16776888,16745687,Tag0,unknown
1610202182650,200,-177,-3.8891601562500006E-5,0,0,56,2198770,424599,104583,122470,51306,160673,16776888,16745687,Tag0,unknown
1610202182667,200,-513,-1.127197265625E-4,0,0,56,2198770,424599,104583,122470,51306,160673,16776888,16745687,Tag0,unknown
1610202182701,200,-531,-1.1667480468750001E-4,0,0,56,2198770,424599,104583,122470,51306,160673,16776888,16745687,Tag0,unknown
1610202182718,200,-219,-4.81201171875E-5,0,0,56,2198770,424599,104583,122470,51306,160673,16776888,16745687,Tag0,unknown
1610202182728,200,-611,-1.3425292968749999E-4,0,0,56,921409,16769463,6904,5776,1951,2621,2075,748,Tag0,unknown
1610202182738,200,-480,-1.0546875E-4,0,0,56,921409,16769463,6904,5776,1951,2621,2075,748,Tag0,unknown
1610202182751,200,-787,-1.729248046875E-4,0,0,56,921409,16769463,6904,5776,1951,2621,2075,748,Tag0,unknown
1610202182767,200,-650,-1.42822265625E-4,0,0,56,921409,16769463,6904,5776,1951,2621,2075,748,Tag0,unknown
1610202182785,200,-563,-1.237060546875E-4,0,0,56,921409,16769463,6904,5776,1951,2621,2075,748,Tag0,unknown
1610202182801,200,-20,-4.39453125E-6,0,0,56,921409,16769463,6904,5776,1951,2621,2075,748,Tag0,unknown
1610202182811,200,76,1.669921875E-5,0,0,56,921409,16769463,6904,5776,1951,2621,2075,748,Tag0,unknown
1610202182821,200,-588,-1.2919921875E-4,0,0,56,921409,16769463,6904,5776,1951,2621,2075,748,Tag0,unknown
1610202182834,200,-404,-8.876953125000001E-5,0,0,56,921409,16769463,6904,5776,1951,2621,2075,748,Tag0,unknown
1610202182853,200,-273,-5.998535156250001E-5,0,0,56,921409,16769463,6904,5776,1951,2621,2075,748,Tag0,unknown
1610202182866,200,5,1.0986328125E-6,0,0,56,921409,16769463,6904,5776,1951,2621,2075,748,Tag0,unknown
1610202182908,200,677,1.4875488281250002E-4,0,0,56,921409,16769463,6904,5776,1951,2621,2075,748,Tag0,unknown
1610202182918,200,823,1.808349609375E-4,0,0,56,921409,16769463,6904,5776,1951,2621,2075,748,Tag0,unknown
1610202182945,200,-555,-1.219482421875E-4,0,0,56,921409,16769463,6904,5776,1951,2621,2075,748,Tag0,unknown
1610202182955,200,-485,-1.065673828125E-4,0,0,56,921409,16769463,6904,5776,1951,2621,2075,748,Tag0,unknown
1610202182979,200,-621,-1.364501953125E-4,0,0,56,921409,16769463,6904,5776,1951,2621,2075,748,Tag0,unknown
1610202183000,200,-573,-1.259033203125E-4,0,0,56,921409,16769463,6904,5776,1951,2621,2075,748,Tag0,unknown
1610202183010,200,315,6.92138671875E-5,0,0,56,921409,16769463,6904,5776,1951,2621,2075,748,Tag0,unknown
1610202183033,200,225,4.94384765625E-5,0,0,56,921409,16769463,6904,5776,1951,2621,2075,748,Tag0,unknown
1610202183054,200,491,1.078857421875E-4,0,0,56,921409,16769463,6904,5776,1951,2621,2075,748,Tag0,unknown
1610202183067,200,420,9.228515625E-5,0,0,56,921409,16769463,6904,5776,1951,2621,2075,748,Tag0,unknown
1610202183077,200,637,1.399658203125E-4,0,0,56,921409,16769463,6904,5776,1951,2621,2075,748,Tag0,unknown
1610202183087,200,-75,-1.64794921875E-5,0,0,56,921409,16769463,6904,5776,1951,2621,2075,748,Tag0,unknown
1610202183112,200,-277,-6.0864257812500005E-5,0,0,56,921409,16769463,6904,5776,1951,2621,2075,748,Tag0,unknown
1610202183134,200,-286,-6.2841796875E-5,0,0,56,921409,16769463,6904,5776,1951,2621,2075,748,Tag0,unknown
1610202183153,200,-254,-5.5810546875E-5,0,0,56,921409,16769463,6904,5776,1951,2621,2075,748,Tag0,unknown
1610202183168,200,-227,-4.98779296875E-5,0,0,56,921409,16769463,6904,5776,1951,2621,2075,748,Tag0,unknown
1610202183178,200,-16,-3.515625E-6,0,0,56,921409,16769463,6904,5776,1951,2621,2075,748,Tag0,unknown
1610202183190,200,282,6.1962890625E-5,0,0,56,921409,16769463,6904,5776,1951,2621,2075,748,Tag0,unknown
1610202183200,200,-95,-2.08740234375E-5,0,0,56,921409,16769463,6904,5776,1951,2621,2075,748,Tag0,unknown
1610202183228,200,203,4.460449218750001E-5,0,0,56,921409,16769463,6904,5776,1951,2621,2075,748,Tag0,unknown
1610202183238,200,232,5.09765625E-5,0,0,56,921409,16769463,6904,5776,1951,2621,2075,748,Tag0,unknown
1610202183250,200,301,6.613769531250001E-5,0,0,56,921409,16769463,6904,5776,1951,2621,2075,748,Tag0,unknown
1610202183266,200,-201,-4.41650390625E-5,0,0,56,921409,16769463,6904,5776,1951,2621,2075,748,Tag0,unknown
1610202183283,200,-146,-3.2080078125000004E-5,0,0,56,921409,16769463,6904,5776,1951,2621,2075,748,Tag0,unknown
1610202183302,200,-410,-9.0087890625E-5,0,0,56,921409,16769463,6904,5776,1951,2621,2075,748,Tag0,unknown
1610202183317,200,-405,-8.89892578125E-5,0,0,56,921409,16769463,6904,5776,1951,2621,2075,748,Tag0,unknown
1610202183327,200,-279,-6.13037109375E-5,0,0,56,921409,16769463,6904,5776,1951,2621,2075,748,Tag0,unknown
1610202183378,200,-36,-7.91015625E-6,0,0,56,921409,16769463,6904,5776,1951,2621,2075,748,Tag0,unknown
1610202183400,200,-85,-1.86767578125E-5,0,0,56,921409,16769463,6904,5776,1951,2621,2075,748,Tag0,unknown
1610202183410,200,615,1.351318359375E-4,0,0,56,921409,16769463,6904,5776,1951,2621,2075,748,Tag0,unknown
1610202183420,200,379,8.32763671875E-5,0,0,56,921409,16769463,6904,5776,1951,2621,2075,748,Tag0,unknown
1610202183453,200,-672,-1.4765625000000003E-4,0,0,56,921409,16769463,6904,5776,1951,2621,2075,748,Tag0,unknown
1610202183467,200,-692,-1.5205078125E-4,0,0,56,921409,16769463,6904,5776,1951,2621,2075,748,Tag0,unknown
1610202183477,200,-293,-6.43798828125E-5,0,0,56,921409,16769463,6904,5776,1951,2621,2075,748,Tag0,unknown
1610202183501,200,-109,-2.39501953125E-5,0,0,56,921409,16769463,6904,5776,1951,2621,2075,748,Tag0,unknown
1610202183516,200,-638,-1.40185546875E-4,0,0,56,921409,16769463,6904,5776,1951,2621,2075,748,Tag0,unknown
1610202183535,200,-198,-4.3505859375000006E-5,0,0,56,921409,16769463,6904,5776,1951,2621,2075,748,Tag0,unknown
1610202183551,200,-311,-6.833496093750001E-5,0,0,56,921409,16769463,6904,5776,1951,2621,2075,748,Tag0,unknown
1610202183569,200,-138,-3.0322265625E-5,0,0,56,921409,16769463,6904,5776,1951,2621,2075,748,Tag0,unknown
1610202183583,200,291,6.39404296875E-5,0,0,56,921409,16769463,6904,5776,1951,2621,2075,748,Tag0,unknown
