timestampMs,poorSignal,eegRawValue,eegRawValueVolts,attention,meditation,blinkStrength,delta,theta,alphaLow,alphaHigh,betaLow,betaHigh,gammaLow,gammaMid,tagEvent,location
1610201149485,200,1421,3.1223144531250004E-4,0,0,123,564349,83465,20452,75372,16757692,22619,16754048,15886,Tag0,unknown
1610201149501,200,-2048,-4.5E-4,0,0,123,564349,83465,20452,75372,16757692,22619,16754048,15886,Tag0,unknown
1610201149523,200,1791,3.935302734375E-4,0,0,123,564349,83465,20452,75372,16757692,22619,16754048,15886,Tag0,unknown
1610201149535,200,1791,3.935302734375E-4,0,0,123,564349,83465,20452,75372,16757692,22619,16754048,15886,Tag0,unknown
1610201149557,200,-2048,-4.5E-4,0,0,123,564349,83465,20452,75372,16757692,22619,16754048,15886,Tag0,unknown
1610201149568,200,-2048,-4.5E-4,0,0,123,564349,83465,20452,75372,16757692,22619,16754048,15886,Tag0,unknown
1610201149595,200,-1252,-2.7509765625E-4,0,0,123,564349,83465,20452,75372,16757692,22619,16754048,15886,Tag0,unknown
1610201149629,200,-744,-1.634765625E-4,0,0,123,564349,83465,20452,75372,16757692,22619,16754048,15886,Tag0,unknown
1610201149639,200,-603,-1.3249511718750002E-4,0,0,123,564349,83465,20452,75372,16757692,22619,16754048,15886,Tag0,unknown
1610201149652,200,-519,-1.140380859375E-4,0,0,123,564349,83465,20452,75372,16757692,22619,16754048,15886,Tag0,unknown
1610201149669,200,-251,-5.5151367187500004E-5,0,0,123,564349,83465,20452,75372,16757692,22619,16754048,15886,Tag0,unknown
1610201149685,200,-198,-4.3505859375000006E-5,0,0,123,564349,83465,20452,75372,16757692,22619,16754048,15886,Tag0,unknown
1610201149702,200,-137,-3.0102539062499998E-5,0,0,123,564349,83465,20452,75372,16757692,22619,16754048,15886,Tag0,unknown
1610201149719,200,-383,-8.41552734375E-5,0,0,123,564349,83465,20452,75372,16757692,22619,16754048,15886,Tag0,unknown
1610201149773,200,-267,-5.86669921875E-5,0,0,123,564349,83465,20452,75372,16757692,22619,16754048,15886,Tag0,unknown
1610201149785,200,-265,-5.82275390625E-5,0,0,123,564349,83465,20452,75372,16757692,22619,16754048,15886,Tag0,unknown
1610201149831,200,35,7.6904296875E-6,0,0,123,564349,83465,20452,75372,16757692,22619,16754048,15886,Tag0,unknown
1610201149852,200,50,1.0986328125E-5,0,0,123,564349,83465,20452,75372,16757692,22619,16754048,15886,Tag0,unknown
1610201149911,200,59,1.29638671875E-5,0,0,123,564349,83465,20452,75372,16757692,22619,16754048,15886,Tag0,unknown
1610201149921,200,64,1.40625E-5,0,0,123,564349,83465,20452,75372,16757692,22619,16754048,15886,Tag0,unknown
1610201149935,200,64,1.40625E-5,0,0,123,564349,83465,20452,75372,16757692,22619,16754048,15886,Tag0,unknown
1610201149997,200,65,1.42822265625E-5,0,0,123,564349,83465,20452,75372,16757692,22619,16754048,15886,Tag0,unknown
1610201150007,200,65,1.42822265625E-5,0,0,123,564349,83465,20452,75372,16757692,22619,16754048,15886,Tag0,unknown
1610201150021,200,65,1.42822265625E-5,0,0,123,564349,83465,20452,75372,16757692,22619,16754048,15886,Tag0,unknown
1610201150031,200,67,1.4721679687500002E-5,0,0,123,564349,83465,20452,75372,16757692,22619,16754048,15886,Tag0,unknown
1610201150042,200,66,1.4501953125E-5,0,0,123,564349,83465,20452,75372,16757692,22619,16754048,15886,Tag0,unknown
1610201150052,200,66,1.4501953125E-5,0,0,123,564349,83465,20452,75372,16757692,22619,16754048,15886,Tag0,unknown
1610201150062,200,67,1.4721679687500002E-5,0,0,123,564349,83465,20452,75372,16757692,22619,16754048,15886,Tag0,unknown
1610201150082,200,67,1.4721679687500002E-5,0,0,123,564349,83465,20452,75372,16757692,22619,16754048,15886,Tag0,unknown
1610201150115,200,67,1.4721679687500002E-5,0,0,123,564349,83465,20452,75372,16757692,22619,16754048,15886,Tag0,unknown
1610201150135,200,67,1.4721679687500002E-5,0,0,123,564349,83465,20452,75372,16757692,22619,16754048,15886,Tag0,unknown
1610201150159,200,68,1.4941406250000001E-5,0,0,123,564349,83465,20452,75372,16757692,22619,16754048,15886,Tag0,unknown
1610201150171,200,67,1.4721679687500002E-5,0,0,123,564349,83465,20452,75372,16757692,22619,16754048,15886,Tag0,unknown
1610201150196,51,67,1.4721679687500002E-5,0,0,123,101103,545086,580156,523690,208934,114435,53143,54875,Tag0,unknown
1610201150206,51,67,1.4721679687500002E-5,0,0,123,101103,545086,580156,523690,208934,114435,53143,54875,Tag0,unknown
1610201150231,51,67,1.4721679687500002E-5,0,0,123,101103,545086,580156,523690,208934,114435,53143,54875,Tag0,unknown
1610201150241,51,68,1.4941406250000001E-5,0,0,123,101103,545086,580156,523690,208934,114435,53143,54875,Tag0,unknown
1610201150269,51,67,1.4721679687500002E-5,0,0,123,101103,545086,580156,523690,208934,114435,53143,54875,Tag0,unknown
1610201150286,51,67,1.4721679687500002E-5,0,0,123,101103,545086,580156,523690,208934,114435,53143,54875,Tag0,unknown
1610201150311,51,67,1.4721679687500002E-5,0,0,123,101103,545086,580156,523690,208934,114435,53143,54875,Tag0,unknown
1610201150321,51,67,1.4721679687500002E-5,0,0,123,101103,545086,580156,523690,208934,114435,53143,54875,Tag0,unknown
1610201150331,51,67,1.4721679687500002E-5,0,0,123,101103,545086,580156,523690,208934,114435,53143,54875,Tag0,unknown
1610201150355,51,67,1.4721679687500002E-5,0,0,123,101103,545086,580156,523690,208934,114435,53143,54875,Tag0,unknown
1610201150371,51,68,1.4941406250000001E-5,0,0,123,101103,545086,580156,523690,208934,114435,53143,54875,Tag0,unknown
1610201150398,51,67,1.4721679687500002E-5,0,0,123,101103,545086,580156,523690,208934,114435,53143,54875,Tag0,unknown
1610201150408,51,69,1.51611328125E-5,0,0,123,101103,545086,580156,523690,208934,114435,53143,54875,Tag0,unknown
1610201150423,51,67,1.4721679687500002E-5,0,0,123,101103,545086,580156,523690,208934,114435,53143,54875,Tag0,unknown
1610201150439,51,67,1.4721679687500002E-5,0,0,123,101103,545086,580156,523690,208934,114435,53143,54875,Tag0,unknown
1610201150453,51,67,1.4721679687500002E-5,0,0,123,101103,545086,580156,523690,208934,114435,53143,54875,Tag0,unknown
1610201150473,51,67,1.4721679687500002E-5,0,0,123,101103,545086,580156,523690,208934,114435,53143,54875,Tag0,unknown
1610201150487,51,67,1.4721679687500002E-5,0,0,123,101103,545086,580156,523690,208934,114435,53143,54875,Tag0,unknown
1610201150497,51,67,1.4721679687500002E-5,0,0,123,101103,545086,580156,523690,208934,114435,53143,54875,Tag0,unknown
1610201150529,51,67,1.4721679687500002E-5,0,0,123,101103,545086,580156,523690,208934,114435,53143,54875,Tag0,unknown
1610201150539,51,67,1.4721679687500002E-5,0,0,123,101103,545086,580156,523690,208934,114435,53143,54875,Tag0,unknown
1610201150571,51,67,1.4721679687500002E-5,0,0,123,101103,545086,580156,523690,208934,114435,53143,54875,Tag0,unknown
1610201150587,51,68,1.4941406250000001E-5,0,0,123,101103,545086,580156,523690,208934,114435,53143,54875,Tag0,unknown
1610201150597,51,67,1.4721679687500002E-5,0,0,123,101103,545086,580156,523690,208934,114435,53143,54875,Tag0,unknown
1610201150610,51,67,1.4721679687500002E-5,0,0,123,101103,545086,580156,523690,208934,114435,53143,54875,Tag0,unknown
1610201150620,51,67,1.4721679687500002E-5,0,0,123,101103,545086,580156,523690,208934,114435,53143,54875,Tag0,unknown
1610201150644,51,67,1.4721679687500002E-5,0,0,123,101103,545086,580156,523690,208934,114435,53143,54875,Tag0,unknown
1610201150655,51,67,1.4721679687500002E-5,0,0,123,101103,545086,580156,523690,208934,114435,53143,54875,Tag0,unknown
1610201150665,51,68,1.4941406250000001E-5,0,0,123,101103,545086,580156,523690,208934,114435,53143,54875,Tag0,unknown
1610201150684,51,66,1.4501953125E-5,0,0,123,101103,545086,580156,523690,208934,114435,53143,54875,Tag0,unknown
1610201150703,51,67,1.4721679687500002E-5,0,0,123,101103,545086,580156,523690,208934,114435,53143,54875,Tag0,unknown
1610201150725,51,67,1.4721679687500002E-5,0,0,123,101103,545086,580156,523690,208934,114435,53143,54875,Tag0,unknown
1610201150737,51,67,1.4721679687500002E-5,0,0,123,101103,545086,580156,523690,208934,114435,53143,54875,Tag0,unknown
1610201150747,51,67,1.4721679687500002E-5,0,0,123,101103,545086,580156,523690,208934,114435,53143,54875,Tag0,unknown
1610201150770,51,68,1.4941406250000001E-5,0,0,123,101103,545086,580156,523690,208934,114435,53143,54875,Tag0,unknown
1610201150796,51,67,1.4721679687500002E-5,0,0,123,101103,545086,580156,523690,208934,114435,53143,54875,Tag0,unknown
1610201150806,51,67,1.4721679687500002E-5,0,0,123,101103,545086,580156,523690,208934,114435,53143,54875,Tag0,unknown
1610201150820,51,67,1.4721679687500002E-5,0,0,123,101103,545086,580156,523690,208934,114435,53143,54875,Tag0,unknown
1610201150837,51,67,1.4721679687500002E-5,0,0,123,101103,545086,580156,523690,208934,114435,53143,54875,Tag0,unknown
1610201150854,51,67,1.4721679687500002E-5,0,0,123,101103,545086,580156,523690,208934,114435,53143,54875,Tag0,unknown
1610201150871,51,67,1.4721679687500002E-5,0,0,123,101103,545086,580156,523690,208934,114435,53143,54875,Tag0,unknown
1610201150904,51,68,1.4941406250000001E-5,0,0,123,101103,545086,580156,523690,208934,114435,53143,54875,Tag0,unknown
1610201150923,51,67,1.4721679687500002E-5,0,0,123,101103,545086,580156,523690,208934,114435,53143,54875,Tag0,unknown
1610201150933,51,67,1.4721679687500002E-5,0,0,123,101103,545086,580156,523690,208934,114435,53143,54875,Tag0,unknown
1610201150944,51,67,1.4721679687500002E-5,0,0,123,101103,545086,580156,523690,208934,114435,53143,54875,Tag0,unknown
1610201150954,51,67,1.4721679687500002E-5,0,0,123,101103,545086,580156,523690,208934,114435,53143,54875,Tag0,unknown
1610201150982,51,67,1.4721679687500002E-5,0,0,123,101103,545086,580156,523690,208934,114435,53143,54875,Tag0,unknown
1610201151003,51,69,1.51611328125E-5,0,0,123,101103,545086,580156,523690,208934,114435,53143,54875,Tag0,unknown
1610201151030,51,67,1.4721679687500002E-5,0,0,123,101103,545086,580156,523690,208934,114435,53143,54875,Tag0,unknown
1610201151041,51,67,1.4721679687500002E-5,0,0,123,101103,545086,580156,523690,208934,114435,53143,54875,Tag0,unknown
1610201151054,51,67,1.4721679687500002E-5,0,0,123,101103,545086,580156,523690,208934,114435,53143,54875,Tag0,unknown
1610201151071,51,68,1.4941406250000001E-5,0,0,123,101103,545086,580156,523690,208934,114435,53143,54875,Tag0,unknown
1610201151086,51,67,1.4721679687500002E-5,0,0,123,101103,545086,580156,523690,208934,114435,53143,54875,Tag0,unknown
1610201151109,51,68,1.4941406250000001E-5,0,0,123,101103,545086,580156,523690,208934,114435,53143,54875,Tag0,unknown
1610201151120,51,67,1.4721679687500002E-5,0,0,123,101103,545086,580156,523690,208934,114435,53143,54875,Tag0,unknown
1610201151146,51,67,1.4721679687500002E-5,0,0,123,101103,545086,580156,523690,208934,114435,53143,54875,Tag0,unknown
1610201151156,51,67,1.4721679687500002E-5,0,0,123,101103,545086,580156,523690,208934,114435,53143,54875,Tag0,unknown
1610201151172,54,67,1.4721679687500002E-5,0,0,123,0,0,0,0,0,0,0,0,Tag0,unknown
1610201151188,54,67,1.4721679687500002E-5,0,0,123,0,0,0,0,0,0,0,0,Tag0,unknown
1610201151205,54,67,1.4721679687500002E-5,0,0,123,0,0,0,0,0,0,0,0,Tag0,unknown
1610201151220,54,67,1.4721679687500002E-5,0,0,123,0,0,0,0,0,0,0,0,Tag0,unknown
1610201151241,54,67,1.4721679687500002E-5,0,0,123,0,0,0,0,0,0,0,0,Tag0,unknown
1610201151253,54,66,1.4501953125E-5,0,0,123,0,0,0,0,0,0,0,0,Tag0,unknown
1610201151280,54,67,1.4721679687500002E-5,0,0,123,0,0,0,0,0,0,0,0,Tag0,unknown
1610201151290,54,68,1.4941406250000001E-5,0,0,123,0,0,0,0,0,0,0,0,Tag0,unknown
1610201151313,54,67,1.4721679687500002E-5,0,0,123,0,0,0,0,0,0,0,0,Tag0,unknown
1610201151323,54,67,1.4721679687500002E-5,0,0,123,0,0,0,0,0,0,0,0,Tag0,unknown
1610201151337,54,67,1.4721679687500002E-5,0,0,123,0,0,0,0,0,0,0,0,Tag0,unknown
1610201151358,54,67,1.4721679687500002E-5,0,0,123,0,0,0,0,0,0,0,0,Tag0,unknown
1610201151371,54,67,1.4721679687500002E-5,0,0,123,0,0,0,0,0,0,0,0,Tag0,unknown
1610201151396,54,67,1.4721679687500002E-5,0,0,123,0,0,0,0,0,0,0,0,Tag0,unknown
1610201151407,54,68,1.4941406250000001E-5,0,0,123,0,0,0,0,0,0,0,0,Tag0,unknown
1610201151424,54,67,1.4721679687500002E-5,0,0,123,0,0,0,0,0,0,0,0,Tag0,unknown
1610201151437,54,67,1.4721679687500002E-5,0,0,123,0,0,0,0,0,0,0,0,Tag0,unknown
1610201151454,54,67,1.4721679687500002E-5,0,0,123,0,0,0,0,0,0,0,0,Tag0,unknown
1610201151474,54,67,1.4721679687500002E-5,0,0,123,0,0,0,0,0,0,0,0,Tag0,unknown
1610201151487,54,67,1.4721679687500002E-5,0,0,123,0,0,0,0,0,0,0,0,Tag0,unknown
1610201151504,54,67,1.4721679687500002E-5,0,0,123,0,0,0,0,0,0,0,0,Tag0,unknown
1610201151520,54,67,1.4721679687500002E-5,0,0,123,0,0,0,0,0,0,0,0,Tag0,unknown
1610201151537,54,67,1.4721679687500002E-5,0,0,123,0,0,0,0,0,0,0,0,Tag0,unknown
1610201151554,54,67,1.4721679687500002E-5,0,0,123,0,0,0,0,0,0,0,0,Tag0,unknown
1610201151581,54,67,1.4721679687500002E-5,0,0,123,0,0,0,0,0,0,0,0,Tag0,unknown
1610201151591,54,67,1.4721679687500002E-5,0,0,123,0,0,0,0,0,0,0,0,Tag0,unknown
1610201151603,54,68,1.4941406250000001E-5,0,0,123,0,0,0,0,0,0,0,0,Tag0,unknown
1610201151620,54,68,1.4941406250000001E-5,0,0,123,0,0,0,0,0,0,0,0,Tag0,unknown
1610201151646,54,67,1.4721679687500002E-5,0,0,123,0,0,0,0,0,0,0,0,Tag0,unknown
1610201151656,54,67,1.4721679687500002E-5,0,0,123,0,0,0,0,0,0,0,0,Tag0,unknown
1610201151679,54,67,1.4721679687500002E-5,0,0,123,0,0,0,0,0,0,0,0,Tag0,unknown
1610201151689,54,67,1.4721679687500002E-5,0,0,123,0,0,0,0,0,0,0,0,Tag0,unknown
1610201151703,54,67,1.4721679687500002E-5,0,0,123,0,0,0,0,0,0,0,0,Tag0,unknown
1610201151721,54,68,1.4941406250000001E-5,0,0,123,0,0,0,0,0,0,0,0,Tag0,unknown
1610201151737,54,67,1.4721679687500002E-5,0,0,123,0,0,0,0,0,0,0,0,Tag0,unknown
1610201151754,54,67,1.4721679687500002E-5,0,0,123,0,0,0,0,0,0,0,0,Tag0,unknown
1610201151770,54,70,1.5380859375E-5,0,0,123,0,0,0,0,0,0,0,0,Tag0,unknown
1610201151805,54,67,1.4721679687500002E-5,0,0,123,0,0,0,0,0,0,0,0,Tag0,unknown
1610201151820,54,68,1.4941406250000001E-5,0,0,123,0,0,0,0,0,0,0,0,Tag0,unknown
1610201151846,54,67,1.4721679687500002E-5,0,0,123,0,0,0,0,0,0,0,0,Tag0,unknown
1610201151856,54,67,1.4721679687500002E-5,0,0,123,0,0,0,0,0,0,0,0,Tag0,unknown
1610201151871,54,67,1.4721679687500002E-5,0,0,123,0,0,0,0,0,0,0,0,Tag0,unknown
1610201151888,54,67,1.4721679687500002E-5,0,0,123,0,0,0,0,0,0,0,0,Tag0,unknown
1610201151907,54,69,1.51611328125E-5,0,0,123,0,0,0,0,0,0,0,0,Tag0,unknown
1610201151922,54,69,1.51611328125E-5,0,0,123,0,0,0,0,0,0,0,0,Tag0,unknown
1610201151956,54,68,1.4941406250000001E-5,0,0,123,0,0,0,0,0,0,0,0,Tag0,unknown
1610201151971,54,68,1.4941406250000001E-5,0,0,123,0,0,0,0,0,0,0,0,Tag0,unknown
1610201151981,54,67,1.4721679687500002E-5,0,0,123,0,0,0,0,0,0,0,0,Tag0,unknown
1610201151997,54,67,1.4721679687500002E-5,0,0,123,0,0,0,0,0,0,0,0,Tag0,unknown
1610201152007,54,67,1.4721679687500002E-5,0,0,123,0,0,0,0,0,0,0,0,Tag0,unknown
1610201152020,54,67,1.4721679687500002E-5,0,0,123,0,0,0,0,0,0,0,0,Tag0,unknown
1610201152039,54,67,1.4721679687500002E-5,0,0,123,0,0,0,0,0,0,0,0,Tag0,unknown
1610201152054,54,67,1.4721679687500002E-5,0,0,123,0,0,0,0,0,0,0,0,Tag0,unknown
1610201152076,54,67,1.4721679687500002E-5,0,0,123,0,0,0,0,0,0,0,0,Tag0,unknown
1610201152087,54,68,1.4941406250000001E-5,0,0,123,0,0,0,0,0,0,0,0,Tag0,unknown
1610201152112,54,68,1.4941406250000001E-5,0,0,123,0,0,0,0,0,0,0,0,Tag0,unknown
1610201152122,54,67,1.4721679687500002E-5,0,0,123,0,0,0,0,0,0,0,0,Tag0,unknown
1610201152137,54,67,1.4721679687500002E-5,0,0,123,0,0,0,0,0,0,0,0,Tag0,unknown
1610201152157,54,67,1.4721679687500002E-5,0,0,123,0,0,0,0,0,0,0,0,Tag0,unknown
1610201152172,54,68,1.4941406250000001E-5,0,0,123,0,0,0,0,0,0,0,0,Tag0,unknown
1610201152188,54,68,1.4941406250000001E-5,0,0,123,0,0,0,0,0,0,0,0,Tag0,unknown
1610201152203,54,67,1.4721679687500002E-5,0,0,123,0,0,0,0,0,0,0,0,Tag0,unknown
1610201152221,54,67,1.4721679687500002E-5,0,0,123,0,0,0,0,0,0,0,0,Tag0,unknown
1610201152238,54,67,1.4721679687500002E-5,0,0,123,0,0,0,0,0,0,0,0,Tag0,unknown
1610201152254,54,67,1.4721679687500002E-5,0,0,123,0,0,0,0,0,0,0,0,Tag0,unknown
1610201152276,54,67,1.4721679687500002E-5,0,0,123,0,0,0,0,0,0,0,0,Tag0,unknown
1610201152290,54,67,1.4721679687500002E-5,0,0,123,0,0,0,0,0,0,0,0,Tag0,unknown
1610201152315,54,67,1.4721679687500002E-5,0,0,123,0,0,0,0,0,0,0,0,Tag0,unknown
1610201152325,54,67,1.4721679687500002E-5,0,0,123,0,0,0,0,0,0,0,0,Tag0,unknown
1610201152349,54,67,1.4721679687500002E-5,0,0,123,0,0,0,0,0,0,0,0,Tag0,unknown
1610201152359,54,68,1.4941406250000001E-5,0,0,123,0,0,0,0,0,0,0,0,Tag0,unknown
1610201152372,54,67,1.4721679687500002E-5,0,0,123,0,0,0,0,0,0,0,0,Tag0,unknown
1610201152406,54,68,1.4941406250000001E-5,0,0,123,0,0,0,0,0,0,0,0,Tag0,unknown
1610201152421,54,67,1.4721679687500002E-5,0,0,123,0,0,0,0,0,0,0,0,Tag0,unknown
1610201152447,54,69,1.51611328125E-5,0,0,123,0,0,0,0,0,0,0,0,Tag0,unknown
1610201152457,54,67,1.4721679687500002E-5,0,0,123,0,0,0,0,0,0,0,0,Tag0,unknown
1610201152471,54,67,1.4721679687500002E-5,0,0,123,0,0,0,0,0,0,0,0,Tag0,unknown
1610201152487,54,67,1.4721679687500002E-5,0,0,123,0,0,0,0,0,0,0,0,Tag0,unknown
1610201152516,54,67,1.4721679687500002E-5,0,0,123,0,0,0,0,0,0,0,0,Tag0,unknown
1610201152526,54,67,1.4721679687500002E-5,0,0,123,0,0,0,0,0,0,0,0,Tag0,unknown
1610201152538,54,67,1.4721679687500002E-5,0,0,123,0,0,0,0,0,0,0,0,Tag0,unknown
1610201152555,54,67,1.4721679687500002E-5,0,0,123,0,0,0,0,0,0,0,0,Tag0,unknown
1610201152571,54,67,1.4721679687500002E-5,0,0,123,0,0,0,0,0,0,0,0,Tag0,unknown
1610201152587,54,67,1.4721679687500002E-5,0,0,123,0,0,0,0,0,0,0,0,Tag0,unknown
1610201152603,54,68,1.4941406250000001E-5,0,0,123,0,0,0,0,0,0,0,0,Tag0,unknown
1610201152631,54,67,1.4721679687500002E-5,0,0,123,0,0,0,0,0,0,0,0,Tag0,unknown
1610201152641,54,67,1.4721679687500002E-5,0,0,123,0,0,0,0,0,0,0,0,Tag0,unknown
1610201152654,54,67,1.4721679687500002E-5,0,0,123,0,0,0,0,0,0,0,0,Tag0,unknown
1610201152673,54,67,1.4721679687500002E-5,0,0,123,0,0,0,0,0,0,0,0,Tag0,unknown
1610201152688,54,67,1.4721679687500002E-5,0,0,123,0,0,0,0,0,0,0,0,Tag0,unknown
1610201152698,54,67,1.4721679687500002E-5,0,0,123,0,0,0,0,0,0,0,0,Tag0,unknown
1610201152708,54,68,1.4941406250000001E-5,0,0,123,0,0,0,0,0,0,0,0,Tag0,unknown
1610201152720,54,67,1.4721679687500002E-5,0,0,123,0,0,0,0,0,0,0,0,Tag0,unknown
1610201152741,54,67,1.4721679687500002E-5,0,0,123,0,0,0,0,0,0,0,0,Tag0,unknown
1610201152754,54,67,1.4721679687500002E-5,0,0,123,0,0,0,0,0,0,0,0,Tag0,unknown
1610201152764,54,67,1.4721679687500002E-5,0,0,123,0,0,0,0,0,0,0,0,Tag0,unknown
1610201152779,54,67,1.4721679687500002E-5,0,0,123,0,0,0,0,0,0,0,0,Tag0,unknown
1610201152789,54,67,1.4721679687500002E-5,0,0,123,0,0,0,0,0,0,0,0,Tag0,unknown
1610201152813,54,68,1.4941406250000001E-5,0,0,123,0,0,0,0,0,0,0,0,Tag0,unknown
1610201152824,54,69,1.51611328125E-5,0,0,123,0,0,0,0,0,0,0,0,Tag0,unknown
1610201152837,54,67,1.4721679687500002E-5,0,0,123,0,0,0,0,0,0,0,0,Tag0,unknown
1610201152860,54,67,1.4721679687500002E-5,0,0,123,0,0,0,0,0,0,0,0,Tag0,unknown
1610201152871,54,69,1.51611328125E-5,0,0,123,0,0,0,0,0,0,0,0,Tag0,unknown
1610201152888,54,67,1.4721679687500002E-5,0,0,123,0,0,0,0,0,0,0,0,Tag0,unknown
1610201152906,54,67,1.4721679687500002E-5,0,0,123,0,0,0,0,0,0,0,0,Tag0,unknown
1610201152922,54,67,1.4721679687500002E-5,0,0,123,0,0,0,0,0,0,0,0,Tag0,unknown
1610201152940,54,69,1.51611328125E-5,0,0,123,0,0,0,0,0,0,0,0,Tag0,unknown
1610201152955,54,67,1.4721679687500002E-5,0,0,123,0,0,0,0,0,0,0,0,Tag0,unknown
1610201152979,54,67,1.4721679687500002E-5,0,0,123,0,0,0,0,0,0,0,0,Tag0,unknown
1610201152989,54,67,1.4721679687500002E-5,0,0,123,0,0,0,0,0,0,0,0,Tag0,unknown
1610201153004,54,67,1.4721679687500002E-5,0,0,123,0,0,0,0,0,0,0,0,Tag0,unknown
1610201153022,54,67,1.4721679687500002E-5,0,0,123,0,0,0,0,0,0,0,0,Tag0,unknown
1610201153038,54,66,1.4501953125E-5,0,0,123,0,0,0,0,0,0,0,0,Tag0,unknown
1610201153055,54,68,1.4941406250000001E-5,0,0,123,0,0,0,0,0,0,0,0,Tag0,unknown
1610201153071,54,67,1.4721679687500002E-5,0,0,123,0,0,0,0,0,0,0,0,Tag0,unknown
1610201153081,54,67,1.4721679687500002E-5,0,0,123,0,0,0,0,0,0,0,0,Tag0,unknown
1610201153091,54,67,1.4721679687500002E-5,0,0,123,0,0,0,0,0,0,0,0,Tag0,unknown
1610201153118,54,66,1.4501953125E-5,0,0,123,0,0,0,0,0,0,0,0,Tag0,unknown
1610201153128,54,66,1.4501953125E-5,0,0,123,0,0,0,0,0,0,0,0,Tag0,unknown
1610201153138,54,67,1.4721679687500002E-5,0,0,123,0,0,0,0,0,0,0,0,Tag0,unknown
1610201153161,54,67,1.4721679687500002E-5,0,0,123,0,0,0,0,0,0,0,0,Tag0,unknown
1610201153172,54,67,1.4721679687500002E-5,0,0,123,0,0,0,0,0,0,0,0,Tag0,unknown
1610201153191,54,68,1.4941406250000001E-5,0,0,123,0,0,0,0,0,0,0,0,Tag0,unknown
1610201153205,54,67,1.4721679687500002E-5,0,0,123,0,0,0,0,0,0,0,0,Tag0,unknown
1610201153215,54,68,1.4941406250000001E-5,0,0,123,0,0,0,0,0,0,0,0,Tag0,unknown
1610201153232,54,68,1.4941406250000001E-5,0,0,123,0,0,0,0,0,0,0,0,Tag0,unknown
1610201153242,54,67,1.4721679687500002E-5,0,0,123,0,0,0,0,0,0,0,0,Tag0,unknown
1610201153267,54,67,1.4721679687500002E-5,0,0,123,0,0,0,0,0,0,0,0,Tag0,unknown
1610201153277,54,67,1.4721679687500002E-5,0,0,123,0,0,0,0,0,0,0,0,Tag0,unknown
1610201153287,54,67,1.4721679687500002E-5,0,0,123,0,0,0,0,0,0,0,0,Tag0,unknown
1610201153308,54,67,1.4721679687500002E-5,0,0,123,0,0,0,0,0,0,0,0,Tag0,unknown
1610201153321,54,67,1.4721679687500002E-5,0,0,123,0,0,0,0,0,0,0,0,Tag0,unknown
1610201153341,54,67,1.4721679687500002E-5,0,0,123,0,0,0,0,0,0,0,0,Tag0,unknown
1610201153354,54,67,1.4721679687500002E-5,0,0,123,0,0,0,0,0,0,0,0,Tag0,unknown
1610201153364,54,67,1.4721679687500002E-5,0,0,123,0,0,0,0,0,0,0,0,Tag0,unknown
1610201153378,54,69,1.51611328125E-5,0,0,123,0,0,0,0,0,0,0,0,Tag0,unknown
1610201153389,54,67,1.4721679687500002E-5,0,0,123,0,0,0,0,0,0,0,0,Tag0,unknown
1610201153414,54,67,1.4721679687500002E-5,0,0,123,0,0,0,0,0,0,0,0,Tag0,unknown
1610201153424,54,67,1.4721679687500002E-5,0,0,123,0,0,0,0,0,0,0,0,Tag0,unknown
1610201153439,54,67,1.4721679687500002E-5,0,0,123,0,0,0,0,0,0,0,0,Tag0,unknown
1610201153455,54,67,1.4721679687500002E-5,0,0,123,0,0,0,0,0,0,0,0,Tag0,unknown
1610201153472,54,69,1.51611328125E-5,0,0,123,0,0,0,0,0,0,0,0,Tag0,unknown
1610201153482,54,67,1.4721679687500002E-5,0,0,123,0,0,0,0,0,0,0,0,Tag0,unknown
1610201153504,54,67,1.4721679687500002E-5,0,0,123,0,0,0,0,0,0,0,0,Tag0,unknown
1610201153525,54,67,1.4721679687500002E-5,0,0,123,0,0,0,0,0,0,0,0,Tag0,unknown
1610201153538,54,68,1.4941406250000001E-5,0,0,123,0,0,0,0,0,0,0,0,Tag0,unknown
1610201153560,54,68,1.4941406250000001E-5,0,0,123,0,0,0,0,0,0,0,0,Tag0,unknown
1610201153571,54,68,1.4941406250000001E-5,0,0,123,0,0,0,0,0,0,0,0,Tag0,unknown
1610201153581,54,69,1.51611328125E-5,0,0,123,0,0,0,0,0,0,0,0,Tag0,unknown
1610201153604,54,67,1.4721679687500002E-5,0,0,123,0,0,0,0,0,0,0,0,Tag0,unknown
1610201153621,54,69,1.51611328125E-5,0,0,123,0,0,0,0,0,0,0,0,Tag0,unknown
1610201153660,54,67,1.4721679687500002E-5,0,0,123,0,0,0,0,0,0,0,0,Tag0,unknown
1610201153671,54,68,1.4941406250000001E-5,0,0,123,0,0,0,0,0,0,0,0,Tag0,unknown
1610201153689,54,67,1.4721679687500002E-5,0,0,123,0,0,0,0,0,0,0,0,Tag0,unknown
1610201153700,54,67,1.4721679687500002E-5,0,0,123,0,0,0,0,0,0,0,0,Tag0,unknown
1610201153710,54,68,1.4941406250000001E-5,0,0,123,0,0,0,0,0,0,0,0,Tag0,unknown
1610201153720,54,67,1.4721679687500002E-5,0,0,123,0,0,0,0,0,0,0,0,Tag0,unknown
1610201153739,54,67,1.4721679687500002E-5,0,0,123,0,0,0,0,0,0,0,0,Tag0,unknown
1610201153754,54,67,1.4721679687500002E-5,0,0,123,0,0,0,0,0,0,0,0,Tag0,unknown
1610201153771,54,68,1.4941406250000001E-5,0,0,123,0,0,0,0,0,0,0,0,Tag0,unknown
1610201153790,54,68,1.4941406250000001E-5,0,0,123,0,0,0,0,0,0,0,0,Tag0,unknown
1610201153803,54,67,1.4721679687500002E-5,0,0,123,0,0,0,0,0,0,0,0,Tag0,unknown
1610201153829,54,67,1.4721679687500002E-5,0,0,123,0,0,0,0,0,0,0,0,Tag0,unknown
1610201153839,54,67,1.4721679687500002E-5,0,0,123,0,0,0,0,0,0,0,0,Tag0,unknown
1610201153869,54,67,1.4721679687500002E-5,0,0,123,0,0,0,0,0,0,0,0,Tag0,unknown
1610201153887,54,67,1.4721679687500002E-5,0,0,123,0,0,0,0,0,0,0,0,Tag0,unknown
1610201153897,54,67,1.4721679687500002E-5,0,0,123,0,0,0,0,0,0,0,0,Tag0,unknown
1610201153921,54,68,1.4941406250000001E-5,0,0,123,0,0,0,0,0,0,0,0,Tag0,unknown
1610201153940,54,67,1.4721679687500002E-5,0,0,123,0,0,0,0,0,0,0,0,Tag0,unknown
1610201153955,54,67,1.4721679687500002E-5,0,0,123,0,0,0,0,0,0,0,0,Tag0,unknown
1610201153981,54,67,1.4721679687500002E-5,0,0,123,0,0,0,0,0,0,0,0,Tag0,unknown
1610201153991,54,67,1.4721679687500002E-5,0,0,123,0,0,0,0,0,0,0,0,Tag0,unknown
1610201154004,54,68,1.4941406250000001E-5,0,0,123,0,0,0,0,0,0,0,0,Tag0,unknown
1610201154026,54,67,1.4721679687500002E-5,0,0,123,0,0,0,0,0,0,0,0,Tag0,unknown
1610201154038,54,67,1.4721679687500002E-5,0,0,123,0,0,0,0,0,0,0,0,Tag0,unknown
1610201154063,54,67,1.4721679687500002E-5,0,0,123,0,0,0,0,0,0,0,0,Tag0,unknown
1610201154074,54,67,1.4721679687500002E-5,0,0,123,0,0,0,0,0,0,0,0,Tag0,unknown
1610201154097,54,67,1.4721679687500002E-5,0,0,123,0,0,0,0,0,0,0,0,Tag0,unknown
1610201154107,54,68,1.4941406250000001E-5,0,0,123,0,0,0,0,0,0,0,0,Tag0,unknown
1610201154121,54,67,1.4721679687500002E-5,0,0,123,0,0,0,0,0,0,0,0,Tag0,unknown
1610201154139,54,67,1.4721679687500002E-5,0,0,123,0,0,0,0,0,0,0,0,Tag0,unknown
1610201154156,54,67,1.4721679687500002E-5,0,0,123,0,0,0,0,0,0,0,0,Tag0,unknown
1610201154172,54,67,1.4721679687500002E-5,0,0,123,0,0,0,0,0,0,0,0,Tag0,unknown
1610201154198,54,67,1.4721679687500002E-5,0,0,123,0,0,0,0,0,0,0,0,Tag0,unknown
1610201154208,54,69,1.51611328125E-5,0,0,123,0,0,0,0,0,0,0,0,Tag0,unknown
1610201154234,54,68,1.4941406250000001E-5,0,0,123,0,0,0,0,0,0,0,0,Tag0,unknown
1610201154255,54,67,1.4721679687500002E-5,0,0,123,0,0,0,0,0,0,0,0,Tag0,unknown
1610201154287,54,67,1.4721679687500002E-5,0,0,123,0,0,0,0,0,0,0,0,Tag0,unknown
1610201154305,54,67,1.4721679687500002E-5,0,0,123,0,0,0,0,0,0,0,0,Tag0,unknown
1610201154326,54,67,1.4721679687500002E-5,0,0,123,0,0,0,0,0,0,0,0,Tag0,unknown
1610201154338,54,67,1.4721679687500002E-5,0,0,123,0,0,0,0,0,0,0,0,Tag0,unknown
1610201154355,54,67,1.4721679687500002E-5,0,0,123,0,0,0,0,0,0,0,0,Tag0,unknown
1610201154373,54,67,1.4721679687500002E-5,0,0,123,0,0,0,0,0,0,0,0,Tag0,unknown
1610201154393,54,67,1.4721679687500002E-5,0,0,123,0,0,0,0,0,0,0,0,Tag0,unknown
1610201154404,54,68,1.4941406250000001E-5,0,0,123,0,0,0,0,0,0,0,0,Tag0,unknown
1610201154431,54,67,1.4721679687500002E-5,0,0,123,0,0,0,0,0,0,0,0,Tag0,unknown
1610201154441,54,67,1.4721679687500002E-5,0,0,123,0,0,0,0,0,0,0,0,Tag0,unknown
1610201154456,54,70,1.5380859375E-5,0,0,123,0,0,0,0,0,0,0,0,Tag0,unknown
1610201154472,54,67,1.4721679687500002E-5,0,0,123,0,0,0,0,0,0,0,0,Tag0,unknown
1610201154488,54,68,1.4941406250000001E-5,0,0,123,0,0,0,0,0,0,0,0,Tag0,unknown
1610201154498,54,67,1.4721679687500002E-5,0,0,123,0,0,0,0,0,0,0,0,Tag0,unknown
1610201154511,54,67,1.4721679687500002E-5,0,0,123,0,0,0,0,0,0,0,0,Tag0,unknown
1610201154522,54,67,1.4721679687500002E-5,0,0,123,0,0,0,0,0,0,0,0,Tag0,unknown
1610201154550,54,67,1.4721679687500002E-5,0,0,123,0,0,0,0,0,0,0,0,Tag0,unknown
1610201154560,54,68,1.4941406250000001E-5,0,0,123,0,0,0,0,0,0,0,0,Tag0,unknown
1610201154573,54,67,1.4721679687500002E-5,0,0,123,0,0,0,0,0,0,0,0,Tag0,unknown
1610201154589,54,67,1.4721679687500002E-5,0,0,123,0,0,0,0,0,0,0,0,Tag0,unknown
1610201154613,54,69,1.51611328125E-5,0,0,123,0,0,0,0,0,0,0,0,Tag0,unknown
1610201154623,54,67,1.4721679687500002E-5,0,0,123,0,0,0,0,0,0,0,0,Tag0,unknown
1610201154653,54,67,1.4721679687500002E-5,0,0,123,0,0,0,0,0,0,0,0,Tag0,unknown
1610201154673,54,67,1.4721679687500002E-5,0,0,123,0,0,0,0,0,0,0,0,Tag0,unknown
1610201154695,54,67,1.4721679687500002E-5,0,0,123,0,0,0,0,0,0,0,0,Tag0,unknown
1610201154706,54,67,1.4721679687500002E-5,0,0,123,0,0,0,0,0,0,0,0,Tag0,unknown
1610201154716,54,68,1.4941406250000001E-5,0,0,123,0,0,0,0,0,0,0,0,Tag0,unknown
1610201154736,54,68,1.4941406250000001E-5,0,0,123,0,0,0,0,0,0,0,0,Tag0,unknown
1610201154755,54,68,1.4941406250000001E-5,0,0,123,0,0,0,0,0,0,0,0,Tag0,unknown
1610201154765,54,67,1.4721679687500002E-5,0,0,123,0,0,0,0,0,0,0,0,Tag0,unknown
1610201154778,54,67,1.4721679687500002E-5,0,0,123,0,0,0,0,0,0,0,0,Tag0,unknown
1610201154788,54,69,1.51611328125E-5,0,0,123,0,0,0,0,0,0,0,0,Tag0,unknown
1610201154817,54,67,1.4721679687500002E-5,0,0,123,0,0,0,0,0,0,0,0,Tag0,unknown
1610201154827,54,68,1.4941406250000001E-5,0,0,123,0,0,0,0,0,0,0,0,Tag0,unknown
1610201154838,54,69,1.51611328125E-5,0,0,123,0,0,0,0,0,0,0,0,Tag0,unknown
1610201154856,54,68,1.4941406250000001E-5,0,0,123,0,0,0,0,0,0,0,0,Tag0,unknown
1610201154871,54,69,1.51611328125E-5,0,0,123,0,0,0,0,0,0,0,0,Tag0,unknown
1610201154892,54,68,1.4941406250000001E-5,0,0,123,0,0,0,0,0,0,0,0,Tag0,unknown
1610201154904,54,68,1.4941406250000001E-5,0,0,123,0,0,0,0,0,0,0,0,Tag0,unknown
1610201154914,54,69,1.51611328125E-5,0,0,123,0,0,0,0,0,0,0,0,Tag0,unknown
1610201154957,54,68,1.4941406250000001E-5,0,0,123,0,0,0,0,0,0,0,0,Tag0,unknown
1610201154971,54,68,1.4941406250000001E-5,0,0,123,0,0,0,0,0,0,0,0,Tag0,unknown
1610201154981,54,69,1.51611328125E-5,0,0,123,0,0,0,0,0,0,0,0,Tag0,unknown
1610201155005,54,68,1.4941406250000001E-5,0,0,123,0,0,0,0,0,0,0,0,Tag0,unknown
1610201155021,54,68,1.4941406250000001E-5,0,0,123,0,0,0,0,0,0,0,0,Tag0,unknown
1610201155041,54,68,1.4941406250000001E-5,0,0,123,0,0,0,0,0,0,0,0,Tag0,unknown
1610201155055,54,68,1.4941406250000001E-5,0,0,123,0,0,0,0,0,0,0,0,Tag0,unknown
1610201155071,54,69,1.51611328125E-5,0,0,123,0,0,0,0,0,0,0,0,Tag0,unknown
1610201155088,54,70,1.5380859375E-5,0,0,123,0,0,0,0,0,0,0,0,Tag0,unknown
1610201155107,54,70,1.5380859375E-5,0,0,123,0,0,0,0,0,0,0,0,Tag0,unknown
1610201155121,54,70,1.5380859375E-5,0,0,123,0,0,0,0,0,0,0,0,Tag0,unknown
1610201155131,54,69,1.51611328125E-5,0,0,123,0,0,0,0,0,0,0,0,Tag0,unknown
1610201155161,200,69,1.51611328125E-5,0,0,123,11,1,1,0,0,0,0,0,Tag0,unknown
1610201155174,200,68,1.4941406250000001E-5,0,0,123,11,1,1,0,0,0,0,0,Tag0,unknown
1610201155191,200,68,1.4941406250000001E-5,0,0,123,11,1,1,0,0,0,0,0,Tag0,unknown
1610201155218,200,69,1.51611328125E-5,0,0,123,11,1,1,0,0,0,0,0,Tag0,unknown
1610201155237,200,68,1.4941406250000001E-5,0,0,123,11,1,1,0,0,0,0,0,Tag0,unknown
1610201155257,200,67,1.4721679687500002E-5,0,0,123,11,1,1,0,0,0,0,0,Tag0,unknown
1610201155271,200,69,1.51611328125E-5,0,0,123,11,1,1,0,0,0,0,0,Tag0,unknown
1610201155292,200,69,1.51611328125E-5,0,0,123,11,1,1,0,0,0,0,0,Tag0,unknown
1610201155304,200,69,1.51611328125E-5,0,0,123,11,1,1,0,0,0,0,0,Tag0,unknown
1610201155314,200,67,1.4721679687500002E-5,0,0,123,11,1,1,0,0,0,0,0,Tag0,unknown
1610201155329,200,67,1.4721679687500002E-5,0,0,123,11,1,1,0,0,0,0,0,Tag0,unknown
1610201155339,200,68,1.4941406250000001E-5,0,0,123,11,1,1,0,0,0,0,0,Tag0,unknown
1610201155361,200,68,1.4941406250000001E-5,0,0,123,11,1,1,0,0,0,0,0,Tag0,unknown
1610201155371,200,69,1.51611328125E-5,0,0,123,11,1,1,0,0,0,0,0,Tag0,unknown
1610201155400,200,68,1.4941406250000001E-5,0,0,123,11,1,1,0,0,0,0,0,Tag0,unknown
1610201155423,200,70,1.5380859375E-5,0,0,123,11,1,1,0,0,0,0,0,Tag0,unknown
1610201155439,200,67,1.4721679687500002E-5,0,0,123,11,1,1,0,0,0,0,0,Tag0,unknown
1610201155455,200,68,1.4941406250000001E-5,0,0,123,11,1,1,0,0,0,0,0,Tag0,unknown
1610201155477,200,68,1.4941406250000001E-5,0,0,123,11,1,1,0,0,0,0,0,Tag0,unknown
1610201155491,200,68,1.4941406250000001E-5,0,0,123,11,1,1,0,0,0,0,0,Tag0,unknown
1610201155505,200,69,1.51611328125E-5,0,0,123,11,1,1,0,0,0,0,0,Tag0,unknown
1610201155521,200,69,1.51611328125E-5,0,0,123,11,1,1,0,0,0,0,0,Tag0,unknown
1610201155538,200,69,1.51611328125E-5,0,0,123,11,1,1,0,0,0,0,0,Tag0,unknown
1610201155559,200,69,1.51611328125E-5,0,0,123,11,1,1,0,0,0,0,0,Tag0,unknown
1610201155572,200,69,1.51611328125E-5,0,0,123,11,1,1,0,0,0,0,0,Tag0,unknown
1610201155582,200,73,1.6040039062500002E-5,0,0,123,11,1,1,0,0,0,0,0,Tag0,unknown
1610201155600,200,77,1.69189453125E-5,0,0,123,11,1,1,0,0,0,0,0,Tag0,unknown
1610201155610,200,66,1.4501953125E-5,0,0,123,11,1,1,0,0,0,0,0,Tag0,unknown
1610201155634,200,67,1.4721679687500002E-5,0,0,123,11,1,1,0,0,0,0,0,Tag0,unknown
1610201155654,200,69,1.51611328125E-5,0,0,123,11,1,1,0,0,0,0,0,Tag0,unknown
1610201155680,200,70,1.5380859375E-5,0,0,123,11,1,1,0,0,0,0,0,Tag0,unknown
1610201155690,200,77,1.69189453125E-5,0,0,123,11,1,1,0,0,0,0,0,Tag0,unknown
1610201155706,200,71,1.56005859375E-5,0,0,123,11,1,1,0,0,0,0,0,Tag0,unknown
1610201155721,200,68,1.4941406250000001E-5,0,0,123,11,1,1,0,0,0,0,0,Tag0,unknown
1610201155749,200,61,1.34033203125E-5,0,0,123,11,1,1,0,0,0,0,0,Tag0,unknown
1610201155759,200,65,1.42822265625E-5,0,0,123,11,1,1,0,0,0,0,0,Tag0,unknown
1610201155772,200,55,1.20849609375E-5,0,0,123,11,1,1,0,0,0,0,0,Tag0,unknown
1610201155788,200,85,1.86767578125E-5,0,0,123,11,1,1,0,0,0,0,0,Tag0,unknown
1610201155818,200,87,1.91162109375E-5,0,0,123,11,1,1,0,0,0,0,0,Tag0,unknown
1610201155857,200,97,2.13134765625E-5,0,0,123,11,1,1,0,0,0,0,0,Tag0,unknown
1610201155871,200,87,1.91162109375E-5,0,0,123,11,1,1,0,0,0,0,0,Tag0,unknown
1610201155881,200,82,1.8017578124999998E-5,0,0,123,11,1,1,0,0,0,0,0,Tag0,unknown
1610201155903,200,75,1.64794921875E-5,0,0,123,11,1,1,0,0,0,0,0,Tag0,unknown
1610201155922,200,75,1.64794921875E-5,0,0,123,11,1,1,0,0,0,0,0,Tag0,unknown
1610201155932,200,93,2.04345703125E-5,0,0,123,11,1,1,0,0,0,0,0,Tag0,unknown
1610201155942,200,87,1.91162109375E-5,0,0,123,11,1,1,0,0,0,0,0,Tag0,unknown
1610201155956,200,91,1.99951171875E-5,0,0,123,11,1,1,0,0,0,0,0,Tag0,unknown
1610201155972,200,85,1.86767578125E-5,0,0,123,11,1,1,0,0,0,0,0,Tag0,unknown
1610201156006,200,92,2.021484375E-5,0,0,123,11,1,1,0,0,0,0,0,Tag0,unknown
1610201156022,200,81,1.77978515625E-5,0,0,123,11,1,1,0,0,0,0,0,Tag0,unknown
1610201156048,200,93,2.04345703125E-5,0,0,123,11,1,1,0,0,0,0,0,Tag0,unknown
1610201156058,200,119,2.6147460937500004E-5,0,0,123,11,1,1,0,0,0,0,0,Tag0,unknown
1610201156072,200,37,8.1298828125E-6,0,0,123,11,1,1,0,0,0,0,0,Tag0,unknown
1610201156088,200,88,1.93359375E-5,0,0,123,11,1,1,0,0,0,0,0,Tag0,unknown
1610201156117,200,59,1.29638671875E-5,0,0,123,11,1,1,0,0,0,0,0,Tag0,unknown
1610201156127,200,55,1.20849609375E-5,0,0,123,11,1,1,0,0,0,0,0,Tag0,unknown
1610201156140,200,67,1.4721679687500002E-5,0,0,123,11,1,1,0,0,0,0,0,Tag0,unknown
1610201156160,200,58,1.2744140625E-5,0,0,123,4662,206,16777208,62,274,561,16777184,16777168,Tag0,unknown
1610201156172,200,50,1.0986328125E-5,0,0,123,4662,206,16777208,62,274,561,16777184,16777168,Tag0,unknown
1610201156235,200,88,1.93359375E-5,0,0,123,4662,206,16777208,62,274,561,16777184,16777168,Tag0,unknown
1610201156258,200,92,2.021484375E-5,0,0,123,4662,206,16777208,62,274,561,16777184,16777168,Tag0,unknown
1610201156268,200,61,1.34033203125E-5,0,0,123,4662,206,16777208,62,274,561,16777184,16777168,Tag0,unknown
1610201156281,200,75,1.64794921875E-5,0,0,123,4662,206,16777208,62,274,561,16777184,16777168,Tag0,unknown
1610201156292,200,81,1.77978515625E-5,0,0,123,4662,206,16777208,62,274,561,16777184,16777168,Tag0,unknown
1610201156307,200,-123,-2.70263671875E-5,0,0,123,4662,206,16777208,62,274,561,16777184,16777168,Tag0,unknown
1610201156321,200,-126,-2.7685546875E-5,0,0,123,4662,206,16777208,62,274,561,16777184,16777168,Tag0,unknown
1610201156331,200,-88,-1.93359375E-5,0,0,123,4662,206,16777208,62,274,561,16777184,16777168,Tag0,unknown
1610201156345,200,90,1.9775390625E-5,0,0,123,4662,206,16777208,62,274,561,16777184,16777168,Tag0,unknown
1610201156355,200,-100,-2.197265625E-5,0,0,123,4662,206,16777208,62,274,561,16777184,16777168,Tag0,unknown
1610201156380,200,-119,-2.6147460937500004E-5,0,0,123,4662,206,16777208,62,274,561,16777184,16777168,Tag0,unknown
1610201156390,200,-121,-2.6586914062500003E-5,0,0,123,4662,206,16777208,62,274,561,16777184,16777168,Tag0,unknown
1610201156420,200,16,3.515625E-6,0,0,123,4662,206,16777208,62,274,561,16777184,16777168,Tag0,unknown
1610201156439,200,308,6.767578125E-5,0,0,123,4662,206,16777208,62,274,561,16777184,16777168,Tag0,unknown
1610201156456,200,52,1.142578125E-5,0,0,123,4662,206,16777208,62,274,561,16777184,16777168,Tag0,unknown
1610201156472,200,-85,-1.86767578125E-5,0,0,123,4662,206,16777208,62,274,561,16777184,16777168,Tag0,unknown
1610201156496,200,-123,-2.70263671875E-5,0,0,123,4662,206,16777208,62,274,561,16777184,16777168,Tag0,unknown
1610201156506,200,-357,-7.844238281250001E-5,0,0,123,4662,206,16777208,62,274,561,16777184,16777168,Tag0,unknown
1610201156522,200,45,9.8876953125E-6,0,0,123,4662,206,16777208,62,274,561,16777184,16777168,Tag0,unknown
1610201156539,200,27,5.9326171875000005E-6,0,0,123,4662,206,16777208,62,274,561,16777184,16777168,Tag0,unknown
1610201156557,200,-330,-7.2509765625E-5,0,0,123,4662,206,16777208,62,274,561,16777184,16777168,Tag0,unknown
1610201156574,200,83,1.82373046875E-5,0,0,123,4662,206,16777208,62,274,561,16777184,16777168,Tag0,unknown
1610201156589,200,-11,-2.4169921875E-6,0,0,123,4662,206,16777208,62,274,561,16777184,16777168,Tag0,unknown
1610201156614,200,101,2.2192382812500002E-5,0,0,123,4662,206,16777208,62,274,561,16777184,16777168,Tag0,unknown
1610201156624,200,336,7.382812500000001E-5,0,0,123,4662,206,16777208,62,274,561,16777184,16777168,Tag0,unknown
1610201156638,200,69,1.51611328125E-5,0,0,123,4662,206,16777208,62,274,561,16777184,16777168,Tag0,unknown
1610201156656,200,52,1.142578125E-5,0,0,123,4662,206,16777208,62,274,561,16777184,16777168,Tag0,unknown
1610201156686,200,-98,-2.1533203125E-5,0,0,123,4662,206,16777208,62,274,561,16777184,16777168,Tag0,unknown
1610201156706,200,-100,-2.197265625E-5,0,0,123,4662,206,16777208,62,274,561,16777184,16777168,Tag0,unknown
1610201156758,200,117,2.5708007812499998E-5,0,0,123,4662,206,16777208,62,274,561,16777184,16777168,Tag0,unknown
1610201156776,200,35,7.6904296875E-6,0,0,123,4662,206,16777208,62,274,561,16777184,16777168,Tag0,unknown
1610201156786,200,54,1.1865234375000001E-5,0,0,123,4662,206,16777208,62,274,561,16777184,16777168,Tag0,unknown
1610201156797,200,1,2.197265625E-7,0,0,123,4662,206,16777208,62,274,561,16777184,16777168,Tag0,unknown
1610201156807,200,73,1.6040039062500002E-5,0,0,123,4662,206,16777208,62,274,561,16777184,16777168,Tag0,unknown
1610201156830,200,-115,-2.52685546875E-5,0,0,123,4662,206,16777208,62,274,561,16777184,16777168,Tag0,unknown
1610201156840,200,-93,-2.04345703125E-5,0,0,123,4662,206,16777208,62,274,561,16777184,16777168,Tag0,unknown
1610201156850,200,70,1.5380859375E-5,0,0,123,4662,206,16777208,62,274,561,16777184,16777168,Tag0,unknown
1610201156904,200,-69,-1.51611328125E-5,0,0,123,4662,206,16777208,62,274,561,16777184,16777168,Tag0,unknown
1610201156927,200,-13,-2.8564453125E-6,0,0,123,4662,206,16777208,62,274,561,16777184,16777168,Tag0,unknown
1610201156937,200,356,7.822265625E-5,0,0,123,4662,206,16777208,62,274,561,16777184,16777168,Tag0,unknown
1610201156947,200,67,1.4721679687500002E-5,0,0,123,4662,206,16777208,62,274,561,16777184,16777168,Tag0,unknown
1610201156957,200,100,2.197265625E-5,0,0,123,4662,206,16777208,62,274,561,16777184,16777168,Tag0,unknown
1610201156972,200,150,3.2958984375E-5,0,0,123,4662,206,16777208,62,274,561,16777184,16777168,Tag0,unknown
1610201156992,200,-369,-8.10791015625E-5,0,0,123,4662,206,16777208,62,274,561,16777184,16777168,Tag0,unknown
1610201157006,200,-311,-6.833496093750001E-5,0,0,123,4662,206,16777208,62,274,561,16777184,16777168,Tag0,unknown
1610201157016,200,-117,-2.5708007812499998E-5,0,0,123,4662,206,16777208,62,274,561,16777184,16777168,Tag0,unknown
1610201157028,200,347,7.62451171875E-5,0,0,123,4662,206,16777208,62,274,561,16777184,16777168,Tag0,unknown
1610201157039,200,-53,-1.1645507812500002E-5,0,0,123,4662,206,16777208,62,274,561,16777184,16777168,Tag0,unknown
1610201157057,200,-281,-6.17431640625E-5,0,0,123,4662,206,16777208,62,274,561,16777184,16777168,Tag0,unknown
1610201157072,200,-128,-2.8125E-5,0,0,123,4662,206,16777208,62,274,561,16777184,16777168,Tag0,unknown
1610201157092,200,195,4.28466796875E-5,0,0,123,4662,206,16777208,62,274,561,16777184,16777168,Tag0,unknown
1610201157106,200,151,3.31787109375E-5,0,0,123,4662,206,16777208,62,274,561,16777184,16777168,Tag0,unknown
1610201157129,200,-47,-1.0327148437500001E-5,0,0,123,4662,206,16777208,62,274,561,16777184,16777168,Tag0,unknown
1610201157140,200,-41,-9.008789062499999E-6,0,0,123,4662,206,16777208,62,274,561,16777184,16777168,Tag0,unknown
1610201157150,200,342,7.5146484375E-5,0,0,123,421789,122611,12876,6309,18398,8181,2341,8024,Tag0,unknown
1610201157169,200,291,6.39404296875E-5,0,0,123,421789,122611,12876,6309,18398,8181,2341,8024,Tag0,unknown
1610201157179,200,-100,-2.197265625E-5,0,0,123,421789,122611,12876,6309,18398,8181,2341,8024,Tag0,unknown
1610201157189,200,74,1.6259765625E-5,0,0,123,421789,122611,12876,6309,18398,8181,2341,8024,Tag0,unknown
1610201157207,200,45,9.8876953125E-6,0,0,123,421789,122611,12876,6309,18398,8181,2341,8024,Tag0,unknown
1610201157226,200,-340,-7.470703125E-5,0,0,123,421789,122611,12876,6309,18398,8181,2341,8024,Tag0,unknown
1610201157245,200,-225,-4.94384765625E-5,0,0,123,421789,122611,12876,6309,18398,8181,2341,8024,Tag0,unknown
1610201157256,200,-203,-4.460449218750001E-5,0,0,123,421789,122611,12876,6309,18398,8181,2341,8024,Tag0,unknown
1610201157272,200,-125,-2.74658203125E-5,0,0,123,421789,122611,12876,6309,18398,8181,2341,8024,Tag0,unknown
1610201157287,200,-261,-5.73486328125E-5,0,0,123,421789,122611,12876,6309,18398,8181,2341,8024,Tag0,unknown
1610201157305,200,-13,-2.8564453125E-6,0,0,123,421789,122611,12876,6309,18398,8181,2341,8024,Tag0,unknown
1610201157322,200,-3,-6.591796875E-7,0,0,123,421789,122611,12876,6309,18398,8181,2341,8024,Tag0,unknown
1610201157338,200,687,1.5095214843750002E-4,0,0,123,421789,122611,12876,6309,18398,8181,2341,8024,Tag0,unknown
1610201157356,200,1371,3.012451171875E-4,0,0,123,421789,122611,12876,6309,18398,8181,2341,8024,Tag0,unknown
1610201157371,200,199,4.3725585937499995E-5,0,0,123,421789,122611,12876,6309,18398,8181,2341,8024,Tag0,unknown
1610201157390,200,513,1.127197265625E-4,0,0,123,421789,122611,12876,6309,18398,8181,2341,8024,Tag0,unknown
1610201157404,200,249,5.47119140625E-5,0,0,123,421789,122611,12876,6309,18398,8181,2341,8024,Tag0,unknown
1610201157427,200,-525,-1.153564453125E-4,0,0,123,421789,122611,12876,6309,18398,8181,2341,8024,Tag0,unknown
1610201157438,200,-321,-7.053222656250001E-5,0,0,123,421789,122611,12876,6309,18398,8181,2341,8024,Tag0,unknown
1610201157463,200,-545,-1.197509765625E-4,0,0,123,421789,122611,12876,6309,18398,8181,2341,8024,Tag0,unknown
1610201157473,200,612,1.3447265625000002E-4,0,0,123,421789,122611,12876,6309,18398,8181,2341,8024,Tag0,unknown
1610201157488,200,-57,-1.2524414062500001E-5,0,0,123,421789,122611,12876,6309,18398,8181,2341,8024,Tag0,unknown
1610201157519,200,87,1.91162109375E-5,0,0,123,421789,122611,12876,6309,18398,8181,2341,8024,Tag0,unknown
1610201157539,200,105,2.30712890625E-5,0,0,123,421789,122611,12876,6309,18398,8181,2341,8024,Tag0,unknown
1610201157559,200,-116,-2.548828125E-5,0,0,123,421789,122611,12876,6309,18398,8181,2341,8024,Tag0,unknown
1610201157571,200,-102,-2.2412109374999998E-5,0,0,123,421789,122611,12876,6309,18398,8181,2341,8024,Tag0,unknown
1610201157589,200,-89,-1.95556640625E-5,0,0,123,421789,122611,12876,6309,18398,8181,2341,8024,Tag0,unknown
1610201157605,200,-98,-2.1533203125E-5,0,0,123,421789,122611,12876,6309,18398,8181,2341,8024,Tag0,unknown
1610201157627,200,-28,-6.15234375E-6,0,0,123,421789,122611,12876,6309,18398,8181,2341,8024,Tag0,unknown
1610201157638,200,160,3.515625E-5,0,0,123,421789,122611,12876,6309,18398,8181,2341,8024,Tag0,unknown
1610201157661,200,-15,-3.2958984375E-6,0,0,123,421789,122611,12876,6309,18398,8181,2341,8024,Tag0,unknown
1610201157671,200,267,5.86669921875E-5,0,0,123,421789,122611,12876,6309,18398,8181,2341,8024,Tag0,unknown
1610201157681,200,299,6.56982421875E-5,0,0,123,421789,122611,12876,6309,18398,8181,2341,8024,Tag0,unknown
1610201157699,200,-78,-1.7138671875E-5,0,0,123,421789,122611,12876,6309,18398,8181,2341,8024,Tag0,unknown
1610201157709,200,51,1.1206054687499999E-5,0,0,123,421789,122611,12876,6309,18398,8181,2341,8024,Tag0,unknown
1610201157734,200,67,1.4721679687500002E-5,0,0,123,421789,122611,12876,6309,18398,8181,2341,8024,Tag0,unknown
1610201157755,200,-132,-2.900390625E-5,0,0,123,421789,122611,12876,6309,18398,8181,2341,8024,Tag0,unknown
1610201157775,200,42,9.228515625000002E-6,0,0,123,421789,122611,12876,6309,18398,8181,2341,8024,Tag0,unknown
1610201157788,200,-115,-2.52685546875E-5,0,0,123,421789,122611,12876,6309,18398,8181,2341,8024,Tag0,unknown
1610201157798,200,-106,-2.3291015625000003E-5,0,0,123,421789,122611,12876,6309,18398,8181,2341,8024,Tag0,unknown
1610201157833,200,108,2.3730468750000002E-5,0,0,123,421789,122611,12876,6309,18398,8181,2341,8024,Tag0,unknown
1610201157855,200,59,1.29638671875E-5,0,0,123,421789,122611,12876,6309,18398,8181,2341,8024,Tag0,unknown
1610201157865,200,118,2.5927734375E-5,0,0,123,421789,122611,12876,6309,18398,8181,2341,8024,Tag0,unknown
1610201157878,200,89,1.95556640625E-5,0,0,123,421789,122611,12876,6309,18398,8181,2341,8024,Tag0,unknown
1610201157889,200,-121,-2.6586914062500003E-5,0,0,123,421789,122611,12876,6309,18398,8181,2341,8024,Tag0,unknown
1610201157921,200,-83,-1.82373046875E-5,0,0,123,421789,122611,12876,6309,18398,8181,2341,8024,Tag0,unknown
1610201157939,200,-112,-2.4609375E-5,0,0,123,421789,122611,12876,6309,18398,8181,2341,8024,Tag0,unknown
1610201157949,200,-313,-6.87744140625E-5,0,0,123,421789,122611,12876,6309,18398,8181,2341,8024,Tag0,unknown
1610201157981,200,66,1.4501953125E-5,0,0,123,421789,122611,12876,6309,18398,8181,2341,8024,Tag0,unknown
1610201157991,200,-280,-6.15234375E-5,0,0,123,421789,122611,12876,6309,18398,8181,2341,8024,Tag0,unknown
1610201158005,200,11,2.4169921875E-6,0,0,123,421789,122611,12876,6309,18398,8181,2341,8024,Tag0,unknown
1610201158030,200,-262,-5.7568359375E-5,0,0,123,421789,122611,12876,6309,18398,8181,2341,8024,Tag0,unknown
1610201158040,200,100,2.197265625E-5,0,0,123,421789,122611,12876,6309,18398,8181,2341,8024,Tag0,unknown
1610201158056,200,-59,-1.29638671875E-5,0,0,123,421789,122611,12876,6309,18398,8181,2341,8024,Tag0,unknown
1610201158072,200,109,2.39501953125E-5,0,0,123,421789,122611,12876,6309,18398,8181,2341,8024,Tag0,unknown
1610201158108,200,19,4.1748046875E-6,0,0,123,421789,122611,12876,6309,18398,8181,2341,8024,Tag0,unknown
1610201158125,200,-379,-8.32763671875E-5,0,0,123,421789,122611,12876,6309,18398,8181,2341,8024,Tag0,unknown
1610201158135,200,-322,-7.0751953125E-5,0,0,123,421789,122611,12876,6309,18398,8181,2341,8024,Tag0,unknown
1610201158145,200,566,1.2436523437500002E-4,0,0,123,9868,15368,15253,5234,5344,6348,13103,3190,Tag0,unknown
1610201158159,200,347,7.62451171875E-5,0,0,123,9868,15368,15253,5234,5344,6348,13103,3190,Tag0,unknown
1610201158180,200,75,1.64794921875E-5,0,0,123,9868,15368,15253,5234,5344,6348,13103,3190,Tag0,unknown
1610201158190,200,312,6.85546875E-5,0,0,123,9868,15368,15253,5234,5344,6348,13103,3190,Tag0,unknown
1610201158205,200,307,6.74560546875E-5,0,0,123,9868,15368,15253,5234,5344,6348,13103,3190,Tag0,unknown
1610201158222,200,-554,-1.2172851562500001E-4,0,0,123,9868,15368,15253,5234,5344,6348,13103,3190,Tag0,unknown
1610201158239,200,-531,-1.1667480468750001E-4,0,0,123,9868,15368,15253,5234,5344,6348,13103,3190,Tag0,unknown
1610201158255,200,-332,-7.294921875E-5,0,0,123,9868,15368,15253,5234,5344,6348,13103,3190,Tag0,unknown
1610201158272,200,-369,-8.10791015625E-5,0,0,123,9868,15368,15253,5234,5344,6348,13103,3190,Tag0,unknown
1610201158302,200,43,9.448242187500001E-6,0,0,123,9868,15368,15253,5234,5344,6348,13103,3190,Tag0,unknown
1610201158313,200,325,7.14111328125E-5,0,0,123,9868,15368,15253,5234,5344,6348,13103,3190,Tag0,unknown
1610201158323,200,147,3.22998046875E-5,0,0,123,9868,15368,15253,5234,5344,6348,13103,3190,Tag0,unknown
1610201158340,200,187,4.10888671875E-5,0,0,123,9868,15368,15253,5234,5344,6348,13103,3190,Tag0,unknown
1610201158371,200,449,9.86572265625E-5,0,0,123,9868,15368,15253,5234,5344,6348,13103,3190,Tag0,unknown
1610201158388,200,402,8.8330078125E-5,0,0,123,9868,15368,15253,5234,5344,6348,13103,3190,Tag0,unknown
1610201158407,200,628,1.3798828125E-4,0,0,123,9868,15368,15253,5234,5344,6348,13103,3190,Tag0,unknown
1610201158422,200,211,4.63623046875E-5,0,0,123,9868,15368,15253,5234,5344,6348,13103,3190,Tag0,unknown
1610201158443,200,59,1.29638671875E-5,0,0,123,9868,15368,15253,5234,5344,6348,13103,3190,Tag0,unknown
1610201158455,200,7,1.5380859375E-6,0,0,123,9868,15368,15253,5234,5344,6348,13103,3190,Tag0,unknown
1610201158481,200,-199,-4.3725585937499995E-5,0,0,123,9868,15368,15253,5234,5344,6348,13103,3190,Tag0,unknown
1610201158491,200,-376,-8.261718750000001E-5,0,0,123,9868,15368,15253,5234,5344,6348,13103,3190,Tag0,unknown
1610201158505,200,48,1.0546875E-5,0,0,123,9868,15368,15253,5234,5344,6348,13103,3190,Tag0,unknown
1610201158522,200,114,2.5048828125000003E-5,0,0,123,9868,15368,15253,5234,5344,6348,13103,3190,Tag0,unknown
1610201158541,200,-325,-7.14111328125E-5,0,0,123,9868,15368,15253,5234,5344,6348,13103,3190,Tag0,unknown
1610201158555,200,-167,-3.6694335937500004E-5,0,0,123,9868,15368,15253,5234,5344,6348,13103,3190,Tag0,unknown
1610201158575,200,-292,-6.416015625000001E-5,0,0,123,9868,15368,15253,5234,5344,6348,13103,3190,Tag0,unknown
1610201158588,200,33,7.2509765625E-6,0,0,123,9868,15368,15253,5234,5344,6348,13103,3190,Tag0,unknown
1610201158598,200,91,1.99951171875E-5,0,0,123,9868,15368,15253,5234,5344,6348,13103,3190,Tag0,unknown
1610201158617,200,-79,-1.7358398437500003E-5,0,0,123,9868,15368,15253,5234,5344,6348,13103,3190,Tag0,unknown
1610201158627,200,297,6.525878906250001E-5,0,0,123,9868,15368,15253,5234,5344,6348,13103,3190,Tag0,unknown
1610201158639,200,71,1.56005859375E-5,0,0,123,9868,15368,15253,5234,5344,6348,13103,3190,Tag0,unknown
1610201158664,200,275,6.04248046875E-5,0,0,123,9868,15368,15253,5234,5344,6348,13103,3190,Tag0,unknown
1610201158674,200,-42,-9.228515625000002E-6,0,0,123,9868,15368,15253,5234,5344,6348,13103,3190,Tag0,unknown
1610201158689,200,3,6.591796875E-7,0,0,123,9868,15368,15253,5234,5344,6348,13103,3190,Tag0,unknown
1610201158705,200,-14,-3.076171875E-6,0,0,123,9868,15368,15253,5234,5344,6348,13103,3190,Tag0,unknown
1610201158722,200,-67,-1.4721679687500002E-5,0,0,123,9868,15368,15253,5234,5344,6348,13103,3190,Tag0,unknown
1610201158739,200,41,9.008789062499999E-6,0,0,123,9868,15368,15253,5234,5344,6348,13103,3190,Tag0,unknown
1610201158755,200,123,2.70263671875E-5,0,0,123,9868,15368,15253,5234,5344,6348,13103,3190,Tag0,unknown
1610201158795,200,49,1.07666015625E-5,0,0,123,9868,15368,15253,5234,5344,6348,13103,3190,Tag0,unknown
1610201158807,200,69,1.51611328125E-5,0,0,123,9868,15368,15253,5234,5344,6348,13103,3190,Tag0,unknown
1610201158817,200,114,2.5048828125000003E-5,0,0,123,9868,15368,15253,5234,5344,6348,13103,3190,Tag0,unknown
1610201158827,200,269,5.9106445312499996E-5,0,0,123,9868,15368,15253,5234,5344,6348,13103,3190,Tag0,unknown
1610201158854,200,7,1.5380859375E-6,0,0,123,9868,15368,15253,5234,5344,6348,13103,3190,Tag0,unknown
1610201158872,200,21,4.614257812500001E-6,0,0,123,9868,15368,15253,5234,5344,6348,13103,3190,Tag0,unknown
1610201158882,200,43,9.448242187500001E-6,0,0,123,9868,15368,15253,5234,5344,6348,13103,3190,Tag0,unknown
1610201158892,200,-189,-4.15283203125E-5,0,0,123,9868,15368,15253,5234,5344,6348,13103,3190,Tag0,unknown
1610201158906,200,97,2.13134765625E-5,0,0,123,9868,15368,15253,5234,5344,6348,13103,3190,Tag0,unknown
1610201158922,200,125,2.74658203125E-5,0,0,123,9868,15368,15253,5234,5344,6348,13103,3190,Tag0,unknown
1610201158941,200,112,2.4609375E-5,0,0,123,9868,15368,15253,5234,5344,6348,13103,3190,Tag0,unknown
1610201158962,200,90,1.9775390625E-5,0,0,123,9868,15368,15253,5234,5344,6348,13103,3190,Tag0,unknown
1610201158972,200,4,8.7890625E-7,0,0,123,9868,15368,15253,5234,5344,6348,13103,3190,Tag0,unknown
1610201158982,200,-281,-6.17431640625E-5,0,0,123,9868,15368,15253,5234,5344,6348,13103,3190,Tag0,unknown
1610201159007,200,-67,-1.4721679687500002E-5,0,0,123,9868,15368,15253,5234,5344,6348,13103,3190,Tag0,unknown
1610201159023,200,2,4.39453125E-7,0,0,123,9868,15368,15253,5234,5344,6348,13103,3190,Tag0,unknown
1610201159039,200,-292,-6.416015625000001E-5,0,0,123,9868,15368,15253,5234,5344,6348,13103,3190,Tag0,unknown
1610201159055,200,58,1.2744140625E-5,0,0,123,9868,15368,15253,5234,5344,6348,13103,3190,Tag0,unknown
1610201159065,200,23,5.0537109375E-6,0,0,123,9868,15368,15253,5234,5344,6348,13103,3190,Tag0,unknown
1610201159080,200,-67,-1.4721679687500002E-5,0,0,123,9868,15368,15253,5234,5344,6348,13103,3190,Tag0,unknown
1610201159090,200,-42,-9.228515625000002E-6,0,0,123,9868,15368,15253,5234,5344,6348,13103,3190,Tag0,unknown
1610201159106,200,27,5.9326171875000005E-6,0,0,123,9868,15368,15253,5234,5344,6348,13103,3190,Tag0,unknown
1610201159123,200,3,6.591796875E-7,0,0,123,9868,15368,15253,5234,5344,6348,13103,3190,Tag0,unknown
1610201159144,200,4,8.7890625E-7,0,0,123,775786,343460,15729,94716,18999,16749038,16772130,31880,Tag0,unknown
1610201159156,200,117,2.5708007812499998E-5,0,0,123,775786,343460,15729,94716,18999,16749038,16772130,31880,Tag0,unknown
1610201159178,200,57,1.2524414062500001E-5,0,0,123,775786,343460,15729,94716,18999,16749038,16772130,31880,Tag0,unknown
1610201159190,200,52,1.142578125E-5,0,0,123,775786,343460,15729,94716,18999,16749038,16772130,31880,Tag0,unknown
1610201159200,200,23,5.0537109375E-6,0,0,123,775786,343460,15729,94716,18999,16749038,16772130,31880,Tag0,unknown
1610201159220,200,-80,-1.7578125E-5,0,0,123,775786,343460,15729,94716,18999,16749038,16772130,31880,Tag0,unknown
1610201159239,200,-77,-1.69189453125E-5,0,0,123,775786,343460,15729,94716,18999,16749038,16772130,31880,Tag0,unknown
1610201159266,200,-373,-8.19580078125E-5,0,0,123,775786,343460,15729,94716,18999,16749038,16772130,31880,Tag0,unknown
1610201159276,200,101,2.2192382812500002E-5,0,0,123,775786,343460,15729,94716,18999,16749038,16772130,31880,Tag0,unknown
1610201159289,200,72,1.58203125E-5,0,0,123,775786,343460,15729,94716,18999,16749038,16772130,31880,Tag0,unknown
1610201159313,200,-3,-6.591796875E-7,0,0,123,775786,343460,15729,94716,18999,16749038,16772130,31880,Tag0,unknown
1610201159323,200,-115,-2.52685546875E-5,0,0,123,775786,343460,15729,94716,18999,16749038,16772130,31880,Tag0,unknown
1610201159346,200,77,1.69189453125E-5,0,0,123,775786,343460,15729,94716,18999,16749038,16772130,31880,Tag0,unknown
1610201159356,200,23,5.0537109375E-6,0,0,123,775786,343460,15729,94716,18999,16749038,16772130,31880,Tag0,unknown
1610201159385,200,-85,-1.86767578125E-5,0,0,123,775786,343460,15729,94716,18999,16749038,16772130,31880,Tag0,unknown
1610201159406,200,330,7.2509765625E-5,0,0,123,775786,343460,15729,94716,18999,16749038,16772130,31880,Tag0,unknown
1610201159423,200,-86,-1.8896484375000003E-5,0,0,123,775786,343460,15729,94716,18999,16749038,16772130,31880,Tag0,unknown
1610201159441,200,-280,-6.15234375E-5,0,0,123,775786,343460,15729,94716,18999,16749038,16772130,31880,Tag0,unknown
1610201159455,200,83,1.82373046875E-5,0,0,123,775786,343460,15729,94716,18999,16749038,16772130,31880,Tag0,unknown
1610201159474,200,109,2.39501953125E-5,0,0,123,775786,343460,15729,94716,18999,16749038,16772130,31880,Tag0,unknown
1610201159489,200,80,1.7578125E-5,0,0,123,775786,343460,15729,94716,18999,16749038,16772130,31880,Tag0,unknown
1610201159505,200,117,2.5708007812499998E-5,0,0,123,775786,343460,15729,94716,18999,16749038,16772130,31880,Tag0,unknown
1610201159515,200,-68,-1.4941406250000001E-5,0,0,123,775786,343460,15729,94716,18999,16749038,16772130,31880,Tag0,unknown
1610201159528,200,100,2.197265625E-5,0,0,123,775786,343460,15729,94716,18999,16749038,16772130,31880,Tag0,unknown
1610201159538,200,-101,-2.2192382812500002E-5,0,0,123,775786,343460,15729,94716,18999,16749038,16772130,31880,Tag0,unknown
1610201159562,200,68,1.4941406250000001E-5,0,0,123,775786,343460,15729,94716,18999,16749038,16772130,31880,Tag0,unknown
1610201159572,200,75,1.64794921875E-5,0,0,123,775786,343460,15729,94716,18999,16749038,16772130,31880,Tag0,unknown
1610201159582,200,-305,-6.70166015625E-5,0,0,123,775786,343460,15729,94716,18999,16749038,16772130,31880,Tag0,unknown
1610201159606,200,71,1.56005859375E-5,0,0,123,775786,343460,15729,94716,18999,16749038,16772130,31880,Tag0,unknown
1610201159622,200,-87,-1.91162109375E-5,0,0,123,775786,343460,15729,94716,18999,16749038,16772130,31880,Tag0,unknown
1610201159652,200,75,1.64794921875E-5,0,0,123,775786,343460,15729,94716,18999,16749038,16772130,31880,Tag0,unknown
1610201159672,200,-294,-6.4599609375E-5,0,0,123,775786,343460,15729,94716,18999,16749038,16772130,31880,Tag0,unknown
1610201159690,200,68,1.4941406250000001E-5,0,0,123,775786,343460,15729,94716,18999,16749038,16772130,31880,Tag0,unknown
1610201159706,200,-40,-8.7890625E-6,0,0,123,775786,343460,15729,94716,18999,16749038,16772130,31880,Tag0,unknown
1610201159726,200,-85,-1.86767578125E-5,0,0,123,775786,343460,15729,94716,18999,16749038,16772130,31880,Tag0,unknown
1610201159739,200,534,1.17333984375E-4,0,0,123,775786,343460,15729,94716,18999,16749038,16772130,31880,Tag0,unknown
1610201159749,200,-57,-1.2524414062500001E-5,0,0,123,775786,343460,15729,94716,18999,16749038,16772130,31880,Tag0,unknown
1610201159759,200,347,7.62451171875E-5,0,0,123,775786,343460,15729,94716,18999,16749038,16772130,31880,Tag0,unknown
1610201159774,200,52,1.142578125E-5,0,0,123,775786,343460,15729,94716,18999,16749038,16772130,31880,Tag0,unknown
1610201159790,200,-354,-7.778320312500001E-5,0,0,123,775786,343460,15729,94716,18999,16749038,16772130,31880,Tag0,unknown
1610201159818,200,-157,-3.44970703125E-5,0,0,123,775786,343460,15729,94716,18999,16749038,16772130,31880,Tag0,unknown
1610201159828,200,-89,-1.95556640625E-5,0,0,123,775786,343460,15729,94716,18999,16749038,16772130,31880,Tag0,unknown
1610201159840,200,329,7.229003906250001E-5,0,0,123,775786,343460,15729,94716,18999,16749038,16772130,31880,Tag0,unknown
1610201159855,200,379,8.32763671875E-5,0,0,123,775786,343460,15729,94716,18999,16749038,16772130,31880,Tag0,unknown
1610201159873,200,259,5.69091796875E-5,0,0,123,775786,343460,15729,94716,18999,16749038,16772130,31880,Tag0,unknown
1610201159903,200,101,2.2192382812500002E-5,0,0,123,775786,343460,15729,94716,18999,16749038,16772130,31880,Tag0,unknown
1610201159922,200,45,9.8876953125E-6,0,0,123,775786,343460,15729,94716,18999,16749038,16772130,31880,Tag0,unknown
1610201159932,200,-125,-2.74658203125E-5,0,0,123,775786,343460,15729,94716,18999,16749038,16772130,31880,Tag0,unknown
1610201159946,200,-105,-2.30712890625E-5,0,0,123,775786,343460,15729,94716,18999,16749038,16772130,31880,Tag0,unknown
1610201159956,200,124,2.724609375E-5,0,0,123,775786,343460,15729,94716,18999,16749038,16772130,31880,Tag0,unknown
1610201159972,200,73,1.6040039062500002E-5,0,0,123,775786,343460,15729,94716,18999,16749038,16772130,31880,Tag0,unknown
1610201159989,200,-95,-2.08740234375E-5,0,0,123,775786,343460,15729,94716,18999,16749038,16772130,31880,Tag0,unknown
1610201160015,200,-266,-5.8447265625E-5,0,0,123,775786,343460,15729,94716,18999,16749038,16772130,31880,Tag0,unknown
1610201160025,200,-124,-2.724609375E-5,0,0,123,775786,343460,15729,94716,18999,16749038,16772130,31880,Tag0,unknown
1610201160079,200,-103,-2.26318359375E-5,0,0,123,775786,343460,15729,94716,18999,16749038,16772130,31880,Tag0,unknown
1610201160089,200,-102,-2.2412109374999998E-5,0,0,123,775786,343460,15729,94716,18999,16749038,16772130,31880,Tag0,unknown
1610201160105,200,-257,-5.64697265625E-5,0,0,123,775786,343460,15729,94716,18999,16749038,16772130,31880,Tag0,unknown
1610201160134,200,-309,-6.78955078125E-5,0,0,123,697167,223872,16755374,16759551,16773124,16744960,27448,16748001,Tag0,unknown
1610201160155,200,-15,-3.2958984375E-6,0,0,123,697167,223872,16755374,16759551,16773124,16744960,27448,16748001,Tag0,unknown
1610201160175,200,-110,-2.4169921875E-5,0,0,123,697167,223872,16755374,16759551,16773124,16744960,27448,16748001,Tag0,unknown
1610201160188,200,-119,-2.6147460937500004E-5,0,0,123,697167,223872,16755374,16759551,16773124,16744960,27448,16748001,Tag0,unknown
1610201160212,200,35,7.6904296875E-6,0,0,123,697167,223872,16755374,16759551,16773124,16744960,27448,16748001,Tag0,unknown
1610201160223,200,116,2.548828125E-5,0,0,123,697167,223872,16755374,16759551,16773124,16744960,27448,16748001,Tag0,unknown
1610201160233,200,-91,-1.99951171875E-5,0,0,123,697167,223872,16755374,16759551,16773124,16744960,27448,16748001,Tag0,unknown
1610201160252,200,-260,-5.712890625E-5,0,0,123,697167,223872,16755374,16759551,16773124,16744960,27448,16748001,Tag0,unknown
1610201160262,200,-341,-7.492675781250002E-5,0,0,123,697167,223872,16755374,16759551,16773124,16744960,27448,16748001,Tag0,unknown
1610201160272,200,-141,-3.09814453125E-5,0,0,123,697167,223872,16755374,16759551,16773124,16744960,27448,16748001,Tag0,unknown
1610201160293,200,-323,-7.09716796875E-5,0,0,123,697167,223872,16755374,16759551,16773124,16744960,27448,16748001,Tag0,unknown
1610201160306,200,-377,-8.28369140625E-5,0,0,123,697167,223872,16755374,16759551,16773124,16744960,27448,16748001,Tag0,unknown
1610201160324,200,-328,-7.207031249999999E-5,0,0,123,697167,223872,16755374,16759551,16773124,16744960,27448,16748001,Tag0,unknown
1610201160339,200,-322,-7.0751953125E-5,0,0,123,697167,223872,16755374,16759551,16773124,16744960,27448,16748001,Tag0,unknown
1610201160361,200,-99,-2.1752929687500003E-5,0,0,123,697167,223872,16755374,16759551,16773124,16744960,27448,16748001,Tag0,unknown
1610201160373,200,-69,-1.51611328125E-5,0,0,123,697167,223872,16755374,16759551,16773124,16744960,27448,16748001,Tag0,unknown
1610201160390,200,-101,-2.2192382812500002E-5,0,0,123,697167,223872,16755374,16759551,16773124,16744960,27448,16748001,Tag0,unknown
1610201160409,200,-116,-2.548828125E-5,0,0,123,697167,223872,16755374,16759551,16773124,16744960,27448,16748001,Tag0,unknown
1610201160423,200,-125,-2.74658203125E-5,0,0,123,697167,223872,16755374,16759551,16773124,16744960,27448,16748001,Tag0,unknown
1610201160433,200,-29,-6.3720703125E-6,0,0,123,697167,223872,16755374,16759551,16773124,16744960,27448,16748001,Tag0,unknown
1610201160449,200,-120,-2.63671875E-5,0,0,123,697167,223872,16755374,16759551,16773124,16744960,27448,16748001,Tag0,unknown
1610201160460,200,121,2.6586914062500003E-5,0,0,123,697167,223872,16755374,16759551,16773124,16744960,27448,16748001,Tag0,unknown
1610201160479,200,290,6.3720703125E-5,0,0,123,697167,223872,16755374,16759551,16773124,16744960,27448,16748001,Tag0,unknown
1610201160490,200,-61,-1.34033203125E-5,0,0,123,697167,223872,16755374,16759551,16773124,16744960,27448,16748001,Tag0,unknown
1610201160500,200,-376,-8.261718750000001E-5,0,0,123,697167,223872,16755374,16759551,16773124,16744960,27448,16748001,Tag0,unknown
1610201160520,200,-276,-6.064453125E-5,0,0,123,697167,223872,16755374,16759551,16773124,16744960,27448,16748001,Tag0,unknown
1610201160539,200,-269,-5.9106445312499996E-5,0,0,123,697167,223872,16755374,16759551,16773124,16744960,27448,16748001,Tag0,unknown
1610201160556,200,29,6.3720703125E-6,0,0,123,697167,223872,16755374,16759551,16773124,16744960,27448,16748001,Tag0,unknown
1610201160572,200,117,2.5708007812499998E-5,0,0,123,697167,223872,16755374,16759551,16773124,16744960,27448,16748001,Tag0,unknown
1610201160589,200,-64,-1.40625E-5,0,0,123,697167,223872,16755374,16759551,16773124,16744960,27448,16748001,Tag0,unknown
1610201160616,200,20,4.39453125E-6,0,0,123,697167,223872,16755374,16759551,16773124,16744960,27448,16748001,Tag0,unknown
1610201160626,200,-21,-4.614257812500001E-6,0,0,123,697167,223872,16755374,16759551,16773124,16744960,27448,16748001,Tag0,unknown
1610201160655,200,-340,-7.470703125E-5,0,0,123,697167,223872,16755374,16759551,16773124,16744960,27448,16748001,Tag0,unknown
1610201160672,200,-358,-7.8662109375E-5,0,0,123,697167,223872,16755374,16759551,16773124,16744960,27448,16748001,Tag0,unknown
1610201160682,200,324,7.119140625E-5,0,0,123,697167,223872,16755374,16759551,16773124,16744960,27448,16748001,Tag0,unknown
1610201160700,200,128,2.8125E-5,0,0,123,697167,223872,16755374,16759551,16773124,16744960,27448,16748001,Tag0,unknown
1610201160710,200,121,2.6586914062500003E-5,0,0,123,697167,223872,16755374,16759551,16773124,16744960,27448,16748001,Tag0,unknown
1610201160723,200,259,5.69091796875E-5,0,0,123,697167,223872,16755374,16759551,16773124,16744960,27448,16748001,Tag0,unknown
1610201160739,200,-41,-9.008789062499999E-6,0,0,123,697167,223872,16755374,16759551,16773124,16744960,27448,16748001,Tag0,unknown
1610201160755,200,-25,-5.4931640625E-6,0,0,123,697167,223872,16755374,16759551,16773124,16744960,27448,16748001,Tag0,unknown
1610201160765,200,-324,-7.119140625E-5,0,0,123,697167,223872,16755374,16759551,16773124,16744960,27448,16748001,Tag0,unknown
1610201160775,200,55,1.20849609375E-5,0,0,123,697167,223872,16755374,16759551,16773124,16744960,27448,16748001,Tag0,unknown
1610201160789,200,-357,-7.844238281250001E-5,0,0,123,697167,223872,16755374,16759551,16773124,16744960,27448,16748001,Tag0,unknown
1610201160808,200,-342,-7.5146484375E-5,0,0,123,697167,223872,16755374,16759551,16773124,16744960,27448,16748001,Tag0,unknown
1610201160823,200,-277,-6.0864257812500005E-5,0,0,123,697167,223872,16755374,16759551,16773124,16744960,27448,16748001,Tag0,unknown
1610201160839,200,45,9.8876953125E-6,0,0,123,697167,223872,16755374,16759551,16773124,16744960,27448,16748001,Tag0,unknown
1610201160855,200,-108,-2.3730468750000002E-5,0,0,123,697167,223872,16755374,16759551,16773124,16744960,27448,16748001,Tag0,unknown
1610201160878,200,42,9.228515625000002E-6,0,0,123,697167,223872,16755374,16759551,16773124,16744960,27448,16748001,Tag0,unknown
1610201160891,200,54,1.1865234375000001E-5,0,0,123,697167,223872,16755374,16759551,16773124,16744960,27448,16748001,Tag0,unknown
1610201160901,200,-77,-1.69189453125E-5,0,0,123,697167,223872,16755374,16759551,16773124,16744960,27448,16748001,Tag0,unknown
1610201160924,200,68,1.4941406250000001E-5,0,0,123,697167,223872,16755374,16759551,16773124,16744960,27448,16748001,Tag0,unknown
1610201160934,200,73,1.6040039062500002E-5,0,0,123,697167,223872,16755374,16759551,16773124,16744960,27448,16748001,Tag0,unknown
1610201160944,200,88,1.93359375E-5,0,0,123,697167,223872,16755374,16759551,16773124,16744960,27448,16748001,Tag0,unknown
1610201160960,200,-331,-7.272949218750001E-5,0,0,123,697167,223872,16755374,16759551,16773124,16744960,27448,16748001,Tag0,unknown
1610201160973,200,-268,-5.8886718750000006E-5,0,0,123,697167,223872,16755374,16759551,16773124,16744960,27448,16748001,Tag0,unknown
1610201161017,200,106,2.3291015625000003E-5,0,0,123,697167,223872,16755374,16759551,16773124,16744960,27448,16748001,Tag0,unknown
1610201161039,200,23,5.0537109375E-6,0,0,123,697167,223872,16755374,16759551,16773124,16744960,27448,16748001,Tag0,unknown
1610201161049,200,-146,-3.2080078125000004E-5,0,0,123,697167,223872,16755374,16759551,16773124,16744960,27448,16748001,Tag0,unknown
1610201161059,200,-301,-6.613769531250001E-5,0,0,123,697167,223872,16755374,16759551,16773124,16744960,27448,16748001,Tag0,unknown
1610201161073,200,-553,-1.215087890625E-4,0,0,123,697167,223872,16755374,16759551,16773124,16744960,27448,16748001,Tag0,unknown
1610201161091,200,-589,-1.294189453125E-4,0,0,123,697167,223872,16755374,16759551,16773124,16744960,27448,16748001,Tag0,unknown
1610201161107,200,-402,-8.8330078125E-5,0,0,123,697167,223872,16755374,16759551,16773124,16744960,27448,16748001,Tag0,unknown
1610201161117,200,-951,-2.089599609375E-4,0,0,123,697167,223872,16755374,16759551,16773124,16744960,27448,16748001,Tag0,unknown
1610201161145,200,-1083,-2.379638671875E-4,0,0,123,894351,156212,6571,15418,17707,7889,6330,6712,Tag0,unknown
1610201161155,200,292,6.416015625000001E-5,0,0,123,894351,156212,6571,15418,17707,7889,6330,6712,Tag0,unknown
1610201161179,200,249,5.47119140625E-5,0,0,123,894351,156212,6571,15418,17707,7889,6330,6712,Tag0,unknown
1610201161190,200,547,1.201904296875E-4,0,0,123,894351,156212,6571,15418,17707,7889,6330,6712,Tag0,unknown
1610201161200,200,1057,2.322509765625E-4,0,0,123,894351,156212,6571,15418,17707,7889,6330,6712,Tag0,unknown
1610201161218,200,860,1.8896484375E-4,0,0,123,894351,156212,6571,15418,17707,7889,6330,6712,Tag0,unknown
1610201161228,200,510,1.12060546875E-4,0,0,123,894351,156212,6571,15418,17707,7889,6330,6712,Tag0,unknown
1610201161239,200,593,1.3029785156250002E-4,0,0,123,894351,156212,6571,15418,17707,7889,6330,6712,Tag0,unknown
1610201161261,200,-26,-5.712890625E-6,0,0,123,894351,156212,6571,15418,17707,7889,6330,6712,Tag0,unknown
1610201161273,200,-71,-1.56005859375E-5,0,0,123,894351,156212,6571,15418,17707,7889,6330,6712,Tag0,unknown
1610201161297,200,-322,-7.0751953125E-5,0,0,123,894351,156212,6571,15418,17707,7889,6330,6712,Tag0,unknown
1610201161307,200,-134,-2.9443359375000003E-5,0,0,123,894351,156212,6571,15418,17707,7889,6330,6712,Tag0,unknown
1610201161317,200,21,4.614257812500001E-6,0,0,123,894351,156212,6571,15418,17707,7889,6330,6712,Tag0,unknown
1610201161354,200,86,1.8896484375000003E-5,0,0,123,894351,156212,6571,15418,17707,7889,6330,6712,Tag0,unknown
1610201161373,200,-21,-4.614257812500001E-6,0,0,123,894351,156212,6571,15418,17707,7889,6330,6712,Tag0,unknown
1610201161383,200,33,7.2509765625E-6,0,0,123,894351,156212,6571,15418,17707,7889,6330,6712,Tag0,unknown
1610201161393,200,297,6.525878906250001E-5,0,0,123,894351,156212,6571,15418,17707,7889,6330,6712,Tag0,unknown
1610201161412,200,88,1.93359375E-5,0,0,123,894351,156212,6571,15418,17707,7889,6330,6712,Tag0,unknown
1610201161424,200,-306,-6.723632812500001E-5,0,0,123,894351,156212,6571,15418,17707,7889,6330,6712,Tag0,unknown
1610201161434,200,-373,-8.19580078125E-5,0,0,123,894351,156212,6571,15418,17707,7889,6330,6712,Tag0,unknown
1610201161444,200,-311,-6.833496093750001E-5,0,0,123,894351,156212,6571,15418,17707,7889,6330,6712,Tag0,unknown
1610201161456,200,-377,-8.28369140625E-5,0,0,123,894351,156212,6571,15418,17707,7889,6330,6712,Tag0,unknown
1610201161473,200,-21,-4.614257812500001E-6,0,0,123,894351,156212,6571,15418,17707,7889,6330,6712,Tag0,unknown
1610201161492,200,19,4.1748046875E-6,0,0,123,894351,156212,6571,15418,17707,7889,6330,6712,Tag0,unknown
1610201161516,200,-155,-3.40576171875E-5,0,0,123,894351,156212,6571,15418,17707,7889,6330,6712,Tag0,unknown
1610201161526,200,16,3.515625E-6,0,0,123,894351,156212,6571,15418,17707,7889,6330,6712,Tag0,unknown
1610201161540,200,-71,-1.56005859375E-5,0,0,123,894351,156212,6571,15418,17707,7889,6330,6712,Tag0,unknown
1610201161559,200,-124,-2.724609375E-5,0,0,123,894351,156212,6571,15418,17707,7889,6330,6712,Tag0,unknown
1610201161574,200,19,4.1748046875E-6,0,0,123,894351,156212,6571,15418,17707,7889,6330,6712,Tag0,unknown
1610201161593,200,23,5.0537109375E-6,0,0,123,894351,156212,6571,15418,17707,7889,6330,6712,Tag0,unknown
1610201161606,200,-323,-7.09716796875E-5,0,0,123,894351,156212,6571,15418,17707,7889,6330,6712,Tag0,unknown
1610201161622,200,326,7.163085937500001E-5,0,0,123,894351,156212,6571,15418,17707,7889,6330,6712,Tag0,unknown
1610201161651,200,16,3.515625E-6,0,0,123,894351,156212,6571,15418,17707,7889,6330,6712,Tag0,unknown
1610201161661,200,33,7.2509765625E-6,0,0,123,894351,156212,6571,15418,17707,7889,6330,6712,Tag0,unknown
1610201161672,200,49,1.07666015625E-5,0,0,123,894351,156212,6571,15418,17707,7889,6330,6712,Tag0,unknown
1610201161700,200,37,8.1298828125E-6,0,0,123,894351,156212,6571,15418,17707,7889,6330,6712,Tag0,unknown
1610201161710,200,27,5.9326171875000005E-6,0,0,123,894351,156212,6571,15418,17707,7889,6330,6712,Tag0,unknown
1610201161733,200,-303,-6.65771484375E-5,0,0,123,894351,156212,6571,15418,17707,7889,6330,6712,Tag0,unknown
1610201161743,200,7,1.5380859375E-6,0,0,123,894351,156212,6571,15418,17707,7889,6330,6712,Tag0,unknown
1610201161757,200,-161,-3.53759765625E-5,0,0,123,894351,156212,6571,15418,17707,7889,6330,6712,Tag0,unknown
1610201161784,200,44,9.66796875E-6,0,0,123,894351,156212,6571,15418,17707,7889,6330,6712,Tag0,unknown
1610201161794,200,-63,-1.38427734375E-5,0,0,123,894351,156212,6571,15418,17707,7889,6330,6712,Tag0,unknown
1610201161807,200,71,1.56005859375E-5,0,0,123,894351,156212,6571,15418,17707,7889,6330,6712,Tag0,unknown
1610201161825,200,60,1.318359375E-5,0,0,123,894351,156212,6571,15418,17707,7889,6330,6712,Tag0,unknown
1610201161839,200,71,1.56005859375E-5,0,0,123,894351,156212,6571,15418,17707,7889,6330,6712,Tag0,unknown
1610201161859,200,-321,-7.053222656250001E-5,0,0,123,894351,156212,6571,15418,17707,7889,6330,6712,Tag0,unknown
1610201161872,200,-296,-6.50390625E-5,0,0,123,894351,156212,6571,15418,17707,7889,6330,6712,Tag0,unknown
1610201161882,200,-57,-1.2524414062500001E-5,0,0,123,894351,156212,6571,15418,17707,7889,6330,6712,Tag0,unknown
1610201161894,200,-7,-1.5380859375E-6,0,0,123,894351,156212,6571,15418,17707,7889,6330,6712,Tag0,unknown
1610201161905,200,259,5.69091796875E-5,0,0,123,894351,156212,6571,15418,17707,7889,6330,6712,Tag0,unknown
1610201161929,200,-91,-1.99951171875E-5,0,0,123,894351,156212,6571,15418,17707,7889,6330,6712,Tag0,unknown
1610201161942,200,-87,-1.91162109375E-5,0,0,123,894351,156212,6571,15418,17707,7889,6330,6712,Tag0,unknown
1610201161952,200,62,1.3623046875E-5,0,0,123,894351,156212,6571,15418,17707,7889,6330,6712,Tag0,unknown
1610201161972,200,104,2.28515625E-5,0,0,123,894351,156212,6571,15418,17707,7889,6330,6712,Tag0,unknown
1610201161989,200,104,2.28515625E-5,0,0,123,894351,156212,6571,15418,17707,7889,6330,6712,Tag0,unknown
1610201162006,200,70,1.5380859375E-5,0,0,123,894351,156212,6571,15418,17707,7889,6330,6712,Tag0,unknown
1610201162023,200,11,2.4169921875E-6,0,0,123,894351,156212,6571,15418,17707,7889,6330,6712,Tag0,unknown
1610201162039,200,-131,-2.87841796875E-5,0,0,123,894351,156212,6571,15418,17707,7889,6330,6712,Tag0,unknown
1610201162056,200,83,1.82373046875E-5,0,0,123,894351,156212,6571,15418,17707,7889,6330,6712,Tag0,unknown
1610201162078,200,-289,-6.35009765625E-5,0,0,123,894351,156212,6571,15418,17707,7889,6330,6712,Tag0,unknown
1610201162090,200,-297,-6.525878906250001E-5,0,0,123,894351,156212,6571,15418,17707,7889,6330,6712,Tag0,unknown
1610201162100,200,-3,-6.591796875E-7,0,0,123,894351,156212,6571,15418,17707,7889,6330,6712,Tag0,unknown
1610201162110,200,-128,-2.8125E-5,0,0,123,985995,85691,24883,16753134,13058,16743,5023,6838,Tag0,unknown
1610201162127,200,55,1.20849609375E-5,0,0,123,985995,85691,24883,16753134,13058,16743,5023,6838,Tag0,unknown
1610201162156,200,-108,-2.3730468750000002E-5,0,0,123,985995,85691,24883,16753134,13058,16743,5023,6838,Tag0,unknown
1610201162174,200,-125,-2.74658203125E-5,0,0,123,985995,85691,24883,16753134,13058,16743,5023,6838,Tag0,unknown
1610201162193,200,-111,-2.43896484375E-5,0,0,123,985995,85691,24883,16753134,13058,16743,5023,6838,Tag0,unknown
1610201162209,200,-70,-1.5380859375E-5,0,0,123,985995,85691,24883,16753134,13058,16743,5023,6838,Tag0,unknown
1610201162223,200,-177,-3.8891601562500006E-5,0,0,123,985995,85691,24883,16753134,13058,16743,5023,6838,Tag0,unknown
1610201162244,200,-132,-2.900390625E-5,0,0,123,985995,85691,24883,16753134,13058,16743,5023,6838,Tag0,unknown
1610201162256,200,-202,-4.4384765625000004E-5,0,0,123,985995,85691,24883,16753134,13058,16743,5023,6838,Tag0,unknown
1610201162273,200,103,2.26318359375E-5,0,0,123,985995,85691,24883,16753134,13058,16743,5023,6838,Tag0,unknown
1610201162290,200,-139,-3.0541992187500004E-5,0,0,123,985995,85691,24883,16753134,13058,16743,5023,6838,Tag0,unknown
1610201162306,200,-66,-1.4501953125E-5,0,0,123,985995,85691,24883,16753134,13058,16743,5023,6838,Tag0,unknown
1610201162325,200,161,3.53759765625E-5,0,0,123,985995,85691,24883,16753134,13058,16743,5023,6838,Tag0,unknown
1610201162341,200,-259,-5.69091796875E-5,0,0,123,985995,85691,24883,16753134,13058,16743,5023,6838,Tag0,unknown
1610201162357,200,59,1.29638671875E-5,0,0,123,985995,85691,24883,16753134,13058,16743,5023,6838,Tag0,unknown
1610201162373,200,-29,-6.3720703125E-6,0,0,123,985995,85691,24883,16753134,13058,16743,5023,6838,Tag0,unknown
1610201162403,200,-514,-1.12939453125E-4,0,0,123,985995,85691,24883,16753134,13058,16743,5023,6838,Tag0,unknown
1610201162423,200,-284,-6.240234375E-5,0,0,123,985995,85691,24883,16753134,13058,16743,5023,6838,Tag0,unknown
1610201162433,200,-819,-1.799560546875E-4,0,0,123,985995,85691,24883,16753134,13058,16743,5023,6838,Tag0,unknown
1610201162454,200,285,6.26220703125E-5,0,0,123,985995,85691,24883,16753134,13058,16743,5023,6838,Tag0,unknown
1610201162473,200,187,4.10888671875E-5,0,0,123,985995,85691,24883,16753134,13058,16743,5023,6838,Tag0,unknown
1610201162492,200,84,1.8457031250000004E-5,0,0,123,985995,85691,24883,16753134,13058,16743,5023,6838,Tag0,unknown
1610201162506,200,-80,-1.7578125E-5,0,0,123,985995,85691,24883,16753134,13058,16743,5023,6838,Tag0,unknown
1610201162533,200,93,2.04345703125E-5,0,0,123,985995,85691,24883,16753134,13058,16743,5023,6838,Tag0,unknown
1610201162544,200,49,1.07666015625E-5,0,0,123,985995,85691,24883,16753134,13058,16743,5023,6838,Tag0,unknown
1610201162555,200,-363,-7.97607421875E-5,0,0,123,985995,85691,24883,16753134,13058,16743,5023,6838,Tag0,unknown
1610201162573,200,-363,-7.97607421875E-5,0,0,123,985995,85691,24883,16753134,13058,16743,5023,6838,Tag0,unknown
1610201162589,200,-177,-3.8891601562500006E-5,0,0,123,985995,85691,24883,16753134,13058,16743,5023,6838,Tag0,unknown
1610201162627,200,80,1.7578125E-5,0,0,123,985995,85691,24883,16753134,13058,16743,5023,6838,Tag0,unknown
1610201162639,200,68,1.4941406250000001E-5,0,0,123,985995,85691,24883,16753134,13058,16743,5023,6838,Tag0,unknown
1610201162649,200,89,1.95556640625E-5,0,0,123,985995,85691,24883,16753134,13058,16743,5023,6838,Tag0,unknown
1610201162679,200,-322,-7.0751953125E-5,0,0,123,985995,85691,24883,16753134,13058,16743,5023,6838,Tag0,unknown
1610201162689,200,-309,-6.78955078125E-5,0,0,123,985995,85691,24883,16753134,13058,16743,5023,6838,Tag0,unknown
1610201162717,200,-289,-6.35009765625E-5,0,0,123,985995,85691,24883,16753134,13058,16743,5023,6838,Tag0,unknown
1610201162727,200,332,7.294921875E-5,0,0,123,985995,85691,24883,16753134,13058,16743,5023,6838,Tag0,unknown
1610201162740,200,102,2.2412109374999998E-5,0,0,123,985995,85691,24883,16753134,13058,16743,5023,6838,Tag0,unknown
1610201162759,200,279,6.13037109375E-5,0,0,123,985995,85691,24883,16753134,13058,16743,5023,6838,Tag0,unknown
1610201162773,200,-86,-1.8896484375000003E-5,0,0,123,985995,85691,24883,16753134,13058,16743,5023,6838,Tag0,unknown
1610201162795,200,-279,-6.13037109375E-5,0,0,123,985995,85691,24883,16753134,13058,16743,5023,6838,Tag0,unknown
1610201162807,200,-279,-6.13037109375E-5,0,0,123,985995,85691,24883,16753134,13058,16743,5023,6838,Tag0,unknown
1610201162838,200,375,8.23974609375E-5,0,0,123,985995,85691,24883,16753134,13058,16743,5023,6838,Tag0,unknown
1610201162857,200,240,5.2734375E-5,0,0,123,985995,85691,24883,16753134,13058,16743,5023,6838,Tag0,unknown
1610201162873,200,263,5.7788085937500005E-5,0,0,123,985995,85691,24883,16753134,13058,16743,5023,6838,Tag0,unknown
1610201162890,200,84,1.8457031250000004E-5,0,0,123,985995,85691,24883,16753134,13058,16743,5023,6838,Tag0,unknown
1610201162916,200,-305,-6.70166015625E-5,0,0,123,985995,85691,24883,16753134,13058,16743,5023,6838,Tag0,unknown
1610201162926,200,-129,-2.8344726562500002E-5,0,0,123,985995,85691,24883,16753134,13058,16743,5023,6838,Tag0,unknown
1610201162940,200,30,6.591796875E-6,0,0,123,985995,85691,24883,16753134,13058,16743,5023,6838,Tag0,unknown
1610201162958,200,43,9.448242187500001E-6,0,0,123,985995,85691,24883,16753134,13058,16743,5023,6838,Tag0,unknown
1610201162974,200,-341,-7.492675781250002E-5,0,0,123,985995,85691,24883,16753134,13058,16743,5023,6838,Tag0,unknown
1610201162991,200,48,1.0546875E-5,0,0,123,985995,85691,24883,16753134,13058,16743,5023,6838,Tag0,unknown
1610201163007,200,117,2.5708007812499998E-5,0,0,123,985995,85691,24883,16753134,13058,16743,5023,6838,Tag0,unknown
1610201163017,200,87,1.91162109375E-5,0,0,123,985995,85691,24883,16753134,13058,16743,5023,6838,Tag0,unknown
1610201163027,200,65,1.42822265625E-5,0,0,123,985995,85691,24883,16753134,13058,16743,5023,6838,Tag0,unknown
1610201163041,200,105,2.30712890625E-5,0,0,123,985995,85691,24883,16753134,13058,16743,5023,6838,Tag0,unknown
1610201163063,200,118,2.5927734375E-5,0,0,123,985995,85691,24883,16753134,13058,16743,5023,6838,Tag0,unknown
1610201163074,200,124,2.724609375E-5,0,0,123,985995,85691,24883,16753134,13058,16743,5023,6838,Tag0,unknown
1610201163101,200,-107,-2.35107421875E-5,0,0,123,985995,85691,24883,16753134,13058,16743,5023,6838,Tag0,unknown
1610201163111,200,87,1.91162109375E-5,0,0,123,250381,66969,18276,2765,1976,6903,6186,7688,Tag0,unknown
1610201163127,200,-137,-3.0102539062499998E-5,0,0,123,250381,66969,18276,2765,1976,6903,6186,7688,Tag0,unknown
1610201163140,200,-371,-8.151855468750001E-5,0,0,123,250381,66969,18276,2765,1976,6903,6186,7688,Tag0,unknown
1610201163166,200,-297,-6.525878906250001E-5,0,0,123,250381,66969,18276,2765,1976,6903,6186,7688,Tag0,unknown
1610201163176,200,19,4.1748046875E-6,0,0,123,250381,66969,18276,2765,1976,6903,6186,7688,Tag0,unknown
1610201163204,200,5,1.0986328125E-6,0,0,123,250381,66969,18276,2765,1976,6903,6186,7688,Tag0,unknown
1610201163223,200,-286,-6.2841796875E-5,0,0,123,250381,66969,18276,2765,1976,6903,6186,7688,Tag0,unknown
1610201163233,200,-291,-6.39404296875E-5,0,0,123,250381,66969,18276,2765,1976,6903,6186,7688,Tag0,unknown
1610201163243,200,-133,-2.92236328125E-5,0,0,123,250381,66969,18276,2765,1976,6903,6186,7688,Tag0,unknown
1610201163259,200,17,3.7353515625000003E-6,0,0,123,250381,66969,18276,2765,1976,6903,6186,7688,Tag0,unknown
1610201163269,200,301,6.613769531250001E-5,0,0,123,250381,66969,18276,2765,1976,6903,6186,7688,Tag0,unknown
1610201163289,200,588,1.2919921875E-4,0,0,123,250381,66969,18276,2765,1976,6903,6186,7688,Tag0,unknown
1610201163307,200,584,1.2832031250000002E-4,0,0,123,250381,66969,18276,2765,1976,6903,6186,7688,Tag0,unknown
1610201163335,200,171,3.75732421875E-5,0,0,123,250381,66969,18276,2765,1976,6903,6186,7688,Tag0,unknown
1610201163349,200,348,7.646484375E-5,0,0,123,250381,66969,18276,2765,1976,6903,6186,7688,Tag0,unknown
1610201163359,200,-111,-2.43896484375E-5,0,0,123,250381,66969,18276,2765,1976,6903,6186,7688,Tag0,unknown
1610201163373,200,37,8.1298828125E-6,0,0,123,250381,66969,18276,2765,1976,6903,6186,7688,Tag0,unknown
1610201163395,200,-293,-6.43798828125E-5,0,0,123,250381,66969,18276,2765,1976,6903,6186,7688,Tag0,unknown
1610201163414,200,-324,-7.119140625E-5,0,0,123,250381,66969,18276,2765,1976,6903,6186,7688,Tag0,unknown
1610201163426,200,-364,-7.998046875E-5,0,0,123,250381,66969,18276,2765,1976,6903,6186,7688,Tag0,unknown
1610201163446,200,-371,-8.151855468750001E-5,0,0,123,250381,66969,18276,2765,1976,6903,6186,7688,Tag0,unknown
1610201163457,200,-268,-5.8886718750000006E-5,0,0,123,250381,66969,18276,2765,1976,6903,6186,7688,Tag0,unknown
1610201163479,200,-379,-8.32763671875E-5,0,0,123,250381,66969,18276,2765,1976,6903,6186,7688,Tag0,unknown
1610201163491,200,-354,-7.778320312500001E-5,0,0,123,250381,66969,18276,2765,1976,6903,6186,7688,Tag0,unknown
1610201163511,200,-291,-6.39404296875E-5,0,0,123,250381,66969,18276,2765,1976,6903,6186,7688,Tag0,unknown
1610201163524,200,-273,-5.998535156250001E-5,0,0,123,250381,66969,18276,2765,1976,6903,6186,7688,Tag0,unknown
1610201163540,200,19,4.1748046875E-6,0,0,123,250381,66969,18276,2765,1976,6903,6186,7688,Tag0,unknown
1610201163558,200,107,2.35107421875E-5,0,0,123,250381,66969,18276,2765,1976,6903,6186,7688,Tag0,unknown
1610201163575,200,123,2.70263671875E-5,0,0,123,250381,66969,18276,2765,1976,6903,6186,7688,Tag0,unknown
1610201163591,200,19,4.1748046875E-6,0,0,123,250381,66969,18276,2765,1976,6903,6186,7688,Tag0,unknown
1610201163611,200,75,1.64794921875E-5,0,0,123,250381,66969,18276,2765,1976,6903,6186,7688,Tag0,unknown
1610201163623,200,37,8.1298828125E-6,0,0,123,250381,66969,18276,2765,1976,6903,6186,7688,Tag0,unknown
1610201163649,200,-48,-1.0546875E-5,0,0,123,250381,66969,18276,2765,1976,6903,6186,7688,Tag0,unknown
1610201163660,200,41,9.008789062499999E-6,0,0,123,250381,66969,18276,2765,1976,6903,6186,7688,Tag0,unknown
1610201163686,200,-525,-1.153564453125E-4,0,0,123,250381,66969,18276,2765,1976,6903,6186,7688,Tag0,unknown
1610201163707,200,-257,-5.64697265625E-5,0,0,123,250381,66969,18276,2765,1976,6903,6186,7688,Tag0,unknown
1610201163727,200,321,7.053222656250001E-5,0,0,123,250381,66969,18276,2765,1976,6903,6186,7688,Tag0,unknown
1610201163740,200,187,4.10888671875E-5,0,0,123,250381,66969,18276,2765,1976,6903,6186,7688,Tag0,unknown
1610201163759,200,-77,-1.69189453125E-5,0,0,123,250381,66969,18276,2765,1976,6903,6186,7688,Tag0,unknown
1610201163774,200,-77,-1.69189453125E-5,0,0,123,250381,66969,18276,2765,1976,6903,6186,7688,Tag0,unknown
1610201163784,200,52,1.142578125E-5,0,0,123,250381,66969,18276,2765,1976,6903,6186,7688,Tag0,unknown
1610201163805,200,21,4.614257812500001E-6,0,0,123,250381,66969,18276,2765,1976,6903,6186,7688,Tag0,unknown
1610201163823,200,28,6.15234375E-6,0,0,123,250381,66969,18276,2765,1976,6903,6186,7688,Tag0,unknown
1610201163833,200,-266,-5.8447265625E-5,0,0,123,250381,66969,18276,2765,1976,6903,6186,7688,Tag0,unknown
1610201163855,200,325,7.14111328125E-5,0,0,123,250381,66969,18276,2765,1976,6903,6186,7688,Tag0,unknown
1610201163873,200,336,7.382812500000001E-5,0,0,123,250381,66969,18276,2765,1976,6903,6186,7688,Tag0,unknown
1610201163905,200,-72,-1.58203125E-5,0,0,123,250381,66969,18276,2765,1976,6903,6186,7688,Tag0,unknown
1610201163923,200,120,2.63671875E-5,0,0,123,250381,66969,18276,2765,1976,6903,6186,7688,Tag0,unknown
1610201163933,200,579,1.272216796875E-4,0,0,123,250381,66969,18276,2765,1976,6903,6186,7688,Tag0,unknown
1610201163955,200,-112,-2.4609375E-5,0,0,123,250381,66969,18276,2765,1976,6903,6186,7688,Tag0,unknown
1610201163973,200,12,2.63671875E-6,0,0,123,250381,66969,18276,2765,1976,6903,6186,7688,Tag0,unknown
1610201163983,200,-235,-5.16357421875E-5,0,0,123,250381,66969,18276,2765,1976,6903,6186,7688,Tag0,unknown
1610201163993,200,-158,-3.4716796875000005E-5,0,0,123,250381,66969,18276,2765,1976,6903,6186,7688,Tag0,unknown
1610201164007,200,-353,-7.75634765625E-5,0,0,123,250381,66969,18276,2765,1976,6903,6186,7688,Tag0,unknown
1610201164023,200,-266,-5.8447265625E-5,0,0,123,250381,66969,18276,2765,1976,6903,6186,7688,Tag0,unknown
1610201164041,200,60,1.318359375E-5,0,0,123,250381,66969,18276,2765,1976,6903,6186,7688,Tag0,unknown
1610201164067,200,-309,-6.78955078125E-5,0,0,123,250381,66969,18276,2765,1976,6903,6186,7688,Tag0,unknown
1610201164077,200,-295,-6.48193359375E-5,0,0,123,250381,66969,18276,2765,1976,6903,6186,7688,Tag0,unknown
1610201164089,200,-135,-2.96630859375E-5,0,0,123,250381,66969,18276,2765,1976,6903,6186,7688,Tag0,unknown
1610201164108,200,-84,-1.8457031250000004E-5,0,0,123,959918,251503,15480,16765331,8749,16745110,16755599,18866,Tag0,unknown
1610201164126,200,-71,-1.56005859375E-5,0,0,123,959918,251503,15480,16765331,8749,16745110,16755599,18866,Tag0,unknown
1610201164144,200,112,2.4609375E-5,0,0,123,959918,251503,15480,16765331,8749,16745110,16755599,18866,Tag0,unknown
1610201164156,200,-96,-2.109375E-5,0,0,123,959918,251503,15480,16765331,8749,16745110,16755599,18866,Tag0,unknown
1610201164179,200,118,2.5927734375E-5,0,0,123,959918,251503,15480,16765331,8749,16745110,16755599,18866,Tag0,unknown
1610201164190,200,-261,-5.73486328125E-5,0,0,123,959918,251503,15480,16765331,8749,16745110,16755599,18866,Tag0,unknown
1610201164215,200,84,1.8457031250000004E-5,0,0,123,959918,251503,15480,16765331,8749,16745110,16755599,18866,Tag0,unknown
1610201164226,200,-96,-2.109375E-5,0,0,123,959918,251503,15480,16765331,8749,16745110,16755599,18866,Tag0,unknown
1610201164236,200,-315,-6.92138671875E-5,0,0,123,959918,251503,15480,16765331,8749,16745110,16755599,18866,Tag0,unknown
1610201164246,200,-59,-1.29638671875E-5,0,0,123,959918,251503,15480,16765331,8749,16745110,16755599,18866,Tag0,unknown
1610201164258,200,-37,-8.1298828125E-6,0,0,123,959918,251503,15480,16765331,8749,16745110,16755599,18866,Tag0,unknown
1610201164273,200,-77,-1.69189453125E-5,0,0,123,959918,251503,15480,16765331,8749,16745110,16755599,18866,Tag0,unknown
1610201164298,200,41,9.008789062499999E-6,0,0,123,959918,251503,15480,16765331,8749,16745110,16755599,18866,Tag0,unknown
1610201164308,200,-36,-7.91015625E-6,0,0,123,959918,251503,15480,16765331,8749,16745110,16755599,18866,Tag0,unknown
1610201164335,200,5,1.0986328125E-6,0,0,123,959918,251503,15480,16765331,8749,16745110,16755599,18866,Tag0,unknown
1610201164356,200,75,1.64794921875E-5,0,0,123,959918,251503,15480,16765331,8749,16745110,16755599,18866,Tag0,unknown
1610201164383,200,72,1.58203125E-5,0,0,123,959918,251503,15480,16765331,8749,16745110,16755599,18866,Tag0,unknown
1610201164393,200,-84,-1.8457031250000004E-5,0,0,123,959918,251503,15480,16765331,8749,16745110,16755599,18866,Tag0,unknown
1610201164407,200,-29,-6.3720703125E-6,0,0,123,959918,251503,15480,16765331,8749,16745110,16755599,18866,Tag0,unknown
1610201164422,200,259,5.69091796875E-5,0,0,123,959918,251503,15480,16765331,8749,16745110,16755599,18866,Tag0,unknown
1610201164432,200,-58,-1.2744140625E-5,0,0,123,959918,251503,15480,16765331,8749,16745110,16755599,18866,Tag0,unknown
1610201164451,200,89,1.95556640625E-5,0,0,123,959918,251503,15480,16765331,8749,16745110,16755599,18866,Tag0,unknown
1610201164462,200,86,1.8896484375000003E-5,0,0,123,959918,251503,15480,16765331,8749,16745110,16755599,18866,Tag0,unknown
1610201164472,200,-561,-1.232666015625E-4,0,0,123,959918,251503,15480,16765331,8749,16745110,16755599,18866,Tag0,unknown
1610201164483,200,-637,-1.399658203125E-4,0,0,123,959918,251503,15480,16765331,8749,16745110,16755599,18866,Tag0,unknown
1610201164506,200,-554,-1.2172851562500001E-4,0,0,123,959918,251503,15480,16765331,8749,16745110,16755599,18866,Tag0,unknown
1610201164524,200,-205,-4.50439453125E-5,0,0,123,959918,251503,15480,16765331,8749,16745110,16755599,18866,Tag0,unknown
1610201164557,200,-173,-3.80126953125E-5,0,0,123,959918,251503,15480,16765331,8749,16745110,16755599,18866,Tag0,unknown
1610201164573,200,-343,-7.53662109375E-5,0,0,123,959918,251503,15480,16765331,8749,16745110,16755599,18866,Tag0,unknown
1610201164583,200,-162,-3.5595703125E-5,0,0,123,959918,251503,15480,16765331,8749,16745110,16755599,18866,Tag0,unknown
1610201164599,200,-80,-1.7578125E-5,0,0,123,959918,251503,15480,16765331,8749,16745110,16755599,18866,Tag0,unknown
1610201164609,200,-39,-8.5693359375E-6,0,0,123,959918,251503,15480,16765331,8749,16745110,16755599,18866,Tag0,unknown
1610201164624,200,296,6.50390625E-5,0,0,123,959918,251503,15480,16765331,8749,16745110,16755599,18866,Tag0,unknown
1610201164640,200,86,1.8896484375000003E-5,0,0,123,959918,251503,15480,16765331,8749,16745110,16755599,18866,Tag0,unknown
1610201164666,200,325,7.14111328125E-5,0,0,123,959918,251503,15480,16765331,8749,16745110,16755599,18866,Tag0,unknown
1610201164676,200,-59,-1.29638671875E-5,0,0,123,959918,251503,15480,16765331,8749,16745110,16755599,18866,Tag0,unknown
1610201164704,200,-59,-1.29638671875E-5,0,0,123,959918,251503,15480,16765331,8749,16745110,16755599,18866,Tag0,unknown
1610201164723,200,269,5.9106445312499996E-5,0,0,123,959918,251503,15480,16765331,8749,16745110,16755599,18866,Tag0,unknown
1610201164733,200,-85,-1.86767578125E-5,0,0,123,959918,251503,15480,16765331,8749,16745110,16755599,18866,Tag0,unknown
1610201164745,200,89,1.95556640625E-5,0,0,123,959918,251503,15480,16765331,8749,16745110,16755599,18866,Tag0,unknown
1610201164757,200,-75,-1.64794921875E-5,0,0,123,959918,251503,15480,16765331,8749,16745110,16755599,18866,Tag0,unknown
1610201164779,200,-315,-6.92138671875E-5,0,0,123,959918,251503,15480,16765331,8749,16745110,16755599,18866,Tag0,unknown
1610201164789,200,-333,-7.316894531249999E-5,0,0,123,959918,251503,15480,16765331,8749,16745110,16755599,18866,Tag0,unknown
1610201164799,200,-260,-5.712890625E-5,0,0,123,959918,251503,15480,16765331,8749,16745110,16755599,18866,Tag0,unknown
1610201164818,200,6,1.318359375E-6,0,0,123,959918,251503,15480,16765331,8749,16745110,16755599,18866,Tag0,unknown
1610201164828,200,-153,-3.3618164062500004E-5,0,0,123,959918,251503,15480,16765331,8749,16745110,16755599,18866,Tag0,unknown
1610201164841,200,91,1.99951171875E-5,0,0,123,959918,251503,15480,16765331,8749,16745110,16755599,18866,Tag0,unknown
1610201164861,200,183,4.02099609375E-5,0,0,123,959918,251503,15480,16765331,8749,16745110,16755599,18866,Tag0,unknown
1610201164873,200,359,7.88818359375E-5,0,0,123,959918,251503,15480,16765331,8749,16745110,16755599,18866,Tag0,unknown
1610201164895,200,265,5.82275390625E-5,0,0,123,959918,251503,15480,16765331,8749,16745110,16755599,18866,Tag0,unknown
1610201164907,200,-67,-1.4721679687500002E-5,0,0,123,959918,251503,15480,16765331,8749,16745110,16755599,18866,Tag0,unknown
1610201164917,200,-241,-5.29541015625E-5,0,0,123,959918,251503,15480,16765331,8749,16745110,16755599,18866,Tag0,unknown
1610201164933,200,-801,-1.760009765625E-4,0,0,123,959918,251503,15480,16765331,8749,16745110,16755599,18866,Tag0,unknown
1610201164943,200,-227,-4.98779296875E-5,0,0,123,959918,251503,15480,16765331,8749,16745110,16755599,18866,Tag0,unknown
1610201164967,200,-353,-7.75634765625E-5,0,0,123,959918,251503,15480,16765331,8749,16745110,16755599,18866,Tag0,unknown
1610201164977,200,-169,-3.7133789062499996E-5,0,0,123,959918,251503,15480,16765331,8749,16745110,16755599,18866,Tag0,unknown
1610201164990,200,-14,-3.076171875E-6,0,0,123,959918,251503,15480,16765331,8749,16745110,16755599,18866,Tag0,unknown
1610201165013,200,-308,-6.767578125E-5,0,0,123,959918,251503,15480,16765331,8749,16745110,16755599,18866,Tag0,unknown
1610201165023,200,122,2.6806640625E-5,0,0,123,959918,251503,15480,16765331,8749,16745110,16755599,18866,Tag0,unknown
1610201165042,200,123,2.70263671875E-5,0,0,123,959918,251503,15480,16765331,8749,16745110,16755599,18866,Tag0,unknown
1610201165057,200,-85,-1.86767578125E-5,0,0,123,959918,251503,15480,16765331,8749,16745110,16755599,18866,Tag0,unknown
1610201165079,200,-259,-5.69091796875E-5,0,0,123,959918,251503,15480,16765331,8749,16745110,16755599,18866,Tag0,unknown
1610201165090,200,-301,-6.613769531250001E-5,0,0,123,959918,251503,15480,16765331,8749,16745110,16755599,18866,Tag0,unknown
1610201165118,200,-380,-8.349609375E-5,0,0,123,307819,33879,14978,12276,11883,7734,5281,6691,Tag0,unknown
1610201165128,200,103,2.26318359375E-5,0,0,123,307819,33879,14978,12276,11883,7734,5281,6691,Tag0,unknown
1610201165182,200,-261,-5.73486328125E-5,0,0,123,307819,33879,14978,12276,11883,7734,5281,6691,Tag0,unknown
1610201165192,200,-301,-6.613769531250001E-5,0,0,123,307819,33879,14978,12276,11883,7734,5281,6691,Tag0,unknown
1610201165207,200,12,2.63671875E-6,0,0,123,307819,33879,14978,12276,11883,7734,5281,6691,Tag0,unknown
1610201165229,200,99,2.1752929687500003E-5,0,0,123,307819,33879,14978,12276,11883,7734,5281,6691,Tag0,unknown
1610201165240,200,66,1.4501953125E-5,0,0,123,307819,33879,14978,12276,11883,7734,5281,6691,Tag0,unknown
1610201165257,200,-611,-1.3425292968749999E-4,0,0,123,307819,33879,14978,12276,11883,7734,5281,6691,Tag0,unknown
1610201165280,200,-406,-8.920898437500001E-5,0,0,123,307819,33879,14978,12276,11883,7734,5281,6691,Tag0,unknown
1610201165290,200,-607,-1.3337402343750003E-4,0,0,123,307819,33879,14978,12276,11883,7734,5281,6691,Tag0,unknown
1610201165320,200,34,7.4707031250000005E-6,0,0,123,307819,33879,14978,12276,11883,7734,5281,6691,Tag0,unknown
1610201165339,200,2,4.39453125E-7,0,0,123,307819,33879,14978,12276,11883,7734,5281,6691,Tag0,unknown
1610201165349,200,-173,-3.80126953125E-5,0,0,123,307819,33879,14978,12276,11883,7734,5281,6691,Tag0,unknown
1610201165360,200,-361,-7.93212890625E-5,0,0,123,307819,33879,14978,12276,11883,7734,5281,6691,Tag0,unknown
1610201165373,200,-331,-7.272949218750001E-5,0,0,123,307819,33879,14978,12276,11883,7734,5281,6691,Tag0,unknown
1610201165395,200,54,1.1865234375000001E-5,0,0,123,307819,33879,14978,12276,11883,7734,5281,6691,Tag0,unknown
1610201165407,200,25,5.4931640625E-6,0,0,123,307819,33879,14978,12276,11883,7734,5281,6691,Tag0,unknown
1610201165417,200,800,1.7578125E-4,0,0,123,307819,33879,14978,12276,11883,7734,5281,6691,Tag0,unknown
1610201165456,200,631,1.386474609375E-4,0,0,123,307819,33879,14978,12276,11883,7734,5281,6691,Tag0,unknown
1610201165473,200,392,8.61328125E-5,0,0,123,307819,33879,14978,12276,11883,7734,5281,6691,Tag0,unknown
1610201165483,200,69,1.51611328125E-5,0,0,123,307819,33879,14978,12276,11883,7734,5281,6691,Tag0,unknown
1610201165493,200,-183,-4.02099609375E-5,0,0,123,307819,33879,14978,12276,11883,7734,5281,6691,Tag0,unknown
1610201165507,200,-136,-2.9882812500000002E-5,0,0,123,307819,33879,14978,12276,11883,7734,5281,6691,Tag0,unknown
1610201165517,200,-205,-4.50439453125E-5,0,0,123,307819,33879,14978,12276,11883,7734,5281,6691,Tag0,unknown
1610201165532,200,-334,-7.338867187500001E-5,0,0,123,307819,33879,14978,12276,11883,7734,5281,6691,Tag0,unknown
1610201165542,200,21,4.614257812500001E-6,0,0,123,307819,33879,14978,12276,11883,7734,5281,6691,Tag0,unknown
1610201165566,200,266,5.8447265625E-5,0,0,123,307819,33879,14978,12276,11883,7734,5281,6691,Tag0,unknown
1610201165576,200,40,8.7890625E-6,0,0,123,307819,33879,14978,12276,11883,7734,5281,6691,Tag0,unknown
1610201165590,200,17,3.7353515625000003E-6,0,0,123,307819,33879,14978,12276,11883,7734,5281,6691,Tag0,unknown
1610201165609,200,2,4.39453125E-7,0,0,123,307819,33879,14978,12276,11883,7734,5281,6691,Tag0,unknown
1610201165624,200,-263,-5.7788085937500005E-5,0,0,123,307819,33879,14978,12276,11883,7734,5281,6691,Tag0,unknown
1610201165645,200,-370,-8.1298828125E-5,0,0,123,307819,33879,14978,12276,11883,7734,5281,6691,Tag0,unknown
1610201165656,200,-261,-5.73486328125E-5,0,0,123,307819,33879,14978,12276,11883,7734,5281,6691,Tag0,unknown
1610201165681,200,11,2.4169921875E-6,0,0,123,307819,33879,14978,12276,11883,7734,5281,6691,Tag0,unknown
1610201165691,200,61,1.34033203125E-5,0,0,123,307819,33879,14978,12276,11883,7734,5281,6691,Tag0,unknown
1610201165715,200,-83,-1.82373046875E-5,0,0,123,307819,33879,14978,12276,11883,7734,5281,6691,Tag0,unknown
1610201165725,200,-11,-2.4169921875E-6,0,0,123,307819,33879,14978,12276,11883,7734,5281,6691,Tag0,unknown
1610201165753,200,289,6.35009765625E-5,0,0,123,307819,33879,14978,12276,11883,7734,5281,6691,Tag0,unknown
1610201165776,200,311,6.833496093750001E-5,0,0,123,307819,33879,14978,12276,11883,7734,5281,6691,Tag0,unknown
1610201165786,200,293,6.43798828125E-5,0,0,123,307819,33879,14978,12276,11883,7734,5281,6691,Tag0,unknown
1610201165810,200,93,2.04345703125E-5,0,0,123,307819,33879,14978,12276,11883,7734,5281,6691,Tag0,unknown
1610201165824,200,113,2.48291015625E-5,0,0,123,307819,33879,14978,12276,11883,7734,5281,6691,Tag0,unknown
1610201165845,200,-53,-1.1645507812500002E-5,0,0,123,307819,33879,14978,12276,11883,7734,5281,6691,Tag0,unknown
1610201165861,200,-35,-7.6904296875E-6,0,0,123,307819,33879,14978,12276,11883,7734,5281,6691,Tag0,unknown
1610201165871,200,-265,-5.82275390625E-5,0,0,123,307819,33879,14978,12276,11883,7734,5281,6691,Tag0,unknown
1610201165881,200,-127,-2.79052734375E-5,0,0,123,307819,33879,14978,12276,11883,7734,5281,6691,Tag0,unknown
1610201165891,200,-295,-6.48193359375E-5,0,0,123,307819,33879,14978,12276,11883,7734,5281,6691,Tag0,unknown
1610201165904,200,-145,-3.18603515625E-5,0,0,123,307819,33879,14978,12276,11883,7734,5281,6691,Tag0,unknown
1610201165923,200,-520,-1.142578125E-4,0,0,123,307819,33879,14978,12276,11883,7734,5281,6691,Tag0,unknown
1610201165945,200,-73,-1.6040039062500002E-5,0,0,123,307819,33879,14978,12276,11883,7734,5281,6691,Tag0,unknown
1610201165957,200,-85,-1.86767578125E-5,0,0,123,307819,33879,14978,12276,11883,7734,5281,6691,Tag0,unknown
1610201165979,200,120,2.63671875E-5,0,0,123,307819,33879,14978,12276,11883,7734,5281,6691,Tag0,unknown
1610201165991,200,-92,-2.021484375E-5,0,0,123,307819,33879,14978,12276,11883,7734,5281,6691,Tag0,unknown
1610201166001,200,-71,-1.56005859375E-5,0,0,123,307819,33879,14978,12276,11883,7734,5281,6691,Tag0,unknown
1610201166023,200,345,7.58056640625E-5,0,0,123,307819,33879,14978,12276,11883,7734,5281,6691,Tag0,unknown
1610201166040,200,-69,-1.51611328125E-5,0,0,123,307819,33879,14978,12276,11883,7734,5281,6691,Tag0,unknown
1610201166060,200,264,5.80078125E-5,0,0,123,307819,33879,14978,12276,11883,7734,5281,6691,Tag0,unknown
1610201166073,200,32,7.03125E-6,0,0,123,307819,33879,14978,12276,11883,7734,5281,6691,Tag0,unknown
1610201166094,200,96,2.109375E-5,0,0,123,307819,33879,14978,12276,11883,7734,5281,6691,Tag0,unknown
1610201166107,200,285,6.26220703125E-5,0,0,123,307819,33879,14978,12276,11883,7734,5281,6691,Tag0,unknown
1610201166142,200,299,6.56982421875E-5,0,0,123,433562,45519,18633,98032,16775819,16754293,27007,23112,Tag0,unknown
1610201166157,200,-68,-1.4941406250000001E-5,0,0,123,433562,45519,18633,98032,16775819,16754293,27007,23112,Tag0,unknown
1610201166186,200,-59,-1.29638671875E-5,0,0,123,433562,45519,18633,98032,16775819,16754293,27007,23112,Tag0,unknown
1610201166197,200,-301,-6.613769531250001E-5,0,0,123,433562,45519,18633,98032,16775819,16754293,27007,23112,Tag0,unknown
1610201166209,200,-258,-5.6689453125000004E-5,0,0,123,433562,45519,18633,98032,16775819,16754293,27007,23112,Tag0,unknown
1610201166229,200,-310,-6.8115234375E-5,0,0,123,433562,45519,18633,98032,16775819,16754293,27007,23112,Tag0,unknown
1610201166240,200,-361,-7.93212890625E-5,0,0,123,433562,45519,18633,98032,16775819,16754293,27007,23112,Tag0,unknown
1610201166257,200,-524,-1.1513671875E-4,0,0,123,433562,45519,18633,98032,16775819,16754293,27007,23112,Tag0,unknown
1610201166279,200,-311,-6.833496093750001E-5,0,0,123,433562,45519,18633,98032,16775819,16754293,27007,23112,Tag0,unknown
1610201166290,200,-203,-4.460449218750001E-5,0,0,123,433562,45519,18633,98032,16775819,16754293,27007,23112,Tag0,unknown
1610201166306,200,-276,-6.064453125E-5,0,0,123,433562,45519,18633,98032,16775819,16754293,27007,23112,Tag0,unknown
1610201166354,200,35,7.6904296875E-6,0,0,123,433562,45519,18633,98032,16775819,16754293,27007,23112,Tag0,unknown
1610201166373,200,74,1.6259765625E-5,0,0,123,433562,45519,18633,98032,16775819,16754293,27007,23112,Tag0,unknown
1610201166411,200,19,4.1748046875E-6,0,0,123,433562,45519,18633,98032,16775819,16754293,27007,23112,Tag0,unknown
1610201166423,200,121,2.6586914062500003E-5,0,0,123,433562,45519,18633,98032,16775819,16754293,27007,23112,Tag0,unknown
1610201166439,200,33,7.2509765625E-6,0,0,123,433562,45519,18633,98032,16775819,16754293,27007,23112,Tag0,unknown
1610201166460,200,256,5.625E-5,0,0,123,433562,45519,18633,98032,16775819,16754293,27007,23112,Tag0,unknown
1610201166473,200,-121,-2.6586914062500003E-5,0,0,123,433562,45519,18633,98032,16775819,16754293,27007,23112,Tag0,unknown
1610201166503,200,-128,-2.8125E-5,0,0,123,433562,45519,18633,98032,16775819,16754293,27007,23112,Tag0,unknown
1610201166522,200,-95,-2.08740234375E-5,0,0,123,433562,45519,18633,98032,16775819,16754293,27007,23112,Tag0,unknown
1610201166541,200,-74,-1.6259765625E-5,0,0,123,433562,45519,18633,98032,16775819,16754293,27007,23112,Tag0,unknown
1610201166556,200,324,7.119140625E-5,0,0,123,433562,45519,18633,98032,16775819,16754293,27007,23112,Tag0,unknown
1610201166579,200,-44,-9.66796875E-6,0,0,123,433562,45519,18633,98032,16775819,16754293,27007,23112,Tag0,unknown
1610201166590,200,371,8.151855468750001E-5,0,0,123,433562,45519,18633,98032,16775819,16754293,27007,23112,Tag0,unknown
1610201166621,200,-121,-2.6586914062500003E-5,0,0,123,433562,45519,18633,98032,16775819,16754293,27007,23112,Tag0,unknown
1610201166640,200,-84,-1.8457031250000004E-5,0,0,123,433562,45519,18633,98032,16775819,16754293,27007,23112,Tag0,unknown
1610201166657,200,37,8.1298828125E-6,0,0,123,433562,45519,18633,98032,16775819,16754293,27007,23112,Tag0,unknown
1610201166673,200,-123,-2.70263671875E-5,0,0,123,433562,45519,18633,98032,16775819,16754293,27007,23112,Tag0,unknown
1610201166683,200,-197,-4.32861328125E-5,0,0,123,433562,45519,18633,98032,16775819,16754293,27007,23112,Tag0,unknown
1610201166695,200,-342,-7.5146484375E-5,0,0,123,433562,45519,18633,98032,16775819,16754293,27007,23112,Tag0,unknown
1610201166707,200,-172,-3.7792968750000005E-5,0,0,123,433562,45519,18633,98032,16775819,16754293,27007,23112,Tag0,unknown
1610201166723,200,-585,-1.285400390625E-4,0,0,123,433562,45519,18633,98032,16775819,16754293,27007,23112,Tag0,unknown
1610201166740,200,-243,-5.33935546875E-5,0,0,123,433562,45519,18633,98032,16775819,16754293,27007,23112,Tag0,unknown
1610201166763,200,-284,-6.240234375E-5,0,0,123,433562,45519,18633,98032,16775819,16754293,27007,23112,Tag0,unknown
1610201166773,200,-285,-6.26220703125E-5,0,0,123,433562,45519,18633,98032,16775819,16754293,27007,23112,Tag0,unknown
1610201166804,200,11,2.4169921875E-6,0,0,123,433562,45519,18633,98032,16775819,16754293,27007,23112,Tag0,unknown
1610201166824,200,42,9.228515625000002E-6,0,0,123,433562,45519,18633,98032,16775819,16754293,27007,23112,Tag0,unknown
1610201166834,200,19,4.1748046875E-6,0,0,123,433562,45519,18633,98032,16775819,16754293,27007,23112,Tag0,unknown
1610201166846,200,-100,-2.197265625E-5,0,0,123,433562,45519,18633,98032,16775819,16754293,27007,23112,Tag0,unknown
1610201166857,200,-13,-2.8564453125E-6,0,0,123,433562,45519,18633,98032,16775819,16754293,27007,23112,Tag0,unknown
1610201166874,200,68,1.4941406250000001E-5,0,0,123,433562,45519,18633,98032,16775819,16754293,27007,23112,Tag0,unknown
1610201166890,200,59,1.29638671875E-5,0,0,123,433562,45519,18633,98032,16775819,16754293,27007,23112,Tag0,unknown
1610201166910,200,24,5.2734375E-6,0,0,123,433562,45519,18633,98032,16775819,16754293,27007,23112,Tag0,unknown
1610201166924,200,57,1.2524414062500001E-5,0,0,123,433562,45519,18633,98032,16775819,16754293,27007,23112,Tag0,unknown
1610201166949,200,49,1.07666015625E-5,0,0,123,433562,45519,18633,98032,16775819,16754293,27007,23112,Tag0,unknown
1610201166959,200,92,2.021484375E-5,0,0,123,433562,45519,18633,98032,16775819,16754293,27007,23112,Tag0,unknown
1610201166985,200,25,5.4931640625E-6,0,0,123,433562,45519,18633,98032,16775819,16754293,27007,23112,Tag0,unknown
1610201166995,200,109,2.39501953125E-5,0,0,123,433562,45519,18633,98032,16775819,16754293,27007,23112,Tag0,unknown
1610201167008,200,49,1.07666015625E-5,0,0,123,433562,45519,18633,98032,16775819,16754293,27007,23112,Tag0,unknown
1610201167033,200,-125,-2.74658203125E-5,0,0,123,433562,45519,18633,98032,16775819,16754293,27007,23112,Tag0,unknown
1610201167043,200,-293,-6.43798828125E-5,0,0,123,433562,45519,18633,98032,16775819,16754293,27007,23112,Tag0,unknown
1610201167056,200,53,1.1645507812500002E-5,0,0,123,433562,45519,18633,98032,16775819,16754293,27007,23112,Tag0,unknown
1610201167074,200,-104,-2.28515625E-5,0,0,123,433562,45519,18633,98032,16775819,16754293,27007,23112,Tag0,unknown
1610201167126,200,11,2.4169921875E-6,0,0,123,189568,16749966,2040,11224,1697,3268,2784,1874,Tag0,unknown
1610201167136,200,-48,-1.0546875E-5,0,0,123,189568,16749966,2040,11224,1697,3268,2784,1874,Tag0,unknown
1610201167146,200,110,2.4169921875E-5,0,0,123,189568,16749966,2040,11224,1697,3268,2784,1874,Tag0,unknown
1610201167157,200,68,1.4941406250000001E-5,0,0,123,189568,16749966,2040,11224,1697,3268,2784,1874,Tag0,unknown
1610201167173,200,-278,-6.108398437500001E-5,0,0,123,189568,16749966,2040,11224,1697,3268,2784,1874,Tag0,unknown
1610201167190,200,-111,-2.43896484375E-5,0,0,123,189568,16749966,2040,11224,1697,3268,2784,1874,Tag0,unknown
1610201167214,200,-377,-8.28369140625E-5,0,0,123,189568,16749966,2040,11224,1697,3268,2784,1874,Tag0,unknown
1610201167224,200,-336,-7.382812500000001E-5,0,0,123,189568,16749966,2040,11224,1697,3268,2784,1874,Tag0,unknown
1610201167257,200,-273,-5.998535156250001E-5,0,0,123,189568,16749966,2040,11224,1697,3268,2784,1874,Tag0,unknown
1610201167273,200,28,6.15234375E-6,0,0,123,189568,16749966,2040,11224,1697,3268,2784,1874,Tag0,unknown
1610201167283,200,-267,-5.86669921875E-5,0,0,123,189568,16749966,2040,11224,1697,3268,2784,1874,Tag0,unknown
1610201167297,200,-327,-7.18505859375E-5,0,0,123,189568,16749966,2040,11224,1697,3268,2784,1874,Tag0,unknown
1610201167308,200,-299,-6.56982421875E-5,0,0,123,189568,16749966,2040,11224,1697,3268,2784,1874,Tag0,unknown
1610201167336,200,71,1.56005859375E-5,0,0,123,189568,16749966,2040,11224,1697,3268,2784,1874,Tag0,unknown
1610201167346,200,-127,-2.79052734375E-5,0,0,123,189568,16749966,2040,11224,1697,3268,2784,1874,Tag0,unknown
1610201167357,200,85,1.86767578125E-5,0,0,123,189568,16749966,2040,11224,1697,3268,2784,1874,Tag0,unknown
1610201167374,200,123,2.70263671875E-5,0,0,123,189568,16749966,2040,11224,1697,3268,2784,1874,Tag0,unknown
1610201167390,200,66,1.4501953125E-5,0,0,123,189568,16749966,2040,11224,1697,3268,2784,1874,Tag0,unknown
1610201167409,200,-116,-2.548828125E-5,0,0,123,189568,16749966,2040,11224,1697,3268,2784,1874,Tag0,unknown
1610201167424,200,-56,-1.23046875E-5,0,0,123,189568,16749966,2040,11224,1697,3268,2784,1874,Tag0,unknown
1610201167442,200,83,1.82373046875E-5,0,0,123,189568,16749966,2040,11224,1697,3268,2784,1874,Tag0,unknown
1610201167458,200,92,2.021484375E-5,0,0,123,189568,16749966,2040,11224,1697,3268,2784,1874,Tag0,unknown
1610201167468,200,105,2.30712890625E-5,0,0,123,189568,16749966,2040,11224,1697,3268,2784,1874,Tag0,unknown
1610201167485,200,44,9.66796875E-6,0,0,123,189568,16749966,2040,11224,1697,3268,2784,1874,Tag0,unknown
1610201167495,200,27,5.9326171875000005E-6,0,0,123,189568,16749966,2040,11224,1697,3268,2784,1874,Tag0,unknown
1610201167507,200,28,6.15234375E-6,0,0,123,189568,16749966,2040,11224,1697,3268,2784,1874,Tag0,unknown
1610201167524,200,-279,-6.13037109375E-5,0,0,123,189568,16749966,2040,11224,1697,3268,2784,1874,Tag0,unknown
1610201167540,200,119,2.6147460937500004E-5,0,0,123,189568,16749966,2040,11224,1697,3268,2784,1874,Tag0,unknown
1610201167557,200,-123,-2.70263671875E-5,0,0,123,189568,16749966,2040,11224,1697,3268,2784,1874,Tag0,unknown
1610201167573,200,114,2.5048828125000003E-5,0,0,123,189568,16749966,2040,11224,1697,3268,2784,1874,Tag0,unknown
1610201167591,200,27,5.9326171875000005E-6,0,0,123,189568,16749966,2040,11224,1697,3268,2784,1874,Tag0,unknown
1610201167607,200,28,6.15234375E-6,0,0,123,189568,16749966,2040,11224,1697,3268,2784,1874,Tag0,unknown
1610201167617,200,106,2.3291015625000003E-5,0,0,123,189568,16749966,2040,11224,1697,3268,2784,1874,Tag0,unknown
1610201167630,200,75,1.64794921875E-5,0,0,123,189568,16749966,2040,11224,1697,3268,2784,1874,Tag0,unknown
1610201167641,200,113,2.48291015625E-5,0,0,123,189568,16749966,2040,11224,1697,3268,2784,1874,Tag0,unknown
1610201167663,200,-267,-5.86669921875E-5,0,0,123,189568,16749966,2040,11224,1697,3268,2784,1874,Tag0,unknown
1610201167675,200,-317,-6.96533203125E-5,0,0,123,189568,16749966,2040,11224,1697,3268,2784,1874,Tag0,unknown
1610201167685,200,-337,-7.40478515625E-5,0,0,123,189568,16749966,2040,11224,1697,3268,2784,1874,Tag0,unknown
1610201167709,200,13,2.8564453125E-6,0,0,123,189568,16749966,2040,11224,1697,3268,2784,1874,Tag0,unknown
1610201167724,200,17,3.7353515625000003E-6,0,0,123,189568,16749966,2040,11224,1697,3268,2784,1874,Tag0,unknown
1610201167744,200,-337,-7.40478515625E-5,0,0,123,189568,16749966,2040,11224,1697,3268,2784,1874,Tag0,unknown
1610201167757,200,-259,-5.69091796875E-5,0,0,123,189568,16749966,2040,11224,1697,3268,2784,1874,Tag0,unknown
1610201167767,200,77,1.69189453125E-5,0,0,123,189568,16749966,2040,11224,1697,3268,2784,1874,Tag0,unknown
1610201167777,200,4,8.7890625E-7,0,0,123,189568,16749966,2040,11224,1697,3268,2784,1874,Tag0,unknown
1610201167791,200,51,1.1206054687499999E-5,0,0,123,189568,16749966,2040,11224,1697,3268,2784,1874,Tag0,unknown
1610201167807,200,27,5.9326171875000005E-6,0,0,123,189568,16749966,2040,11224,1697,3268,2784,1874,Tag0,unknown
1610201167828,200,-299,-6.56982421875E-5,0,0,123,189568,16749966,2040,11224,1697,3268,2784,1874,Tag0,unknown
1610201167855,200,-329,-7.229003906250001E-5,0,0,123,189568,16749966,2040,11224,1697,3268,2784,1874,Tag0,unknown
1610201167874,200,-292,-6.416015625000001E-5,0,0,123,189568,16749966,2040,11224,1697,3268,2784,1874,Tag0,unknown
1610201167884,200,90,1.9775390625E-5,0,0,123,189568,16749966,2040,11224,1697,3268,2784,1874,Tag0,unknown
1610201167909,200,122,2.6806640625E-5,0,0,123,189568,16749966,2040,11224,1697,3268,2784,1874,Tag0,unknown
1610201167923,200,101,2.2192382812500002E-5,0,0,123,189568,16749966,2040,11224,1697,3268,2784,1874,Tag0,unknown
1610201167941,200,1,2.197265625E-7,0,0,123,189568,16749966,2040,11224,1697,3268,2784,1874,Tag0,unknown
1610201167974,200,-668,-1.4677734375000002E-4,0,0,123,189568,16749966,2040,11224,1697,3268,2784,1874,Tag0,unknown
1610201167989,200,-706,-1.55126953125E-4,0,0,123,189568,16749966,2040,11224,1697,3268,2784,1874,Tag0,unknown
1610201168032,200,-23,-5.0537109375E-6,0,0,123,189568,16749966,2040,11224,1697,3268,2784,1874,Tag0,unknown
1610201168042,200,-88,-1.93359375E-5,0,0,123,189568,16749966,2040,11224,1697,3268,2784,1874,Tag0,unknown
1610201168056,200,-110,-2.4169921875E-5,0,0,123,189568,16749966,2040,11224,1697,3268,2784,1874,Tag0,unknown
1610201168078,200,25,5.4931640625E-6,0,0,123,189568,16749966,2040,11224,1697,3268,2784,1874,Tag0,unknown
1610201168090,200,55,1.20849609375E-5,0,0,123,189568,16749966,2040,11224,1697,3268,2784,1874,Tag0,unknown
1610201168117,200,135,2.96630859375E-5,0,0,123,171220,16748953,1974,6485,4192,4869,4158,429,Tag0,unknown
1610201168127,200,133,2.92236328125E-5,0,0,123,171220,16748953,1974,6485,4192,4869,4158,429,Tag0,unknown
1610201168164,200,339,7.448730468750001E-5,0,0,123,171220,16748953,1974,6485,4192,4869,4158,429,Tag0,unknown
1610201168175,200,332,7.294921875E-5,0,0,123,171220,16748953,1974,6485,4192,4869,4158,429,Tag0,unknown
1610201168192,200,-20,-4.39453125E-6,0,0,123,171220,16748953,1974,6485,4192,4869,4158,429,Tag0,unknown
1610201168209,200,193,4.2407226562500005E-5,0,0,123,171220,16748953,1974,6485,4192,4869,4158,429,Tag0,unknown
1610201168219,200,233,5.1196289062500006E-5,0,0,123,171220,16748953,1974,6485,4192,4869,4158,429,Tag0,unknown
1610201168230,200,587,1.2897949218750003E-4,0,0,123,171220,16748953,1974,6485,4192,4869,4158,429,Tag0,unknown
1610201168242,200,593,1.3029785156250002E-4,0,0,123,171220,16748953,1974,6485,4192,4869,4158,429,Tag0,unknown
1610201168257,200,130,2.8564453125E-5,0,0,123,171220,16748953,1974,6485,4192,4869,4158,429,Tag0,unknown
1610201168279,200,315,6.92138671875E-5,0,0,123,171220,16748953,1974,6485,4192,4869,4158,429,Tag0,unknown
1610201168290,200,315,6.92138671875E-5,0,0,123,171220,16748953,1974,6485,4192,4869,4158,429,Tag0,unknown
1610201168312,200,171,3.75732421875E-5,0,0,123,171220,16748953,1974,6485,4192,4869,4158,429,Tag0,unknown
1610201168325,200,220,4.833984375E-5,0,0,123,171220,16748953,1974,6485,4192,4869,4158,429,Tag0,unknown
1610201168335,200,-20,-4.39453125E-6,0,0,123,171220,16748953,1974,6485,4192,4869,4158,429,Tag0,unknown
1610201168350,200,-39,-8.5693359375E-6,0,0,123,171220,16748953,1974,6485,4192,4869,4158,429,Tag0,unknown
1610201168360,200,97,2.13134765625E-5,0,0,123,171220,16748953,1974,6485,4192,4869,4158,429,Tag0,unknown
1610201168384,200,-323,-7.09716796875E-5,0,0,123,171220,16748953,1974,6485,4192,4869,4158,429,Tag0,unknown
1610201168394,200,-323,-7.09716796875E-5,0,0,123,171220,16748953,1974,6485,4192,4869,4158,429,Tag0,unknown
1610201168407,200,42,9.228515625000002E-6,0,0,123,171220,16748953,1974,6485,4192,4869,4158,429,Tag0,unknown
1610201168425,200,-91,-1.99951171875E-5,0,0,123,171220,16748953,1974,6485,4192,4869,4158,429,Tag0,unknown
1610201168441,200,315,6.92138671875E-5,0,0,123,171220,16748953,1974,6485,4192,4869,4158,429,Tag0,unknown
1610201168461,200,-71,-1.56005859375E-5,0,0,123,171220,16748953,1974,6485,4192,4869,4158,429,Tag0,unknown
1610201168476,200,-51,-1.1206054687499999E-5,0,0,123,171220,16748953,1974,6485,4192,4869,4158,429,Tag0,unknown
1610201168500,200,77,1.69189453125E-5,0,0,123,171220,16748953,1974,6485,4192,4869,4158,429,Tag0,unknown
1610201168510,200,323,7.09716796875E-5,0,0,123,171220,16748953,1974,6485,4192,4869,4158,429,Tag0,unknown
1610201168533,200,369,8.10791015625E-5,0,0,123,171220,16748953,1974,6485,4192,4869,4158,429,Tag0,unknown
1610201168543,200,196,4.306640625E-5,0,0,123,171220,16748953,1974,6485,4192,4869,4158,429,Tag0,unknown
1610201168571,200,-112,-2.4609375E-5,0,0,123,171220,16748953,1974,6485,4192,4869,4158,429,Tag0,unknown
1610201168590,200,116,2.548828125E-5,0,0,123,171220,16748953,1974,6485,4192,4869,4158,429,Tag0,unknown
1610201168608,200,-579,-1.272216796875E-4,0,0,123,171220,16748953,1974,6485,4192,4869,4158,429,Tag0,unknown
1610201168623,200,-222,-4.8779296875E-5,0,0,123,171220,16748953,1974,6485,4192,4869,4158,429,Tag0,unknown
1610201168641,200,-634,-1.39306640625E-4,0,0,123,171220,16748953,1974,6485,4192,4869,4158,429,Tag0,unknown
1610201168657,200,-418,-9.1845703125E-5,0,0,123,171220,16748953,1974,6485,4192,4869,4158,429,Tag0,unknown
1610201168679,200,-677,-1.4875488281250002E-4,0,0,123,171220,16748953,1974,6485,4192,4869,4158,429,Tag0,unknown
1610201168691,200,-875,-1.922607421875E-4,0,0,123,171220,16748953,1974,6485,4192,4869,4158,429,Tag0,unknown
1610201168701,200,-132,-2.900390625E-5,0,0,123,171220,16748953,1974,6485,4192,4869,4158,429,Tag0,unknown
1610201168714,200,-309,-6.78955078125E-5,0,0,123,171220,16748953,1974,6485,4192,4869,4158,429,Tag0,unknown
1610201168724,200,-322,-7.0751953125E-5,0,0,123,171220,16748953,1974,6485,4192,4869,4158,429,Tag0,unknown
1610201168754,200,-377,-8.28369140625E-5,0,0,123,171220,16748953,1974,6485,4192,4869,4158,429,Tag0,unknown
1610201168774,200,-305,-6.70166015625E-5,0,0,123,171220,16748953,1974,6485,4192,4869,4158,429,Tag0,unknown
1610201168793,200,-264,-5.80078125E-5,0,0,123,171220,16748953,1974,6485,4192,4869,4158,429,Tag0,unknown
1610201168807,200,37,8.1298828125E-6,0,0,123,171220,16748953,1974,6485,4192,4869,4158,429,Tag0,unknown
1610201168837,200,195,4.28466796875E-5,0,0,123,171220,16748953,1974,6485,4192,4869,4158,429,Tag0,unknown
1610201168871,200,382,8.3935546875E-5,0,0,123,171220,16748953,1974,6485,4192,4869,4158,429,Tag0,unknown
1610201168890,200,-117,-2.5708007812499998E-5,0,0,123,171220,16748953,1974,6485,4192,4869,4158,429,Tag0,unknown
1610201168908,200,-225,-4.94384765625E-5,0,0,123,171220,16748953,1974,6485,4192,4869,4158,429,Tag0,unknown
1610201168931,200,-605,-1.329345703125E-4,0,0,123,171220,16748953,1974,6485,4192,4869,4158,429,Tag0,unknown
1610201168941,200,-523,-1.149169921875E-4,0,0,123,171220,16748953,1974,6485,4192,4869,4158,429,Tag0,unknown
1610201168978,200,-149,-3.27392578125E-5,0,0,123,171220,16748953,1974,6485,4192,4869,4158,429,Tag0,unknown
1610201168991,200,-188,-4.1308593750000004E-5,0,0,123,171220,16748953,1974,6485,4192,4869,4158,429,Tag0,unknown
1610201169001,200,-181,-3.9770507812500004E-5,0,0,123,171220,16748953,1974,6485,4192,4869,4158,429,Tag0,unknown
1610201169021,200,339,7.448730468750001E-5,0,0,123,171220,16748953,1974,6485,4192,4869,4158,429,Tag0,unknown
1610201169040,200,138,3.0322265625E-5,0,0,123,171220,16748953,1974,6485,4192,4869,4158,429,Tag0,unknown
1610201169050,200,361,7.93212890625E-5,0,0,123,171220,16748953,1974,6485,4192,4869,4158,429,Tag0,unknown
1610201169060,200,277,6.0864257812500005E-5,0,0,123,171220,16748953,1974,6485,4192,4869,4158,429,Tag0,unknown
1610201169074,200,-37,-8.1298828125E-6,0,0,123,171220,16748953,1974,6485,4192,4869,4158,429,Tag0,unknown
1610201169092,200,43,9.448242187500001E-6,0,0,123,171220,16748953,1974,6485,4192,4869,4158,429,Tag0,unknown
1610201169111,200,-85,-1.86767578125E-5,0,0,123,617186,82001,15338,2722,7932,17731,8771,5296,Tag0,unknown
1610201169129,200,-7,-1.5380859375E-6,0,0,123,617186,82001,15338,2722,7932,17731,8771,5296,Tag0,unknown
1610201169140,200,-76,-1.669921875E-5,0,0,123,617186,82001,15338,2722,7932,17731,8771,5296,Tag0,unknown
1610201169150,200,121,2.6586914062500003E-5,0,0,123,617186,82001,15338,2722,7932,17731,8771,5296,Tag0,unknown
1610201169166,200,-283,-6.218261718750001E-5,0,0,123,617186,82001,15338,2722,7932,17731,8771,5296,Tag0,unknown
1610201169176,200,-295,-6.48193359375E-5,0,0,123,617186,82001,15338,2722,7932,17731,8771,5296,Tag0,unknown
1610201169206,200,65,1.42822265625E-5,0,0,123,617186,82001,15338,2722,7932,17731,8771,5296,Tag0,unknown
1610201169224,200,-323,-7.09716796875E-5,0,0,123,617186,82001,15338,2722,7932,17731,8771,5296,Tag0,unknown
1610201169245,200,-265,-5.82275390625E-5,0,0,123,617186,82001,15338,2722,7932,17731,8771,5296,Tag0,unknown
