,timestampMs,poorSignal,eegRawValue,eegRawValueVolts,attention,meditation,blinkStrength,delta,theta,alphaLow,alphaHigh,betaLow,betaHigh,gammaLow,gammaMid,tagEvent,location
0,1611472487661,51,21,4.614257812500002e-06,64,29,103,108537,10503,2161,2998,1428,5437,371,291,Tag0,unknown
1,1611472487691,51,89,1.95556640625e-05,64,29,103,108537,10503,2161,2998,1428,5437,371,291,Tag0,unknown
2,1611472487711,51,524,0.00011513671875,64,29,103,108537,10503,2161,2998,1428,5437,371,291,Tag0,unknown
3,1611472487730,51,67,1.4721679687500003e-05,64,29,103,108537,10503,2161,2998,1428,5437,371,291,Tag0,unknown
4,1611472487745,51,529,0.0001162353515625,64,29,103,108537,10503,2161,2998,1428,5437,371,291,Tag0,unknown
5,1611472487812,51,291,6.39404296875e-05,64,29,103,108537,10503,2161,2998,1428,5437,371,291,Tag0,unknown
6,1611472487828,51,293,6.43798828125e-05,64,29,103,108537,10503,2161,2998,1428,5437,371,291,Tag0,unknown
7,1611472487861,51,354,7.778320312500001e-05,64,29,103,108537,10503,2161,2998,1428,5437,371,291,Tag0,unknown
8,1611472487878,51,228,5.009765625000001e-05,64,29,103,108537,10503,2161,2998,1428,5437,371,291,Tag0,unknown
9,1611472487921,51,251,5.51513671875e-05,64,29,103,108537,10503,2161,2998,1428,5437,371,291,Tag0,unknown
10,1611472487931,51,272,5.9765625e-05,64,29,103,108537,10503,2161,2998,1428,5437,371,291,Tag0,unknown
11,1611472487981,51,277,6.086425781250001e-05,64,29,103,108537,10503,2161,2998,1428,5437,371,291,Tag0,unknown
12,1611472487995,51,-100,-2.197265625e-05,64,29,103,108537,10503,2161,2998,1428,5437,371,291,Tag0,unknown
13,1611472488042,51,73,1.6040039062500002e-05,64,29,103,108537,10503,2161,2998,1428,5437,371,291,Tag0,unknown
14,1611472488100,51,225,4.94384765625e-05,64,29,103,108537,10503,2161,2998,1428,5437,371,291,Tag0,unknown
15,1611472488112,51,209,4.59228515625e-05,64,29,103,108537,10503,2161,2998,1428,5437,371,291,Tag0,unknown
16,1611472488160,51,-89,-1.95556640625e-05,64,29,103,108537,10503,2161,2998,1428,5437,371,291,Tag0,unknown
17,1611472488178,51,-90,-1.9775390625e-05,64,29,103,108537,10503,2161,2998,1428,5437,371,291,Tag0,unknown
18,1611472488217,51,104,2.28515625e-05,64,29,103,108537,10503,2161,2998,1428,5437,371,291,Tag0,unknown
19,1611472488229,51,102,2.2412109375e-05,64,29,103,108537,10503,2161,2998,1428,5437,371,291,Tag0,unknown
20,1611472488275,51,80,1.7578125e-05,64,29,103,108537,10503,2161,2998,1428,5437,371,291,Tag0,unknown
21,1611472488295,51,69,1.51611328125e-05,64,29,103,108537,10503,2161,2998,1428,5437,371,291,Tag0,unknown
22,1611472488335,51,68,1.494140625e-05,64,29,103,108537,10503,2161,2998,1428,5437,371,291,Tag0,unknown
23,1611472488345,51,67,1.4721679687500003e-05,64,29,103,108537,10503,2161,2998,1428,5437,371,291,Tag0,unknown
24,1611472488371,51,67,1.4721679687500003e-05,64,29,103,108537,10503,2161,2998,1428,5437,371,291,Tag0,unknown
25,1611472488381,0,67,1.4721679687500003e-05,47,23,103,16754857,16745985,902,6758,5843,3083,5598,395,Tag0,unknown
26,1611472488407,0,66,1.4501953125e-05,47,23,103,16754857,16745985,902,6758,5843,3083,5598,395,Tag0,unknown
27,1611472488441,0,68,1.494140625e-05,47,23,103,16754857,16745985,902,6758,5843,3083,5598,395,Tag0,unknown
28,1611472488477,0,1791,0.0003935302734375,47,23,103,16754857,16745985,902,6758,5843,3083,5598,395,Tag0,unknown
29,1611472488511,0,1227,0.0002696044921875,47,23,103,16754857,16745985,902,6758,5843,3083,5598,395,Tag0,unknown
30,1611472488529,0,681,0.0001496337890625,47,23,103,16754857,16745985,902,6758,5843,3083,5598,395,Tag0,unknown
31,1611472488550,0,621,0.0001364501953125,47,23,103,16754857,16745985,902,6758,5843,3083,5598,395,Tag0,unknown
32,1611472488563,0,601,0.00013205566406249998,47,23,103,16754857,16745985,902,6758,5843,3083,5598,395,Tag0,unknown
33,1611472488584,0,152,3.33984375e-05,47,23,103,16754857,16745985,902,6758,5843,3083,5598,395,Tag0,unknown
34,1611472488596,0,138,3.0322265625e-05,47,23,103,16754857,16745985,902,6758,5843,3083,5598,395,Tag0,unknown
35,1611472488622,0,-2048,-0.00045,47,23,103,16754857,16745985,902,6758,5843,3083,5598,395,Tag0,unknown
36,1611472488656,0,-2048,-0.00045,47,23,103,16754857,16745985,902,6758,5843,3083,5598,395,Tag0,unknown
37,1611472488680,0,-1767,-0.0003882568359375,47,23,103,16754857,16745985,902,6758,5843,3083,5598,395,Tag0,unknown
38,1611472488697,0,-1365,-0.0002999267578125,47,23,103,16754857,16745985,902,6758,5843,3083,5598,395,Tag0,unknown
39,1611472488713,0,-658,-0.000144580078125,47,23,103,16754857,16745985,902,6758,5843,3083,5598,395,Tag0,unknown
40,1611472488745,0,-396,-8.701171875000001e-05,47,23,103,16754857,16745985,902,6758,5843,3083,5598,395,Tag0,unknown
41,1611472488779,0,-218,-4.7900390625e-05,47,23,103,16754857,16745985,902,6758,5843,3083,5598,395,Tag0,unknown
42,1611472488796,0,-372,-8.173828125e-05,47,23,103,16754857,16745985,902,6758,5843,3083,5598,395,Tag0,unknown
43,1611472488816,0,-300,-6.591796875e-05,47,23,103,16754857,16745985,902,6758,5843,3083,5598,395,Tag0,unknown
44,1611472488830,0,-298,-6.5478515625e-05,47,23,103,16754857,16745985,902,6758,5843,3083,5598,395,Tag0,unknown
45,1611472488850,0,-261,-5.73486328125e-05,47,23,103,16754857,16745985,902,6758,5843,3083,5598,395,Tag0,unknown
46,1611472488863,0,-258,-5.6689453125e-05,47,23,103,16754857,16745985,902,6758,5843,3083,5598,395,Tag0,unknown
47,1611472488899,0,37,8.1298828125e-06,47,23,103,16754857,16745985,902,6758,5843,3083,5598,395,Tag0,unknown
48,1611472488913,0,37,8.1298828125e-06,47,23,103,16754857,16745985,902,6758,5843,3083,5598,395,Tag0,unknown
49,1611472488937,0,53,1.1645507812500003e-05,47,23,103,16754857,16745985,902,6758,5843,3083,5598,395,Tag0,unknown
50,1611472488947,0,54,1.1865234375e-05,47,23,103,16754857,16745985,902,6758,5843,3083,5598,395,Tag0,unknown
51,1611472488976,0,57,1.25244140625e-05,47,23,103,16754857,16745985,902,6758,5843,3083,5598,395,Tag0,unknown
52,1611472488997,0,59,1.29638671875e-05,47,23,103,16754857,16745985,902,6758,5843,3083,5598,395,Tag0,unknown
53,1611472489015,0,61,1.34033203125e-05,47,23,103,16754857,16745985,902,6758,5843,3083,5598,395,Tag0,unknown
54,1611472489030,0,60,1.318359375e-05,47,23,103,16754857,16745985,902,6758,5843,3083,5598,395,Tag0,unknown
55,1611472489049,0,61,1.34033203125e-05,47,23,103,16754857,16745985,902,6758,5843,3083,5598,395,Tag0,unknown
56,1611472489064,0,61,1.34033203125e-05,47,23,103,16754857,16745985,902,6758,5843,3083,5598,395,Tag0,unknown
57,1611472489085,0,65,1.42822265625e-05,47,23,103,16754857,16745985,902,6758,5843,3083,5598,395,Tag0,unknown
58,1611472489097,0,65,1.42822265625e-05,47,23,103,16754857,16745985,902,6758,5843,3083,5598,395,Tag0,unknown
59,1611472489119,0,65,1.42822265625e-05,47,23,103,16754857,16745985,902,6758,5843,3083,5598,395,Tag0,unknown
60,1611472489130,0,65,1.42822265625e-05,47,23,103,16754857,16745985,902,6758,5843,3083,5598,395,Tag0,unknown
61,1611472489160,0,65,1.42822265625e-05,47,23,103,16754857,16745985,902,6758,5843,3083,5598,395,Tag0,unknown
62,1611472489194,0,65,1.42822265625e-05,47,23,103,16754857,16745985,902,6758,5843,3083,5598,395,Tag0,unknown
63,1611472489214,0,65,1.42822265625e-05,47,23,103,16754857,16745985,902,6758,5843,3083,5598,395,Tag0,unknown
64,1611472489231,0,65,1.42822265625e-05,47,23,103,16754857,16745985,902,6758,5843,3083,5598,395,Tag0,unknown
65,1611472489247,0,68,1.494140625e-05,47,23,103,16754857,16745985,902,6758,5843,3083,5598,395,Tag0,unknown
66,1611472489265,0,66,1.4501953125e-05,47,23,103,16754857,16745985,902,6758,5843,3083,5598,395,Tag0,unknown
67,1611472489281,0,66,1.4501953125e-05,47,23,103,16754857,16745985,902,6758,5843,3083,5598,395,Tag0,unknown
68,1611472489302,0,67,1.4721679687500003e-05,47,23,103,16754857,16745985,902,6758,5843,3083,5598,395,Tag0,unknown
69,1611472489314,0,66,1.4501953125e-05,47,23,103,16754857,16745985,902,6758,5843,3083,5598,395,Tag0,unknown
70,1611472489336,0,68,1.494140625e-05,47,23,103,16754857,16745985,902,6758,5843,3083,5598,395,Tag0,unknown
71,1611472489347,0,66,1.4501953125e-05,47,23,103,16754857,16745985,902,6758,5843,3083,5598,395,Tag0,unknown
72,1611472489377,51,1791,0.0003935302734375,47,23,103,674646,80182,19053,15963,29909,16758844,16746274,10621,Tag0,unknown
73,1611472489399,51,1319,0.0002898193359375,47,23,103,674646,80182,19053,15963,29909,16758844,16746274,10621,Tag0,unknown
74,1611472489431,51,154,3.3837890625e-05,47,23,103,674646,80182,19053,15963,29909,16758844,16746274,10621,Tag0,unknown
75,1611472489448,51,-61,-1.34033203125e-05,47,23,103,674646,80182,19053,15963,29909,16758844,16746274,10621,Tag0,unknown
76,1611472489489,51,1357,0.0002981689453125,47,23,103,674646,80182,19053,15963,29909,16758844,16746274,10621,Tag0,unknown
77,1611472489499,51,822,0.000180615234375,47,23,103,674646,80182,19053,15963,29909,16758844,16746274,10621,Tag0,unknown
78,1611472489546,51,-127,-2.79052734375e-05,47,23,103,674646,80182,19053,15963,29909,16758844,16746274,10621,Tag0,unknown
79,1611472489564,51,139,3.0541992187500004e-05,47,23,103,674646,80182,19053,15963,29909,16758844,16746274,10621,Tag0,unknown
80,1611472489606,51,-1365,-0.0002999267578125,47,23,103,674646,80182,19053,15963,29909,16758844,16746274,10621,Tag0,unknown
81,1611472489616,51,-1029,-0.0002260986328125,47,23,103,674646,80182,19053,15963,29909,16758844,16746274,10621,Tag0,unknown
82,1611472489664,51,-394,-8.6572265625e-05,47,23,103,674646,80182,19053,15963,29909,16758844,16746274,10621,Tag0,unknown
83,1611472489682,51,-631,-0.0001386474609375,47,23,103,674646,80182,19053,15963,29909,16758844,16746274,10621,Tag0,unknown
84,1611472489709,51,-299,-6.56982421875e-05,47,23,103,674646,80182,19053,15963,29909,16758844,16746274,10621,Tag0,unknown
85,1611472489742,51,-258,-5.6689453125e-05,47,23,103,674646,80182,19053,15963,29909,16758844,16746274,10621,Tag0,unknown
86,1611472489765,51,-265,-5.82275390625e-05,47,23,103,674646,80182,19053,15963,29909,16758844,16746274,10621,Tag0,unknown
87,1611472489787,51,6,1.318359375e-06,47,23,103,674646,80182,19053,15963,29909,16758844,16746274,10621,Tag0,unknown
88,1611472489800,51,4,8.7890625e-07,47,23,103,674646,80182,19053,15963,29909,16758844,16746274,10621,Tag0,unknown
89,1611472489841,51,26,5.712890625e-06,47,23,103,674646,80182,19053,15963,29909,16758844,16746274,10621,Tag0,unknown
90,1611472489851,51,44,9.66796875e-06,47,23,103,674646,80182,19053,15963,29909,16758844,16746274,10621,Tag0,unknown
91,1611472489901,51,55,1.20849609375e-05,47,23,103,674646,80182,19053,15963,29909,16758844,16746274,10621,Tag0,unknown
92,1611472489915,51,56,1.23046875e-05,47,23,103,674646,80182,19053,15963,29909,16758844,16746274,10621,Tag0,unknown
93,1611472489961,51,65,1.42822265625e-05,47,23,103,674646,80182,19053,15963,29909,16758844,16746274,10621,Tag0,unknown
94,1611472489982,51,71,1.56005859375e-05,47,23,103,674646,80182,19053,15963,29909,16758844,16746274,10621,Tag0,unknown
95,1611472490021,51,86,1.8896484375000006e-05,47,23,103,674646,80182,19053,15963,29909,16758844,16746274,10621,Tag0,unknown
96,1611472490032,51,-111,-2.43896484375e-05,47,23,103,674646,80182,19053,15963,29909,16758844,16746274,10621,Tag0,unknown
97,1611472490057,51,-126,-2.7685546875e-05,47,23,103,674646,80182,19053,15963,29909,16758844,16746274,10621,Tag0,unknown
98,1611472490067,51,-115,-2.52685546875e-05,47,23,103,674646,80182,19053,15963,29909,16758844,16746274,10621,Tag0,unknown
99,1611472490096,51,-51,-1.12060546875e-05,47,23,103,674646,80182,19053,15963,29909,16758844,16746274,10621,Tag0,unknown
100,1611472490133,51,116,2.548828125e-05,47,23,103,674646,80182,19053,15963,29909,16758844,16746274,10621,Tag0,unknown
101,1611472490149,51,-262,-5.7568359375e-05,47,23,103,674646,80182,19053,15963,29909,16758844,16746274,10621,Tag0,unknown
102,1611472490179,51,-51,-1.12060546875e-05,47,23,103,674646,80182,19053,15963,29909,16758844,16746274,10621,Tag0,unknown
103,1611472490199,51,29,6.3720703125e-06,47,23,103,674646,80182,19053,15963,29909,16758844,16746274,10621,Tag0,unknown
104,1611472490219,51,-72,-1.58203125e-05,47,23,103,674646,80182,19053,15963,29909,16758844,16746274,10621,Tag0,unknown
105,1611472490233,51,138,3.0322265625e-05,47,23,103,674646,80182,19053,15963,29909,16758844,16746274,10621,Tag0,unknown
106,1611472490252,51,18,3.955078125e-06,47,23,103,674646,80182,19053,15963,29909,16758844,16746274,10621,Tag0,unknown
107,1611472490266,51,-263,-5.778808593750001e-05,47,23,103,674646,80182,19053,15963,29909,16758844,16746274,10621,Tag0,unknown
108,1611472490292,51,-79,-1.7358398437500006e-05,47,23,103,674646,80182,19053,15963,29909,16758844,16746274,10621,Tag0,unknown
109,1611472490306,51,81,1.77978515625e-05,47,23,103,674646,80182,19053,15963,29909,16758844,16746274,10621,Tag0,unknown
110,1611472490316,51,-69,-1.51611328125e-05,47,23,103,674646,80182,19053,15963,29909,16758844,16746274,10621,Tag0,unknown
111,1611472490327,51,105,2.30712890625e-05,47,23,103,674646,80182,19053,15963,29909,16758844,16746274,10621,Tag0,unknown
112,1611472490340,51,7,1.5380859375e-06,47,23,103,674646,80182,19053,15963,29909,16758844,16746274,10621,Tag0,unknown
113,1611472490350,51,405,8.89892578125e-05,47,23,103,674646,80182,19053,15963,29909,16758844,16746274,10621,Tag0,unknown
114,1611472490369,51,-128,-2.8125e-05,47,23,103,674646,80182,19053,15963,29909,16758844,16746274,10621,Tag0,unknown
115,1611472490379,26,368,8.0859375e-05,47,23,103,719231,88516,16771852,139128,43300,66995,16772954,17033,Tag0,unknown
116,1611472490389,26,-15,-3.2958984375e-06,47,23,103,719231,88516,16771852,139128,43300,66995,16772954,17033,Tag0,unknown
117,1611472490402,26,264,5.80078125e-05,47,23,103,719231,88516,16771852,139128,43300,66995,16772954,17033,Tag0,unknown
118,1611472490419,26,-86,-1.8896484375000006e-05,47,23,103,719231,88516,16771852,139128,43300,66995,16772954,17033,Tag0,unknown
119,1611472490437,26,-340,-7.470703125e-05,47,23,103,719231,88516,16771852,139128,43300,66995,16772954,17033,Tag0,unknown
120,1611472490455,26,267,5.86669921875e-05,47,23,103,719231,88516,16771852,139128,43300,66995,16772954,17033,Tag0,unknown
121,1611472490465,26,257,5.64697265625e-05,47,23,103,719231,88516,16771852,139128,43300,66995,16772954,17033,Tag0,unknown
122,1611472490478,26,-78,-1.7138671875e-05,47,23,103,719231,88516,16771852,139128,43300,66995,16772954,17033,Tag0,unknown
123,1611472490488,26,311,6.833496093750001e-05,47,23,103,719231,88516,16771852,139128,43300,66995,16772954,17033,Tag0,unknown
124,1611472490512,26,276,6.064453125e-05,47,23,103,719231,88516,16771852,139128,43300,66995,16772954,17033,Tag0,unknown
125,1611472490522,26,-585,-0.0001285400390625,47,23,103,719231,88516,16771852,139128,43300,66995,16772954,17033,Tag0,unknown
126,1611472490535,26,246,5.4052734375e-05,47,23,103,719231,88516,16771852,139128,43300,66995,16772954,17033,Tag0,unknown
127,1611472490552,26,-364,-7.998046875e-05,47,23,103,719231,88516,16771852,139128,43300,66995,16772954,17033,Tag0,unknown
128,1611472490570,26,244,5.361328125e-05,47,23,103,719231,88516,16771852,139128,43300,66995,16772954,17033,Tag0,unknown
129,1611472490587,26,109,2.39501953125e-05,47,23,103,719231,88516,16771852,139128,43300,66995,16772954,17033,Tag0,unknown
130,1611472490604,26,-9,-1.9775390625e-06,47,23,103,719231,88516,16771852,139128,43300,66995,16772954,17033,Tag0,unknown
131,1611472490614,26,-39,-8.5693359375e-06,47,23,103,719231,88516,16771852,139128,43300,66995,16772954,17033,Tag0,unknown
132,1611472490624,26,-30,-6.591796875e-06,47,23,103,719231,88516,16771852,139128,43300,66995,16772954,17033,Tag0,unknown
133,1611472490639,26,89,1.95556640625e-05,47,23,103,719231,88516,16771852,139128,43300,66995,16772954,17033,Tag0,unknown
134,1611472490662,26,-55,-1.20849609375e-05,47,23,103,719231,88516,16771852,139128,43300,66995,16772954,17033,Tag0,unknown
135,1611472490672,26,293,6.43798828125e-05,47,23,103,719231,88516,16771852,139128,43300,66995,16772954,17033,Tag0,unknown
136,1611472490682,26,-337,-7.40478515625e-05,47,23,103,719231,88516,16771852,139128,43300,66995,16772954,17033,Tag0,unknown
137,1611472490692,26,121,2.6586914062500006e-05,47,23,103,719231,88516,16771852,139128,43300,66995,16772954,17033,Tag0,unknown
138,1611472490704,26,257,5.64697265625e-05,47,23,103,719231,88516,16771852,139128,43300,66995,16772954,17033,Tag0,unknown
139,1611472490731,26,373,8.19580078125e-05,47,23,103,719231,88516,16771852,139128,43300,66995,16772954,17033,Tag0,unknown
140,1611472490741,26,-140,-3.076171875e-05,47,23,103,719231,88516,16771852,139128,43300,66995,16772954,17033,Tag0,unknown
141,1611472490755,26,7,1.5380859375e-06,47,23,103,719231,88516,16771852,139128,43300,66995,16772954,17033,Tag0,unknown
142,1611472490771,26,156,3.427734375e-05,47,23,103,719231,88516,16771852,139128,43300,66995,16772954,17033,Tag0,unknown
143,1611472490786,26,182,3.9990234375e-05,47,23,103,719231,88516,16771852,139128,43300,66995,16772954,17033,Tag0,unknown
144,1611472490805,26,-210,-4.6142578125e-05,47,23,103,719231,88516,16771852,139128,43300,66995,16772954,17033,Tag0,unknown
145,1611472490819,26,-291,-6.39404296875e-05,47,23,103,719231,88516,16771852,139128,43300,66995,16772954,17033,Tag0,unknown
146,1611472490850,26,-68,-1.494140625e-05,47,23,103,719231,88516,16771852,139128,43300,66995,16772954,17033,Tag0,unknown
147,1611472490870,26,-322,-7.0751953125e-05,47,23,103,719231,88516,16771852,139128,43300,66995,16772954,17033,Tag0,unknown
148,1611472490880,26,81,1.77978515625e-05,47,23,103,719231,88516,16771852,139128,43300,66995,16772954,17033,Tag0,unknown
149,1611472490890,26,121,2.6586914062500006e-05,47,23,103,719231,88516,16771852,139128,43300,66995,16772954,17033,Tag0,unknown
150,1611472490904,26,-260,-5.712890625e-05,47,23,103,719231,88516,16771852,139128,43300,66995,16772954,17033,Tag0,unknown
151,1611472490920,26,-57,-1.25244140625e-05,47,23,103,719231,88516,16771852,139128,43300,66995,16772954,17033,Tag0,unknown
152,1611472490937,26,33,7.2509765625e-06,47,23,103,719231,88516,16771852,139128,43300,66995,16772954,17033,Tag0,unknown
153,1611472490955,26,6,1.318359375e-06,47,23,103,719231,88516,16771852,139128,43300,66995,16772954,17033,Tag0,unknown
154,1611472490971,26,268,5.888671875000001e-05,47,23,103,719231,88516,16771852,139128,43300,66995,16772954,17033,Tag0,unknown
155,1611472490987,26,229,5.03173828125e-05,47,23,103,719231,88516,16771852,139128,43300,66995,16772954,17033,Tag0,unknown
156,1611472491006,26,-238,-5.2294921875000014e-05,47,23,103,719231,88516,16771852,139128,43300,66995,16772954,17033,Tag0,unknown
157,1611472491021,26,64,1.40625e-05,47,23,103,719231,88516,16771852,139128,43300,66995,16772954,17033,Tag0,unknown
158,1611472491040,26,-15,-3.2958984375e-06,47,23,103,719231,88516,16771852,139128,43300,66995,16772954,17033,Tag0,unknown
159,1611472491054,26,-134,-2.9443359375000006e-05,47,23,103,719231,88516,16771852,139128,43300,66995,16772954,17033,Tag0,unknown
160,1611472491074,26,-531,-0.0001166748046875,47,23,103,719231,88516,16771852,139128,43300,66995,16772954,17033,Tag0,unknown
161,1611472491088,26,-372,-8.173828125e-05,47,23,103,719231,88516,16771852,139128,43300,66995,16772954,17033,Tag0,unknown
162,1611472491098,26,76,1.669921875e-05,47,23,103,719231,88516,16771852,139128,43300,66995,16772954,17033,Tag0,unknown
163,1611472491113,26,82,1.8017578125e-05,47,23,103,719231,88516,16771852,139128,43300,66995,16772954,17033,Tag0,unknown
164,1611472491123,26,278,6.108398437500001e-05,47,23,103,719231,88516,16771852,139128,43300,66995,16772954,17033,Tag0,unknown
165,1611472491139,26,43,9.4482421875e-06,47,23,103,719231,88516,16771852,139128,43300,66995,16772954,17033,Tag0,unknown
166,1611472491156,26,324,7.119140625e-05,47,23,103,719231,88516,16771852,139128,43300,66995,16772954,17033,Tag0,unknown
167,1611472491166,26,229,5.03173828125e-05,47,23,103,719231,88516,16771852,139128,43300,66995,16772954,17033,Tag0,unknown
168,1611472491189,26,75,1.64794921875e-05,47,23,103,719231,88516,16771852,139128,43300,66995,16772954,17033,Tag0,unknown
169,1611472491218,26,-444,-9.755859375e-05,47,23,103,719231,88516,16771852,139128,43300,66995,16772954,17033,Tag0,unknown
170,1611472491237,26,-235,-5.16357421875e-05,47,23,103,719231,88516,16771852,139128,43300,66995,16772954,17033,Tag0,unknown
171,1611472491256,26,-145,-3.18603515625e-05,47,23,103,719231,88516,16771852,139128,43300,66995,16772954,17033,Tag0,unknown
172,1611472491274,26,-470,-0.000103271484375,47,23,103,719231,88516,16771852,139128,43300,66995,16772954,17033,Tag0,unknown
173,1611472491288,26,67,1.4721679687500003e-05,47,23,103,719231,88516,16771852,139128,43300,66995,16772954,17033,Tag0,unknown
174,1611472491300,26,75,1.64794921875e-05,47,23,103,719231,88516,16771852,139128,43300,66995,16772954,17033,Tag0,unknown
175,1611472491326,26,138,3.0322265625e-05,47,23,103,719231,88516,16771852,139128,43300,66995,16772954,17033,Tag0,unknown
176,1611472491338,26,230,5.0537109375e-05,47,23,103,719231,88516,16771852,139128,43300,66995,16772954,17033,Tag0,unknown
177,1611472491359,26,784,0.000172265625,47,23,103,719231,88516,16771852,139128,43300,66995,16772954,17033,Tag0,unknown
178,1611472491372,26,347,7.62451171875e-05,47,23,103,719231,88516,16771852,139128,43300,66995,16772954,17033,Tag0,unknown
179,1611472491382,0,-35,-7.6904296875e-06,34,56,103,53569,16401,26194,31408,5340,11669,11105,930,Tag0,unknown
180,1611472491397,0,-43,-9.4482421875e-06,34,56,103,53569,16401,26194,31408,5340,11669,11105,930,Tag0,unknown
181,1611472491409,0,324,7.119140625e-05,34,56,103,53569,16401,26194,31408,5340,11669,11105,930,Tag0,unknown
182,1611472491430,0,32,7.03125e-06,34,56,103,53569,16401,26194,31408,5340,11669,11105,930,Tag0,unknown
183,1611472491440,0,250,5.4931640625e-05,34,56,103,53569,16401,26194,31408,5340,11669,11105,930,Tag0,unknown
184,1611472491454,0,-80,-1.7578125e-05,34,56,103,53569,16401,26194,31408,5340,11669,11105,930,Tag0,unknown
185,1611472491470,0,-173,-3.80126953125e-05,34,56,103,53569,16401,26194,31408,5340,11669,11105,930,Tag0,unknown
186,1611472491499,0,-333,-7.316894531249999e-05,34,56,103,53569,16401,26194,31408,5340,11669,11105,930,Tag0,unknown
187,1611472491523,0,-123,-2.70263671875e-05,34,56,103,53569,16401,26194,31408,5340,11669,11105,930,Tag0,unknown
188,1611472491541,0,-297,-6.525878906250001e-05,34,56,103,53569,16401,26194,31408,5340,11669,11105,930,Tag0,unknown
189,1611472491557,0,-522,-0.000114697265625,34,56,103,53569,16401,26194,31408,5340,11669,11105,930,Tag0,unknown
190,1611472491576,0,-112,-2.4609375e-05,34,56,103,53569,16401,26194,31408,5340,11669,11105,930,Tag0,unknown
191,1611472491591,0,107,2.35107421875e-05,34,56,103,53569,16401,26194,31408,5340,11669,11105,930,Tag0,unknown
192,1611472491601,0,417,9.16259765625e-05,34,56,103,53569,16401,26194,31408,5340,11669,11105,930,Tag0,unknown
193,1611472491621,0,185,4.06494140625e-05,34,56,103,53569,16401,26194,31408,5340,11669,11105,930,Tag0,unknown
194,1611472491640,0,-310,-6.8115234375e-05,34,56,103,53569,16401,26194,31408,5340,11669,11105,930,Tag0,unknown
195,1611472491657,0,-810,-0.000177978515625,34,56,103,53569,16401,26194,31408,5340,11669,11105,930,Tag0,unknown
196,1611472491674,0,-477,-0.0001048095703125,34,56,103,53569,16401,26194,31408,5340,11669,11105,930,Tag0,unknown
197,1611472491692,0,-599,-0.0001316162109375,34,56,103,53569,16401,26194,31408,5340,11669,11105,930,Tag0,unknown
198,1611472491702,0,-75,-1.64794921875e-05,34,56,103,53569,16401,26194,31408,5340,11669,11105,930,Tag0,unknown
199,1611472491717,0,-15,-3.2958984375e-06,34,56,118,53569,16401,26194,31408,5340,11669,11105,930,Tag0,unknown
200,1611472491727,0,-138,-3.0322265625e-05,34,56,118,53569,16401,26194,31408,5340,11669,11105,930,Tag0,unknown
201,1611472491745,0,-210,-4.6142578125e-05,34,56,118,53569,16401,26194,31408,5340,11669,11105,930,Tag0,unknown
202,1611472491757,0,-91,-1.99951171875e-05,34,56,118,53569,16401,26194,31408,5340,11669,11105,930,Tag0,unknown
203,1611472491767,0,73,1.6040039062500002e-05,34,56,118,53569,16401,26194,31408,5340,11669,11105,930,Tag0,unknown
204,1611472491784,0,36,7.91015625e-06,34,56,118,53569,16401,26194,31408,5340,11669,11105,930,Tag0,unknown
205,1611472491805,0,323,7.09716796875e-05,34,56,118,53569,16401,26194,31408,5340,11669,11105,930,Tag0,unknown
206,1611472491825,0,-32,-7.03125e-06,34,56,118,53569,16401,26194,31408,5340,11669,11105,930,Tag0,unknown
207,1611472491839,0,403,8.854980468749999e-05,34,56,118,53569,16401,26194,31408,5340,11669,11105,930,Tag0,unknown
208,1611472491862,0,-171,-3.75732421875e-05,34,56,118,53569,16401,26194,31408,5340,11669,11105,930,Tag0,unknown
209,1611472491875,0,264,5.80078125e-05,34,56,118,53569,16401,26194,31408,5340,11669,11105,930,Tag0,unknown
210,1611472491892,0,104,2.28515625e-05,34,56,118,53569,16401,26194,31408,5340,11669,11105,930,Tag0,unknown
211,1611472491909,0,27,5.932617187500001e-06,34,56,118,53569,16401,26194,31408,5340,11669,11105,930,Tag0,unknown
212,1611472491919,0,548,0.00012041015625,34,56,118,53569,16401,26194,31408,5340,11669,11105,930,Tag0,unknown
213,1611472492036,0,-433,-9.51416015625e-05,34,56,118,53569,16401,26194,31408,5340,11669,11105,930,Tag0,unknown
214,1611472492065,0,-252,-5.537109375e-05,34,56,118,53569,16401,26194,31408,5340,11669,11105,930,Tag0,unknown
215,1611472492075,0,0,0.0,34,56,118,53569,16401,26194,31408,5340,11669,11105,930,Tag0,unknown
216,1611472492087,0,-802,-0.00017622070312500005,34,56,118,53569,16401,26194,31408,5340,11669,11105,930,Tag0,unknown
217,1611472492108,0,-841,-0.0001847900390625,34,56,118,53569,16401,26194,31408,5340,11669,11105,930,Tag0,unknown
218,1611472492124,0,-601,-0.00013205566406249998,34,56,118,53569,16401,26194,31408,5340,11669,11105,930,Tag0,unknown
219,1611472492243,0,243,5.33935546875e-05,34,56,118,53569,16401,26194,31408,5340,11669,11105,930,Tag0,unknown
220,1611472492268,0,875,0.0001922607421875,34,56,118,53569,16401,26194,31408,5340,11669,11105,930,Tag0,unknown
221,1611472492278,0,556,0.00012216796875000002,34,56,118,53569,16401,26194,31408,5340,11669,11105,930,Tag0,unknown
222,1611472492309,0,-68,-1.494140625e-05,34,56,118,53569,16401,26194,31408,5340,11669,11105,930,Tag0,unknown
223,1611472492324,0,37,8.1298828125e-06,34,56,118,53569,16401,26194,31408,5340,11669,11105,930,Tag0,unknown
224,1611472492334,0,183,4.02099609375e-05,34,56,109,53569,16401,26194,31408,5340,11669,11105,930,Tag0,unknown
225,1611472492379,0,-51,-1.12060546875e-05,34,56,109,53569,16401,26194,31408,5340,11669,11105,930,Tag0,unknown
226,1611472492395,0,-207,-4.548339843750001e-05,34,56,109,53569,16401,26194,31408,5340,11669,11105,930,Tag0,unknown
227,1611472492405,0,-203,-4.4604492187500014e-05,34,56,109,53569,16401,26194,31408,5340,11669,11105,930,Tag0,unknown
228,1611472492453,0,27,5.932617187500001e-06,34,56,109,53569,16401,26194,31408,5340,11669,11105,930,Tag0,unknown
229,1611472492489,0,-326,-7.163085937500001e-05,34,56,109,53569,16401,26194,31408,5340,11669,11105,930,Tag0,unknown
230,1611472492499,0,309,6.78955078125e-05,34,56,109,53569,16401,26194,31408,5340,11669,11105,930,Tag0,unknown
231,1611472492509,0,-85,-1.86767578125e-05,34,56,109,53569,16401,26194,31408,5340,11669,11105,930,Tag0,unknown
232,1611472492525,0,-183,-4.02099609375e-05,34,56,109,53569,16401,26194,31408,5340,11669,11105,930,Tag0,unknown
233,1611472492535,0,369,8.10791015625e-05,34,56,109,53569,16401,26194,31408,5340,11669,11105,930,Tag0,unknown
234,1611472492548,0,-128,-2.8125e-05,30,60,109,1815982,59361,16755982,77213,16746364,16756204,18058,5115,Tag0,unknown
235,1611472492558,0,-130,-2.8564453125e-05,30,60,109,1815982,59361,16755982,77213,16746364,16756204,18058,5115,Tag0,unknown
236,1611472492568,0,-201,-4.41650390625e-05,30,60,109,1815982,59361,16755982,77213,16746364,16756204,18058,5115,Tag0,unknown
237,1611472492589,0,-135,-2.96630859375e-05,30,60,109,1815982,59361,16755982,77213,16746364,16756204,18058,5115,Tag0,unknown
238,1611472492607,0,-206,-4.5263671875e-05,30,60,109,1815982,59361,16755982,77213,16746364,16756204,18058,5115,Tag0,unknown
239,1611472492631,0,-112,-2.4609375e-05,30,60,109,1815982,59361,16755982,77213,16746364,16756204,18058,5115,Tag0,unknown
240,1611472492646,0,609,0.0001338134765625,30,60,109,1815982,59361,16755982,77213,16746364,16756204,18058,5115,Tag0,unknown
241,1611472492666,0,67,1.4721679687500003e-05,30,60,109,1815982,59361,16755982,77213,16746364,16756204,18058,5115,Tag0,unknown
242,1611472492684,0,-429,-9.42626953125e-05,30,60,109,1815982,59361,16755982,77213,16746364,16756204,18058,5115,Tag0,unknown
243,1611472492694,0,296,6.50390625e-05,30,60,109,1815982,59361,16755982,77213,16746364,16756204,18058,5115,Tag0,unknown
244,1611472492740,0,418,9.1845703125e-05,30,60,109,1815982,59361,16755982,77213,16746364,16756204,18058,5115,Tag0,unknown
245,1611472492763,0,253,5.55908203125e-05,30,60,109,1815982,59361,16755982,77213,16746364,16756204,18058,5115,Tag0,unknown
246,1611472492773,0,356,7.822265625e-05,30,60,109,1815982,59361,16755982,77213,16746364,16756204,18058,5115,Tag0,unknown
247,1611472492793,0,368,8.0859375e-05,30,60,109,1815982,59361,16755982,77213,16746364,16756204,18058,5115,Tag0,unknown
248,1611472492809,0,457,0.0001004150390625,30,60,109,1815982,59361,16755982,77213,16746364,16756204,18058,5115,Tag0,unknown
249,1611472492819,0,539,0.0001184326171875,30,60,109,1815982,59361,16755982,77213,16746364,16756204,18058,5115,Tag0,unknown
250,1611472492851,0,-74,-1.6259765625e-05,30,60,109,1815982,59361,16755982,77213,16746364,16756204,18058,5115,Tag0,unknown
251,1611472492861,0,726,0.000159521484375,30,60,109,1815982,59361,16755982,77213,16746364,16756204,18058,5115,Tag0,unknown
252,1611472492876,0,760,0.0001669921875,30,60,109,1815982,59361,16755982,77213,16746364,16756204,18058,5115,Tag0,unknown
253,1611472492911,0,753,0.00016545410156250002,30,60,109,1815982,59361,16755982,77213,16746364,16756204,18058,5115,Tag0,unknown
254,1611472492923,0,808,0.00017753906250000002,30,60,109,1815982,59361,16755982,77213,16746364,16756204,18058,5115,Tag0,unknown
255,1611472492969,0,587,0.00012897949218750005,30,60,109,1815982,59361,16755982,77213,16746364,16756204,18058,5115,Tag0,unknown
256,1611472492994,0,578,0.000127001953125,30,60,109,1815982,59361,16755982,77213,16746364,16756204,18058,5115,Tag0,unknown
257,1611472493004,0,163,3.581542968750001e-05,30,60,109,1815982,59361,16755982,77213,16746364,16756204,18058,5115,Tag0,unknown
258,1611472493014,0,-9,-1.9775390625e-06,30,60,109,1815982,59361,16755982,77213,16746364,16756204,18058,5115,Tag0,unknown
259,1611472493024,0,-260,-5.712890625e-05,30,60,109,1815982,59361,16755982,77213,16746364,16756204,18058,5115,Tag0,unknown
260,1611472493042,0,13,2.8564453125e-06,30,60,109,1815982,59361,16755982,77213,16746364,16756204,18058,5115,Tag0,unknown
261,1611472493059,0,262,5.7568359375e-05,30,60,109,1815982,59361,16755982,77213,16746364,16756204,18058,5115,Tag0,unknown
262,1611472493074,0,-43,-9.4482421875e-06,30,60,109,1815982,59361,16755982,77213,16746364,16756204,18058,5115,Tag0,unknown
263,1611472493096,0,-88,-1.93359375e-05,30,60,109,1815982,59361,16755982,77213,16746364,16756204,18058,5115,Tag0,unknown
264,1611472493107,0,-93,-2.04345703125e-05,30,60,109,1815982,59361,16755982,77213,16746364,16756204,18058,5115,Tag0,unknown
265,1611472493134,0,125,2.74658203125e-05,30,60,109,1815982,59361,16755982,77213,16746364,16756204,18058,5115,Tag0,unknown
266,1611472493149,0,123,2.70263671875e-05,30,60,109,1815982,59361,16755982,77213,16746364,16756204,18058,5115,Tag0,unknown
267,1611472493163,0,107,2.35107421875e-05,30,60,109,1815982,59361,16755982,77213,16746364,16756204,18058,5115,Tag0,unknown
268,1611472493173,0,2,4.39453125e-07,30,60,109,1815982,59361,16755982,77213,16746364,16756204,18058,5115,Tag0,unknown
269,1611472493183,0,28,6.15234375e-06,30,60,109,1815982,59361,16755982,77213,16746364,16756204,18058,5115,Tag0,unknown
270,1611472493194,0,-263,-5.778808593750001e-05,30,60,109,1815982,59361,16755982,77213,16746364,16756204,18058,5115,Tag0,unknown
271,1611472493209,0,-302,-6.6357421875e-05,30,60,109,1815982,59361,16755982,77213,16746364,16756204,18058,5115,Tag0,unknown
272,1611472493237,0,-133,-2.92236328125e-05,30,60,109,1815982,59361,16755982,77213,16746364,16756204,18058,5115,Tag0,unknown
273,1611472493259,0,-513,-0.0001127197265625,30,60,109,1815982,59361,16755982,77213,16746364,16756204,18058,5115,Tag0,unknown
274,1611472493278,0,-391,-8.591308593750001e-05,30,60,109,1815982,59361,16755982,77213,16746364,16756204,18058,5115,Tag0,unknown
275,1611472493296,0,-308,-6.767578125e-05,30,60,109,1815982,59361,16755982,77213,16746364,16756204,18058,5115,Tag0,unknown
276,1611472493306,0,-245,-5.38330078125e-05,30,60,109,1815982,59361,16755982,77213,16746364,16756204,18058,5115,Tag0,unknown
277,1611472493326,0,-850,-0.000186767578125,30,60,109,1815982,59361,16755982,77213,16746364,16756204,18058,5115,Tag0,unknown
278,1611472493346,0,-585,-0.0001285400390625,30,60,109,1815982,59361,16755982,77213,16746364,16756204,18058,5115,Tag0,unknown
279,1611472493365,0,-612,-0.00013447265625000002,30,60,109,1815982,59361,16755982,77213,16746364,16756204,18058,5115,Tag0,unknown
280,1611472493375,0,-201,-4.41650390625e-05,16,83,109,460830,85899,134670,74634,21214,20707,7706,1640,Tag0,unknown
281,1611472493397,0,-774,-0.000170068359375,16,83,109,460830,85899,134670,74634,21214,20707,7706,1640,Tag0,unknown
282,1611472493407,0,-293,-6.43798828125e-05,16,83,109,460830,85899,134670,74634,21214,20707,7706,1640,Tag0,unknown
283,1611472493424,0,-167,-3.66943359375e-05,16,83,109,460830,85899,134670,74634,21214,20707,7706,1640,Tag0,unknown
284,1611472493441,0,323,7.09716796875e-05,16,83,109,460830,85899,134670,74634,21214,20707,7706,1640,Tag0,unknown
285,1611472493458,0,219,4.81201171875e-05,16,83,109,460830,85899,134670,74634,21214,20707,7706,1640,Tag0,unknown
286,1611472493492,0,99,2.1752929687500006e-05,16,83,109,460830,85899,134670,74634,21214,20707,7706,1640,Tag0,unknown
287,1611472493510,0,369,8.10791015625e-05,16,83,109,460830,85899,134670,74634,21214,20707,7706,1640,Tag0,unknown
288,1611472493520,0,594,0.00013051757812500002,16,83,109,460830,85899,134670,74634,21214,20707,7706,1640,Tag0,unknown
289,1611472493535,0,152,3.33984375e-05,16,83,109,460830,85899,134670,74634,21214,20707,7706,1640,Tag0,unknown
290,1611472493548,0,-195,-4.28466796875e-05,16,83,109,460830,85899,134670,74634,21214,20707,7706,1640,Tag0,unknown
291,1611472493561,0,252,5.537109375e-05,16,83,109,460830,85899,134670,74634,21214,20707,7706,1640,Tag0,unknown
292,1611472493574,0,-85,-1.86767578125e-05,16,83,109,460830,85899,134670,74634,21214,20707,7706,1640,Tag0,unknown
293,1611472493595,0,-697,-0.00015314941406250002,16,83,109,460830,85899,134670,74634,21214,20707,7706,1640,Tag0,unknown
294,1611472493608,0,-601,-0.00013205566406249998,16,83,109,460830,85899,134670,74634,21214,20707,7706,1640,Tag0,unknown
295,1611472493629,0,73,1.6040039062500002e-05,16,83,109,460830,85899,134670,74634,21214,20707,7706,1640,Tag0,unknown
296,1611472493651,0,216,4.74609375e-05,16,83,109,460830,85899,134670,74634,21214,20707,7706,1640,Tag0,unknown
297,1611472493661,0,712,0.0001564453125,16,83,109,460830,85899,134670,74634,21214,20707,7706,1640,Tag0,unknown
298,1611472493671,0,474,0.000104150390625,16,83,109,460830,85899,134670,74634,21214,20707,7706,1640,Tag0,unknown
299,1611472493681,0,539,0.0001184326171875,16,83,109,460830,85899,134670,74634,21214,20707,7706,1640,Tag0,unknown
300,1611472493699,0,173,3.80126953125e-05,16,83,109,460830,85899,134670,74634,21214,20707,7706,1640,Tag0,unknown
301,1611472493709,0,162,3.5595703125e-05,16,83,109,460830,85899,134670,74634,21214,20707,7706,1640,Tag0,unknown
302,1611472493726,0,-31,-6.8115234375e-06,16,83,109,460830,85899,134670,74634,21214,20707,7706,1640,Tag0,unknown
303,1611472493744,0,-46,-1.0107421875e-05,16,83,109,460830,85899,134670,74634,21214,20707,7706,1640,Tag0,unknown
304,1611472493760,0,-69,-1.51611328125e-05,16,83,109,460830,85899,134670,74634,21214,20707,7706,1640,Tag0,unknown
305,1611472493781,0,-102,-2.2412109375e-05,16,83,109,460830,85899,134670,74634,21214,20707,7706,1640,Tag0,unknown
306,1611472493792,0,123,2.70263671875e-05,16,83,109,460830,85899,134670,74634,21214,20707,7706,1640,Tag0,unknown
307,1611472493802,0,113,2.48291015625e-05,16,83,109,460830,85899,134670,74634,21214,20707,7706,1640,Tag0,unknown
308,1611472493827,0,99,2.1752929687500006e-05,16,83,109,460830,85899,134670,74634,21214,20707,7706,1640,Tag0,unknown
309,1611472493846,0,86,1.8896484375000006e-05,16,83,109,460830,85899,134670,74634,21214,20707,7706,1640,Tag0,unknown
310,1611472493861,0,85,1.86767578125e-05,16,83,109,460830,85899,134670,74634,21214,20707,7706,1640,Tag0,unknown
311,1611472493871,0,75,1.64794921875e-05,16,83,109,460830,85899,134670,74634,21214,20707,7706,1640,Tag0,unknown
312,1611472493885,0,74,1.6259765625e-05,16,83,109,460830,85899,134670,74634,21214,20707,7706,1640,Tag0,unknown
313,1611472493895,0,-364,-7.998046875e-05,16,83,109,460830,85899,134670,74634,21214,20707,7706,1640,Tag0,unknown
314,1611472493921,0,-154,-3.3837890625e-05,16,83,109,460830,85899,134670,74634,21214,20707,7706,1640,Tag0,unknown
315,1611472493944,0,-1814,-0.000398583984375,16,83,109,460830,85899,134670,74634,21214,20707,7706,1640,Tag0,unknown
316,1611472493962,0,-2048,-0.00045,16,83,109,460830,85899,134670,74634,21214,20707,7706,1640,Tag0,unknown
317,1611472493977,0,-2048,-0.00045,16,83,109,460830,85899,134670,74634,21214,20707,7706,1640,Tag0,unknown
318,1611472493995,0,-1917,-0.0004212158203125,16,83,109,460830,85899,134670,74634,21214,20707,7706,1640,Tag0,unknown
319,1611472494013,0,-1855,-0.0004075927734375,16,83,109,460830,85899,134670,74634,21214,20707,7706,1640,Tag0,unknown
320,1611472494029,0,-1297,-0.0002849853515625,16,83,109,460830,85899,134670,74634,21214,20707,7706,1640,Tag0,unknown
321,1611472494045,0,-667,-0.0001465576171875,16,83,109,460830,85899,134670,74634,21214,20707,7706,1640,Tag0,unknown
322,1611472494060,0,-626,-0.000137548828125,16,83,109,460830,85899,134670,74634,21214,20707,7706,1640,Tag0,unknown
323,1611472494076,0,-552,-0.0001212890625,16,83,109,460830,85899,134670,74634,21214,20707,7706,1640,Tag0,unknown
324,1611472494093,0,-202,-4.4384765625e-05,16,83,109,460830,85899,134670,74634,21214,20707,7706,1640,Tag0,unknown
325,1611472494110,0,-155,-3.40576171875e-05,16,83,109,460830,85899,134670,74634,21214,20707,7706,1640,Tag0,unknown
326,1611472494120,0,-312,-6.85546875e-05,16,83,109,460830,85899,134670,74634,21214,20707,7706,1640,Tag0,unknown
327,1611472494134,0,-295,-6.48193359375e-05,16,83,109,460830,85899,134670,74634,21214,20707,7706,1640,Tag0,unknown
328,1611472494147,0,-292,-6.416015625000001e-05,16,83,109,460830,85899,134670,74634,21214,20707,7706,1640,Tag0,unknown
329,1611472494164,0,-258,-5.6689453125e-05,16,83,109,460830,85899,134670,74634,21214,20707,7706,1640,Tag0,unknown
330,1611472494177,0,0,0.0,16,83,109,460830,85899,134670,74634,21214,20707,7706,1640,Tag0,unknown
331,1611472494187,0,28,6.15234375e-06,16,83,109,460830,85899,134670,74634,21214,20707,7706,1640,Tag0,unknown
332,1611472494201,0,38,8.349609375e-06,16,83,109,460830,85899,134670,74634,21214,20707,7706,1640,Tag0,unknown
333,1611472494211,0,43,9.4482421875e-06,16,83,109,460830,85899,134670,74634,21214,20707,7706,1640,Tag0,unknown
334,1611472494235,0,49,1.07666015625e-05,16,83,109,460830,85899,134670,74634,21214,20707,7706,1640,Tag0,unknown
335,1611472494245,0,51,1.12060546875e-05,16,83,109,460830,85899,134670,74634,21214,20707,7706,1640,Tag0,unknown
336,1611472494260,0,57,1.25244140625e-05,16,83,109,460830,85899,134670,74634,21214,20707,7706,1640,Tag0,unknown
337,1611472494283,0,59,1.29638671875e-05,16,83,109,460830,85899,134670,74634,21214,20707,7706,1640,Tag0,unknown
338,1611472494309,0,59,1.29638671875e-05,16,83,109,460830,85899,134670,74634,21214,20707,7706,1640,Tag0,unknown
339,1611472494328,0,60,1.318359375e-05,16,83,109,460830,85899,134670,74634,21214,20707,7706,1640,Tag0,unknown
340,1611472494338,0,65,1.42822265625e-05,16,83,109,460830,85899,134670,74634,21214,20707,7706,1640,Tag0,unknown
341,1611472494360,51,65,1.42822265625e-05,16,83,109,148362,16750900,1199,2667,3193,3347,3898,2361,Tag0,unknown
342,1611472494388,51,65,1.42822265625e-05,16,83,109,148362,16750900,1199,2667,3193,3347,3898,2361,Tag0,unknown
343,1611472494421,51,67,1.4721679687500003e-05,16,83,109,148362,16750900,1199,2667,3193,3347,3898,2361,Tag0,unknown
344,1611472494445,51,67,1.4721679687500003e-05,16,83,109,148362,16750900,1199,2667,3193,3347,3898,2361,Tag0,unknown
345,1611472494455,51,68,1.494140625e-05,16,83,109,148362,16750900,1199,2667,3193,3347,3898,2361,Tag0,unknown
346,1611472494468,51,65,1.42822265625e-05,16,83,109,148362,16750900,1199,2667,3193,3347,3898,2361,Tag0,unknown
347,1611472494479,51,68,1.494140625e-05,16,83,109,148362,16750900,1199,2667,3193,3347,3898,2361,Tag0,unknown
348,1611472494489,51,68,1.494140625e-05,16,83,109,148362,16750900,1199,2667,3193,3347,3898,2361,Tag0,unknown
349,1611472494499,51,65,1.42822265625e-05,16,83,109,148362,16750900,1199,2667,3193,3347,3898,2361,Tag0,unknown
350,1611472494511,51,67,1.4721679687500003e-05,16,83,109,148362,16750900,1199,2667,3193,3347,3898,2361,Tag0,unknown
351,1611472494535,51,68,1.494140625e-05,16,83,109,148362,16750900,1199,2667,3193,3347,3898,2361,Tag0,unknown
352,1611472494545,51,67,1.4721679687500003e-05,16,83,109,148362,16750900,1199,2667,3193,3347,3898,2361,Tag0,unknown
353,1611472494569,51,67,1.4721679687500003e-05,16,83,109,148362,16750900,1199,2667,3193,3347,3898,2361,Tag0,unknown
354,1611472494579,51,65,1.42822265625e-05,16,83,109,148362,16750900,1199,2667,3193,3347,3898,2361,Tag0,unknown
355,1611472494595,51,67,1.4721679687500003e-05,16,83,109,148362,16750900,1199,2667,3193,3347,3898,2361,Tag0,unknown
356,1611472494605,51,66,1.4501953125e-05,16,83,109,148362,16750900,1199,2667,3193,3347,3898,2361,Tag0,unknown
357,1611472494616,51,66,1.4501953125e-05,16,83,109,148362,16750900,1199,2667,3193,3347,3898,2361,Tag0,unknown
358,1611472494626,51,67,1.4721679687500003e-05,16,83,109,148362,16750900,1199,2667,3193,3347,3898,2361,Tag0,unknown
359,1611472494640,51,66,1.4501953125e-05,16,83,109,148362,16750900,1199,2667,3193,3347,3898,2361,Tag0,unknown
360,1611472494651,51,66,1.4501953125e-05,16,83,109,148362,16750900,1199,2667,3193,3347,3898,2361,Tag0,unknown
361,1611472494663,51,66,1.4501953125e-05,16,83,109,148362,16750900,1199,2667,3193,3347,3898,2361,Tag0,unknown
362,1611472494681,51,71,1.56005859375e-05,16,83,109,148362,16750900,1199,2667,3193,3347,3898,2361,Tag0,unknown
363,1611472494694,51,66,1.4501953125e-05,16,83,109,148362,16750900,1199,2667,3193,3347,3898,2361,Tag0,unknown
364,1611472494715,51,65,1.42822265625e-05,16,83,109,148362,16750900,1199,2667,3193,3347,3898,2361,Tag0,unknown
365,1611472494729,51,66,1.4501953125e-05,16,83,109,148362,16750900,1199,2667,3193,3347,3898,2361,Tag0,unknown
366,1611472494751,51,97,2.13134765625e-05,16,83,109,148362,16750900,1199,2667,3193,3347,3898,2361,Tag0,unknown
367,1611472494762,51,58,1.2744140625e-05,16,83,109,148362,16750900,1199,2667,3193,3347,3898,2361,Tag0,unknown
368,1611472494786,51,58,1.2744140625e-05,16,83,109,148362,16750900,1199,2667,3193,3347,3898,2361,Tag0,unknown
369,1611472494796,51,82,1.8017578125e-05,16,83,109,148362,16750900,1199,2667,3193,3347,3898,2361,Tag0,unknown
370,1611472494806,51,70,1.5380859375e-05,16,83,109,148362,16750900,1199,2667,3193,3347,3898,2361,Tag0,unknown
371,1611472494816,51,61,1.34033203125e-05,16,83,109,148362,16750900,1199,2667,3193,3347,3898,2361,Tag0,unknown
372,1611472494830,51,65,1.42822265625e-05,16,83,109,148362,16750900,1199,2667,3193,3347,3898,2361,Tag0,unknown
373,1611472494846,51,-92,-2.021484375e-05,16,83,109,148362,16750900,1199,2667,3193,3347,3898,2361,Tag0,unknown
374,1611472494866,51,82,1.8017578125e-05,16,83,109,148362,16750900,1199,2667,3193,3347,3898,2361,Tag0,unknown
375,1611472494881,51,-88,-1.93359375e-05,16,83,109,148362,16750900,1199,2667,3193,3347,3898,2361,Tag0,unknown
376,1611472494891,51,55,1.20849609375e-05,16,83,109,148362,16750900,1199,2667,3193,3347,3898,2361,Tag0,unknown
377,1611472494911,51,-346,-7.6025390625e-05,16,83,109,148362,16750900,1199,2667,3193,3347,3898,2361,Tag0,unknown
378,1611472494932,51,284,6.240234375e-05,16,83,109,148362,16750900,1199,2667,3193,3347,3898,2361,Tag0,unknown
379,1611472494943,51,73,1.6040039062500002e-05,16,83,109,148362,16750900,1199,2667,3193,3347,3898,2361,Tag0,unknown
380,1611472494971,51,-132,-2.900390625e-05,16,83,109,148362,16750900,1199,2667,3193,3347,3898,2361,Tag0,unknown
381,1611472494981,51,-345,-7.58056640625e-05,16,83,109,148362,16750900,1199,2667,3193,3347,3898,2361,Tag0,unknown
382,1611472495005,51,113,2.48291015625e-05,16,83,109,148362,16750900,1199,2667,3193,3347,3898,2361,Tag0,unknown
383,1611472495015,51,-282,-6.1962890625e-05,16,83,109,148362,16750900,1199,2667,3193,3347,3898,2361,Tag0,unknown
384,1611472495030,51,19,4.1748046875e-06,16,83,109,148362,16750900,1199,2667,3193,3347,3898,2361,Tag0,unknown
385,1611472495054,51,5,1.0986328125e-06,16,83,109,148362,16750900,1199,2667,3193,3347,3898,2361,Tag0,unknown
386,1611472495064,51,-53,-1.1645507812500003e-05,16,83,109,148362,16750900,1199,2667,3193,3347,3898,2361,Tag0,unknown
387,1611472495074,51,-309,-6.78955078125e-05,16,83,109,148362,16750900,1199,2667,3193,3347,3898,2361,Tag0,unknown
388,1611472495097,51,67,1.4721679687500003e-05,16,83,109,148362,16750900,1199,2667,3193,3347,3898,2361,Tag0,unknown
389,1611472495112,51,323,7.09716796875e-05,16,83,109,148362,16750900,1199,2667,3193,3347,3898,2361,Tag0,unknown
390,1611472495134,51,1609,0.00035354003906250004,16,83,109,148362,16750900,1199,2667,3193,3347,3898,2361,Tag0,unknown
391,1611472495145,51,941,0.0002067626953125,16,83,109,148362,16750900,1199,2667,3193,3347,3898,2361,Tag0,unknown
392,1611472495164,51,-454,-9.9755859375e-05,16,83,109,148362,16750900,1199,2667,3193,3347,3898,2361,Tag0,unknown
393,1611472495174,51,-250,-5.4931640625e-05,16,83,109,148362,16750900,1199,2667,3193,3347,3898,2361,Tag0,unknown
394,1611472495185,51,-325,-7.14111328125e-05,16,83,109,148362,16750900,1199,2667,3193,3347,3898,2361,Tag0,unknown
395,1611472495207,51,-5,-1.0986328125e-06,16,83,109,148362,16750900,1199,2667,3193,3347,3898,2361,Tag0,unknown
396,1611472495227,51,380,8.349609375e-05,16,83,109,148362,16750900,1199,2667,3193,3347,3898,2361,Tag0,unknown
397,1611472495245,51,-77,-1.69189453125e-05,16,83,109,148362,16750900,1199,2667,3193,3347,3898,2361,Tag0,unknown
398,1611472495263,51,230,5.0537109375e-05,16,83,109,148362,16750900,1199,2667,3193,3347,3898,2361,Tag0,unknown
399,1611472495273,51,21,4.614257812500002e-06,16,83,109,148362,16750900,1199,2667,3193,3347,3898,2361,Tag0,unknown
400,1611472495300,51,-310,-6.8115234375e-05,16,83,109,148362,16750900,1199,2667,3193,3347,3898,2361,Tag0,unknown
401,1611472495314,51,56,1.23046875e-05,16,83,109,148362,16750900,1199,2667,3193,3347,3898,2361,Tag0,unknown
402,1611472495324,51,-37,-8.1298828125e-06,16,83,109,148362,16750900,1199,2667,3193,3347,3898,2361,Tag0,unknown
403,1611472495339,51,343,7.53662109375e-05,16,83,109,148362,16750900,1199,2667,3193,3347,3898,2361,Tag0,unknown
404,1611472495350,51,-331,-7.272949218750001e-05,16,83,109,148362,16750900,1199,2667,3193,3347,3898,2361,Tag0,unknown
405,1611472495360,25,634,0.000139306640625,16,83,109,531017,256315,120700,85136,138313,122934,26572,24935,Tag0,unknown
406,1611472495372,25,361,7.93212890625e-05,16,83,109,531017,256315,120700,85136,138313,122934,26572,24935,Tag0,unknown
407,1611472495382,25,-80,-1.7578125e-05,16,83,109,531017,256315,120700,85136,138313,122934,26572,24935,Tag0,unknown
408,1611472495408,25,265,5.82275390625e-05,16,83,109,531017,256315,120700,85136,138313,122934,26572,24935,Tag0,unknown
409,1611472495431,25,237,5.20751953125e-05,16,83,109,531017,256315,120700,85136,138313,122934,26572,24935,Tag0,unknown
410,1611472495450,25,8,1.7578125e-06,16,83,109,531017,256315,120700,85136,138313,122934,26572,24935,Tag0,unknown
411,1611472495465,25,547,0.0001201904296875,16,83,109,531017,256315,120700,85136,138313,122934,26572,24935,Tag0,unknown
412,1611472495475,25,115,2.52685546875e-05,16,83,109,531017,256315,120700,85136,138313,122934,26572,24935,Tag0,unknown
413,1611472495485,25,141,3.09814453125e-05,16,83,109,531017,256315,120700,85136,138313,122934,26572,24935,Tag0,unknown
414,1611472495501,25,3,6.591796875e-07,16,83,109,531017,256315,120700,85136,138313,122934,26572,24935,Tag0,unknown
415,1611472495511,25,903,0.0001984130859375,16,83,109,531017,256315,120700,85136,138313,122934,26572,24935,Tag0,unknown
416,1611472495523,25,-869,-0.0001909423828125,16,83,109,531017,256315,120700,85136,138313,122934,26572,24935,Tag0,unknown
417,1611472495558,25,-1101,-0.0002419189453125,16,83,109,531017,256315,120700,85136,138313,122934,26572,24935,Tag0,unknown
418,1611472495578,25,-950,-0.000208740234375,16,83,109,531017,256315,120700,85136,138313,122934,26572,24935,Tag0,unknown
419,1611472495588,25,-329,-7.229003906250001e-05,16,83,109,531017,256315,120700,85136,138313,122934,26572,24935,Tag0,unknown
420,1611472495598,25,41,9.0087890625e-06,16,83,109,531017,256315,120700,85136,138313,122934,26572,24935,Tag0,unknown
421,1611472495613,25,-343,-7.53662109375e-05,16,83,109,531017,256315,120700,85136,138313,122934,26572,24935,Tag0,unknown
422,1611472495630,25,-715,-0.0001571044921875,16,83,109,531017,256315,120700,85136,138313,122934,26572,24935,Tag0,unknown
423,1611472495646,25,-684,-0.00015029296875,16,83,109,531017,256315,120700,85136,138313,122934,26572,24935,Tag0,unknown
424,1611472495656,25,-532,-0.00011689453125,16,83,109,531017,256315,120700,85136,138313,122934,26572,24935,Tag0,unknown
425,1611472495667,25,-241,-5.29541015625e-05,16,83,109,531017,256315,120700,85136,138313,122934,26572,24935,Tag0,unknown
426,1611472495679,25,-229,-5.03173828125e-05,16,83,109,531017,256315,120700,85136,138313,122934,26572,24935,Tag0,unknown
427,1611472495701,25,-131,-2.87841796875e-05,16,83,109,531017,256315,120700,85136,138313,122934,26572,24935,Tag0,unknown
428,1611472495715,25,-378,-8.3056640625e-05,16,83,109,531017,256315,120700,85136,138313,122934,26572,24935,Tag0,unknown
429,1611472495725,25,-297,-6.525878906250001e-05,16,83,109,531017,256315,120700,85136,138313,122934,26572,24935,Tag0,unknown
430,1611472495735,25,-269,-5.91064453125e-05,16,83,109,531017,256315,120700,85136,138313,122934,26572,24935,Tag0,unknown
431,1611472495749,25,-266,-5.8447265625e-05,16,83,109,531017,256315,120700,85136,138313,122934,26572,24935,Tag0,unknown
432,1611472495774,25,17,3.7353515625e-06,16,83,109,531017,256315,120700,85136,138313,122934,26572,24935,Tag0,unknown
433,1611472495795,25,35,7.6904296875e-06,16,83,109,531017,256315,120700,85136,138313,122934,26572,24935,Tag0,unknown
434,1611472495815,25,44,9.66796875e-06,16,83,109,531017,256315,120700,85136,138313,122934,26572,24935,Tag0,unknown
435,1611472495830,25,48,1.0546875e-05,16,83,109,531017,256315,120700,85136,138313,122934,26572,24935,Tag0,unknown
436,1611472495849,25,53,1.1645507812500003e-05,16,83,109,531017,256315,120700,85136,138313,122934,26572,24935,Tag0,unknown
437,1611472495865,25,55,1.20849609375e-05,16,83,109,531017,256315,120700,85136,138313,122934,26572,24935,Tag0,unknown
438,1611472495875,25,69,1.51611328125e-05,16,83,109,531017,256315,120700,85136,138313,122934,26572,24935,Tag0,unknown
439,1611472495889,25,122,2.6806640625e-05,16,83,109,531017,256315,120700,85136,138313,122934,26572,24935,Tag0,unknown
440,1611472495900,25,-73,-1.6040039062500002e-05,16,83,109,531017,256315,120700,85136,138313,122934,26572,24935,Tag0,unknown
441,1611472495915,25,-40,-8.7890625e-06,16,83,109,531017,256315,120700,85136,138313,122934,26572,24935,Tag0,unknown
442,1611472495932,25,163,3.581542968750001e-05,16,83,109,531017,256315,120700,85136,138313,122934,26572,24935,Tag0,unknown
443,1611472495942,25,475,0.0001043701171875,16,83,109,531017,256315,120700,85136,138313,122934,26572,24935,Tag0,unknown
444,1611472495952,25,-22,-4.833984375e-06,16,83,109,531017,256315,120700,85136,138313,122934,26572,24935,Tag0,unknown
445,1611472495963,25,-16,-3.515625e-06,16,83,109,531017,256315,120700,85136,138313,122934,26572,24935,Tag0,unknown
446,1611472495979,25,345,7.58056640625e-05,16,83,109,531017,256315,120700,85136,138313,122934,26572,24935,Tag0,unknown
447,1611472495997,25,433,9.51416015625e-05,16,83,109,531017,256315,120700,85136,138313,122934,26572,24935,Tag0,unknown
448,1611472496013,25,429,9.42626953125e-05,16,83,109,531017,256315,120700,85136,138313,122934,26572,24935,Tag0,unknown
449,1611472496036,25,487,0.0001070068359375,16,83,109,531017,256315,120700,85136,138313,122934,26572,24935,Tag0,unknown
450,1611472496048,25,936,0.0002056640625,16,83,109,531017,256315,120700,85136,138313,122934,26572,24935,Tag0,unknown
451,1611472496069,25,425,9.33837890625e-05,16,83,109,531017,256315,120700,85136,138313,122934,26572,24935,Tag0,unknown
452,1611472496082,25,234,5.1416015625e-05,16,83,109,531017,256315,120700,85136,138313,122934,26572,24935,Tag0,unknown
453,1611472496092,25,1107,0.0002432373046875,16,83,109,531017,256315,120700,85136,138313,122934,26572,24935,Tag0,unknown
454,1611472496103,25,485,0.0001065673828125,16,83,109,531017,256315,120700,85136,138313,122934,26572,24935,Tag0,unknown
455,1611472496114,25,840,0.0001845703125,16,83,109,531017,256315,120700,85136,138313,122934,26572,24935,Tag0,unknown
456,1611472496139,25,407,8.94287109375e-05,16,83,109,531017,256315,120700,85136,138313,122934,26572,24935,Tag0,unknown
457,1611472496149,25,442,9.7119140625e-05,16,83,109,531017,256315,120700,85136,138313,122934,26572,24935,Tag0,unknown
458,1611472496164,25,547,0.0001201904296875,16,83,109,531017,256315,120700,85136,138313,122934,26572,24935,Tag0,unknown
459,1611472496186,25,888,0.0001951171875,16,83,109,531017,256315,120700,85136,138313,122934,26572,24935,Tag0,unknown
460,1611472496196,25,410,9.0087890625e-05,16,83,109,531017,256315,120700,85136,138313,122934,26572,24935,Tag0,unknown
461,1611472496214,25,615,0.0001351318359375,16,83,109,531017,256315,120700,85136,138313,122934,26572,24935,Tag0,unknown
462,1611472496229,25,843,0.0001852294921875,16,83,109,531017,256315,120700,85136,138313,122934,26572,24935,Tag0,unknown
463,1611472496247,25,707,0.00015534667968750002,16,83,109,531017,256315,120700,85136,138313,122934,26572,24935,Tag0,unknown
464,1611472496266,25,856,0.0001880859375,16,83,109,531017,256315,120700,85136,138313,122934,26572,24935,Tag0,unknown
465,1611472496285,25,809,0.0001777587890625,16,83,109,531017,256315,120700,85136,138313,122934,26572,24935,Tag0,unknown
466,1611472496295,25,1014,0.000222802734375,16,83,109,531017,256315,120700,85136,138313,122934,26572,24935,Tag0,unknown
467,1611472496308,25,674,0.000148095703125,16,83,109,531017,256315,120700,85136,138313,122934,26572,24935,Tag0,unknown
468,1611472496334,25,131,2.87841796875e-05,16,83,109,531017,256315,120700,85136,138313,122934,26572,24935,Tag0,unknown
469,1611472496348,25,314,6.8994140625e-05,16,83,109,531017,256315,120700,85136,138313,122934,26572,24935,Tag0,unknown
470,1611472496358,26,353,7.75634765625e-05,16,83,109,129649,94663,20156,21220,4076,9312,4537,1373,Tag0,unknown
471,1611472496374,26,107,2.35107421875e-05,16,83,109,129649,94663,20156,21220,4076,9312,4537,1373,Tag0,unknown
472,1611472496384,26,-7,-1.5380859375e-06,16,83,109,129649,94663,20156,21220,4076,9312,4537,1373,Tag0,unknown
473,1611472496404,26,314,6.8994140625e-05,16,83,109,129649,94663,20156,21220,4076,9312,4537,1373,Tag0,unknown
474,1611472496414,26,290,6.3720703125e-05,16,83,109,129649,94663,20156,21220,4076,9312,4537,1373,Tag0,unknown
475,1611472496430,26,269,5.91064453125e-05,16,83,109,129649,94663,20156,21220,4076,9312,4537,1373,Tag0,unknown
476,1611472496448,26,257,5.64697265625e-05,16,83,109,129649,94663,20156,21220,4076,9312,4537,1373,Tag0,unknown
477,1611472496464,26,-74,-1.6259765625e-05,16,83,109,129649,94663,20156,21220,4076,9312,4537,1373,Tag0,unknown
478,1611472496484,26,-117,-2.57080078125e-05,16,83,109,129649,94663,20156,21220,4076,9312,4537,1373,Tag0,unknown
479,1611472496499,26,116,2.548828125e-05,16,83,109,129649,94663,20156,21220,4076,9312,4537,1373,Tag0,unknown
480,1611472496519,26,112,2.4609375e-05,16,83,109,129649,94663,20156,21220,4076,9312,4537,1373,Tag0,unknown
481,1611472496533,26,98,2.1533203125e-05,16,83,109,129649,94663,20156,21220,4076,9312,4537,1373,Tag0,unknown
482,1611472496551,26,97,2.13134765625e-05,16,83,109,129649,94663,20156,21220,4076,9312,4537,1373,Tag0,unknown
483,1611472496567,26,-2048,-0.00045,16,83,109,129649,94663,20156,21220,4076,9312,4537,1373,Tag0,unknown
484,1611472496577,26,-2048,-0.00045,16,83,109,129649,94663,20156,21220,4076,9312,4537,1373,Tag0,unknown
485,1611472496600,26,-1714,-0.0003766113281250001,16,83,109,129649,94663,20156,21220,4076,9312,4537,1373,Tag0,unknown
486,1611472496617,26,1032,0.0002267578125,16,83,109,129649,94663,20156,21220,4076,9312,4537,1373,Tag0,unknown
487,1611472496634,26,1852,0.00040693359375,16,83,109,129649,94663,20156,21220,4076,9312,4537,1373,Tag0,unknown
488,1611472496653,26,1791,0.0003935302734375,16,83,109,129649,94663,20156,21220,4076,9312,4537,1373,Tag0,unknown
489,1611472496665,26,1790,0.000393310546875,16,83,109,129649,94663,20156,21220,4076,9312,4537,1373,Tag0,unknown
490,1611472496686,26,-2048,-0.00045,16,83,109,129649,94663,20156,21220,4076,9312,4537,1373,Tag0,unknown
491,1611472496698,26,-2048,-0.00045,16,83,109,129649,94663,20156,21220,4076,9312,4537,1373,Tag0,unknown
492,1611472496724,26,-2048,-0.00045,16,83,109,129649,94663,20156,21220,4076,9312,4537,1373,Tag0,unknown
493,1611472496736,26,-2048,-0.00045,16,83,109,129649,94663,20156,21220,4076,9312,4537,1373,Tag0,unknown
494,1611472496746,26,-1429,-0.0003139892578125001,16,83,109,129649,94663,20156,21220,4076,9312,4537,1373,Tag0,unknown
495,1611472496756,26,-1001,-0.0002199462890625,16,83,109,129649,94663,20156,21220,4076,9312,4537,1373,Tag0,unknown
496,1611472496767,26,-1144,-0.0002513671875,16,83,109,129649,94663,20156,21220,4076,9312,4537,1373,Tag0,unknown
497,1611472496783,26,-667,-0.0001465576171875,16,83,109,129649,94663,20156,21220,4076,9312,4537,1373,Tag0,unknown
498,1611472496797,26,-565,-0.0001241455078125,16,83,109,129649,94663,20156,21220,4076,9312,4537,1373,Tag0,unknown
499,1611472496814,26,-233,-5.119628906250001e-05,16,83,109,129649,94663,20156,21220,4076,9312,4537,1373,Tag0,unknown
500,1611472496832,26,-173,-3.80126953125e-05,16,83,109,129649,94663,20156,21220,4076,9312,4537,1373,Tag0,unknown
501,1611472496848,26,-380,-8.349609375e-05,16,83,109,129649,94663,20156,21220,4076,9312,4537,1373,Tag0,unknown
502,1611472496866,26,-337,-7.40478515625e-05,16,83,109,129649,94663,20156,21220,4076,9312,4537,1373,Tag0,unknown
503,1611472496885,26,-315,-6.92138671875e-05,16,83,109,129649,94663,20156,21220,4076,9312,4537,1373,Tag0,unknown
504,1611472496895,26,-261,-5.73486328125e-05,16,83,109,129649,94663,20156,21220,4076,9312,4537,1373,Tag0,unknown
505,1611472496939,26,17,3.7353515625e-06,16,83,109,129649,94663,20156,21220,4076,9312,4537,1373,Tag0,unknown
506,1611472496949,26,10,2.197265625e-06,16,83,109,129649,94663,20156,21220,4076,9312,4537,1373,Tag0,unknown
507,1611472497007,26,39,8.5693359375e-06,16,83,109,129649,94663,20156,21220,4076,9312,4537,1373,Tag0,unknown
508,1611472497017,26,35,7.6904296875e-06,16,83,109,129649,94663,20156,21220,4076,9312,4537,1373,Tag0,unknown
509,1611472497075,26,-102,-2.2412109375e-05,16,83,109,129649,94663,20156,21220,4076,9312,4537,1373,Tag0,unknown
510,1611472497085,26,83,1.82373046875e-05,16,83,109,129649,94663,20156,21220,4076,9312,4537,1373,Tag0,unknown
511,1611472497144,26,264,5.80078125e-05,16,83,109,129649,94663,20156,21220,4076,9312,4537,1373,Tag0,unknown
512,1611472497154,26,340,7.470703125e-05,16,83,109,129649,94663,20156,21220,4076,9312,4537,1373,Tag0,unknown
513,1611472497209,26,257,5.64697265625e-05,16,83,109,129649,94663,20156,21220,4076,9312,4537,1373,Tag0,unknown
514,1611472497219,26,349,7.668457031250001e-05,16,83,109,129649,94663,20156,21220,4076,9312,4537,1373,Tag0,unknown
515,1611472497280,26,553,0.0001215087890625,16,83,109,129649,94663,20156,21220,4076,9312,4537,1373,Tag0,unknown
516,1611472497302,26,784,0.000172265625,16,83,109,129649,94663,20156,21220,4076,9312,4537,1373,Tag0,unknown
517,1611472497312,26,757,0.0001663330078125,16,83,109,129649,94663,20156,21220,4076,9312,4537,1373,Tag0,unknown
518,1611472497351,26,841,0.0001847900390625,16,83,109,129649,94663,20156,21220,4076,9312,4537,1373,Tag0,unknown
519,1611472497416,26,844,0.00018544921875,16,83,109,129649,94663,20156,21220,4076,9312,4537,1373,Tag0,unknown
520,1611472497439,26,913,0.0002006103515625,16,83,109,129649,94663,20156,21220,4076,9312,4537,1373,Tag0,unknown
521,1611472497449,26,1063,0.0002335693359375,16,83,109,129649,94663,20156,21220,4076,9312,4537,1373,Tag0,unknown
522,1611472497461,26,1129,0.0002480712890625,16,83,109,129649,94663,20156,21220,4076,9312,4537,1373,Tag0,unknown
523,1611472497471,26,964,0.00021181640625,16,83,109,129649,94663,20156,21220,4076,9312,4537,1373,Tag0,unknown
524,1611472497481,26,861,0.0001891845703125,16,83,109,129649,94663,20156,21220,4076,9312,4537,1373,Tag0,unknown
525,1611472497491,26,317,6.96533203125e-05,16,83,109,129649,94663,20156,21220,4076,9312,4537,1373,Tag0,unknown
526,1611472497501,26,-60,-1.318359375e-05,16,83,109,129649,94663,20156,21220,4076,9312,4537,1373,Tag0,unknown
527,1611472497511,51,805,0.0001768798828125,16,83,109,967595,16772824,12701,18758,21451,13794,5370,8040,Tag0,unknown
528,1611472497521,51,809,0.0001777587890625,16,83,109,967595,16772824,12701,18758,21451,13794,5370,8040,Tag0,unknown
529,1611472497531,51,133,2.92236328125e-05,16,83,109,967595,16772824,12701,18758,21451,13794,5370,8040,Tag0,unknown
530,1611472497553,51,202,4.4384765625e-05,16,83,109,967595,16772824,12701,18758,21451,13794,5370,8040,Tag0,unknown
531,1611472497566,51,-307,-6.74560546875e-05,16,83,109,967595,16772824,12701,18758,21451,13794,5370,8040,Tag0,unknown
532,1611472497587,51,-162,-3.5595703125e-05,16,83,109,967595,16772824,12701,18758,21451,13794,5370,8040,Tag0,unknown
533,1611472497600,51,257,5.64697265625e-05,16,83,109,967595,16772824,12701,18758,21451,13794,5370,8040,Tag0,unknown
534,1611472497610,51,272,5.9765625e-05,16,83,109,967595,16772824,12701,18758,21451,13794,5370,8040,Tag0,unknown
535,1611472497626,51,57,1.25244140625e-05,16,83,109,967595,16772824,12701,18758,21451,13794,5370,8040,Tag0,unknown
536,1611472497636,51,203,4.4604492187500014e-05,16,83,109,967595,16772824,12701,18758,21451,13794,5370,8040,Tag0,unknown
537,1611472497659,51,-293,-6.43798828125e-05,16,83,109,967595,16772824,12701,18758,21451,13794,5370,8040,Tag0,unknown
538,1611472497669,51,56,1.23046875e-05,16,83,109,967595,16772824,12701,18758,21451,13794,5370,8040,Tag0,unknown
539,1611472497679,51,-334,-7.338867187500001e-05,16,83,109,967595,16772824,12701,18758,21451,13794,5370,8040,Tag0,unknown
540,1611472497689,51,-126,-2.7685546875e-05,16,83,109,967595,16772824,12701,18758,21451,13794,5370,8040,Tag0,unknown
541,1611472497701,51,-331,-7.272949218750001e-05,16,83,109,967595,16772824,12701,18758,21451,13794,5370,8040,Tag0,unknown
542,1611472497718,51,285,6.26220703125e-05,16,83,109,967595,16772824,12701,18758,21451,13794,5370,8040,Tag0,unknown
543,1611472497736,51,-122,-2.6806640625e-05,16,83,109,967595,16772824,12701,18758,21451,13794,5370,8040,Tag0,unknown
544,1611472497752,51,160,3.515625e-05,16,83,109,967595,16772824,12701,18758,21451,13794,5370,8040,Tag0,unknown
545,1611472497762,51,-45,-9.8876953125e-06,16,83,109,967595,16772824,12701,18758,21451,13794,5370,8040,Tag0,unknown
546,1611472497783,51,-77,-1.69189453125e-05,16,83,109,967595,16772824,12701,18758,21451,13794,5370,8040,Tag0,unknown
547,1611472497804,51,-6,-1.318359375e-06,16,83,109,967595,16772824,12701,18758,21451,13794,5370,8040,Tag0,unknown
548,1611472497816,51,-123,-2.70263671875e-05,16,83,109,967595,16772824,12701,18758,21451,13794,5370,8040,Tag0,unknown
549,1611472497860,51,85,1.86767578125e-05,16,83,109,967595,16772824,12701,18758,21451,13794,5370,8040,Tag0,unknown
550,1611472497870,51,330,7.2509765625e-05,16,83,109,967595,16772824,12701,18758,21451,13794,5370,8040,Tag0,unknown
551,1611472497885,51,285,6.26220703125e-05,16,83,109,967595,16772824,12701,18758,21451,13794,5370,8040,Tag0,unknown
552,1611472497895,51,-77,-1.69189453125e-05,16,83,109,967595,16772824,12701,18758,21451,13794,5370,8040,Tag0,unknown
553,1611472497905,51,1,2.197265625e-07,16,83,109,967595,16772824,12701,18758,21451,13794,5370,8040,Tag0,unknown
554,1611472497915,51,-20,-4.39453125e-06,16,83,109,967595,16772824,12701,18758,21451,13794,5370,8040,Tag0,unknown
555,1611472497926,51,-547,-0.0001201904296875,16,83,109,967595,16772824,12701,18758,21451,13794,5370,8040,Tag0,unknown
556,1611472497938,51,-305,-6.70166015625e-05,16,83,109,967595,16772824,12701,18758,21451,13794,5370,8040,Tag0,unknown
557,1611472497950,51,-404,-8.876953125000001e-05,16,83,109,967595,16772824,12701,18758,21451,13794,5370,8040,Tag0,unknown
558,1611472497973,51,-1133,-0.0002489501953125,16,83,109,967595,16772824,12701,18758,21451,13794,5370,8040,Tag0,unknown
559,1611472497984,51,-458,-0.000100634765625,16,83,109,967595,16772824,12701,18758,21451,13794,5370,8040,Tag0,unknown
560,1611472498000,51,-1837,-0.0004036376953125,16,83,109,967595,16772824,12701,18758,21451,13794,5370,8040,Tag0,unknown
561,1611472498022,51,-2133,-0.0004686767578125,16,83,109,967595,16772824,12701,18758,21451,13794,5370,8040,Tag0,unknown
562,1611472498039,51,305,6.70166015625e-05,16,83,109,967595,16772824,12701,18758,21451,13794,5370,8040,Tag0,unknown
563,1611472498055,51,541,0.0001188720703125,16,83,109,967595,16772824,12701,18758,21451,13794,5370,8040,Tag0,unknown
564,1611472498071,51,497,0.0001092041015625,16,83,109,967595,16772824,12701,18758,21451,13794,5370,8040,Tag0,unknown
565,1611472498081,51,-921,-0.0002023681640625,16,83,109,967595,16772824,12701,18758,21451,13794,5370,8040,Tag0,unknown
566,1611472498101,51,-196,-4.306640625e-05,16,83,109,967595,16772824,12701,18758,21451,13794,5370,8040,Tag0,unknown
567,1611472498121,51,-817,-0.00017951660156250002,16,83,109,967595,16772824,12701,18758,21451,13794,5370,8040,Tag0,unknown
568,1611472498138,51,-994,-0.000218408203125,16,83,109,967595,16772824,12701,18758,21451,13794,5370,8040,Tag0,unknown
569,1611472498148,51,839,0.0001843505859375,16,83,109,967595,16772824,12701,18758,21451,13794,5370,8040,Tag0,unknown
570,1611472498158,51,790,0.000173583984375,16,83,109,967595,16772824,12701,18758,21451,13794,5370,8040,Tag0,unknown
571,1611472498168,51,1049,0.0002304931640625,16,83,109,967595,16772824,12701,18758,21451,13794,5370,8040,Tag0,unknown
572,1611472498192,51,1092,0.00023994140625000006,16,83,109,967595,16772824,12701,18758,21451,13794,5370,8040,Tag0,unknown
573,1611472498202,51,605,0.0001329345703125,16,83,109,967595,16772824,12701,18758,21451,13794,5370,8040,Tag0,unknown
574,1611472498218,51,377,8.28369140625e-05,16,83,109,967595,16772824,12701,18758,21451,13794,5370,8040,Tag0,unknown
575,1611472498238,51,602,0.000132275390625,16,83,109,967595,16772824,12701,18758,21451,13794,5370,8040,Tag0,unknown
576,1611472498254,51,489,0.0001074462890625,16,83,109,967595,16772824,12701,18758,21451,13794,5370,8040,Tag0,unknown
577,1611472498272,51,357,7.844238281250001e-05,16,83,109,967595,16772824,12701,18758,21451,13794,5370,8040,Tag0,unknown
578,1611472498287,51,241,5.29541015625e-05,16,83,109,967595,16772824,12701,18758,21451,13794,5370,8040,Tag0,unknown
579,1611472498297,51,-55,-1.20849609375e-05,16,83,109,967595,16772824,12701,18758,21451,13794,5370,8040,Tag0,unknown
580,1611472498307,51,346,7.6025390625e-05,16,83,109,967595,16772824,12701,18758,21451,13794,5370,8040,Tag0,unknown
581,1611472498321,51,-27,-5.932617187500001e-06,16,83,109,967595,16772824,12701,18758,21451,13794,5370,8040,Tag0,unknown
582,1611472498337,26,-601,-0.00013205566406249998,16,83,109,593448,16753766,15521,18473,11162,21372,9704,3015,Tag0,unknown
583,1611472498352,26,-139,-3.0541992187500004e-05,16,83,109,593448,16753766,15521,18473,11162,21372,9704,3015,Tag0,unknown
584,1611472498368,26,-343,-7.53662109375e-05,16,83,109,593448,16753766,15521,18473,11162,21372,9704,3015,Tag0,unknown
585,1611472498386,26,-550,-0.000120849609375,16,83,109,593448,16753766,15521,18473,11162,21372,9704,3015,Tag0,unknown
586,1611472498403,26,265,5.82275390625e-05,16,83,109,593448,16753766,15521,18473,11162,21372,9704,3015,Tag0,unknown
587,1611472498413,26,-262,-5.7568359375e-05,16,83,109,593448,16753766,15521,18473,11162,21372,9704,3015,Tag0,unknown
588,1611472498423,26,547,0.0001201904296875,16,83,109,593448,16753766,15521,18473,11162,21372,9704,3015,Tag0,unknown
589,1611472498434,26,281,6.17431640625e-05,16,83,109,593448,16753766,15521,18473,11162,21372,9704,3015,Tag0,unknown
590,1611472498453,26,-169,-3.71337890625e-05,16,83,109,593448,16753766,15521,18473,11162,21372,9704,3015,Tag0,unknown
591,1611472498470,26,-273,-5.9985351562500014e-05,16,83,109,593448,16753766,15521,18473,11162,21372,9704,3015,Tag0,unknown
592,1611472498480,26,273,5.9985351562500014e-05,16,83,109,593448,16753766,15521,18473,11162,21372,9704,3015,Tag0,unknown
593,1611472498495,26,-11,-2.4169921875e-06,16,83,109,593448,16753766,15521,18473,11162,21372,9704,3015,Tag0,unknown
594,1611472498505,26,293,6.43798828125e-05,16,83,109,593448,16753766,15521,18473,11162,21372,9704,3015,Tag0,unknown
595,1611472498528,26,181,3.97705078125e-05,16,83,109,593448,16753766,15521,18473,11162,21372,9704,3015,Tag0,unknown
596,1611472498541,26,-39,-8.5693359375e-06,16,83,109,593448,16753766,15521,18473,11162,21372,9704,3015,Tag0,unknown
597,1611472498551,26,-194,-4.2626953125e-05,16,83,109,593448,16753766,15521,18473,11162,21372,9704,3015,Tag0,unknown
598,1611472498561,26,-132,-2.900390625e-05,16,83,109,593448,16753766,15521,18473,11162,21372,9704,3015,Tag0,unknown
599,1611472498571,26,-317,-6.96533203125e-05,16,83,109,593448,16753766,15521,18473,11162,21372,9704,3015,Tag0,unknown
600,1611472498586,26,285,6.26220703125e-05,16,83,109,593448,16753766,15521,18473,11162,21372,9704,3015,Tag0,unknown
601,1611472498604,26,48,1.0546875e-05,16,83,109,593448,16753766,15521,18473,11162,21372,9704,3015,Tag0,unknown
602,1611472498620,26,74,1.6259765625e-05,16,83,109,593448,16753766,15521,18473,11162,21372,9704,3015,Tag0,unknown
603,1611472498630,26,-411,-9.03076171875e-05,16,83,109,593448,16753766,15521,18473,11162,21372,9704,3015,Tag0,unknown
604,1611472498654,26,-826,-0.000181494140625,16,83,109,593448,16753766,15521,18473,11162,21372,9704,3015,Tag0,unknown
605,1611472498670,26,-679,-0.0001491943359375,16,83,109,593448,16753766,15521,18473,11162,21372,9704,3015,Tag0,unknown
606,1611472498680,26,-300,-6.591796875e-05,16,83,109,593448,16753766,15521,18473,11162,21372,9704,3015,Tag0,unknown
607,1611472498690,26,-515,-0.0001131591796875,16,83,109,593448,16753766,15521,18473,11162,21372,9704,3015,Tag0,unknown
608,1611472498706,26,117,2.57080078125e-05,16,83,109,593448,16753766,15521,18473,11162,21372,9704,3015,Tag0,unknown
609,1611472498721,26,19,4.1748046875e-06,16,83,109,593448,16753766,15521,18473,11162,21372,9704,3015,Tag0,unknown
610,1611472498734,26,-225,-4.94384765625e-05,16,83,109,593448,16753766,15521,18473,11162,21372,9704,3015,Tag0,unknown
611,1611472498757,26,-129,-2.83447265625e-05,16,83,109,593448,16753766,15521,18473,11162,21372,9704,3015,Tag0,unknown
612,1611472498768,26,-24,-5.2734375e-06,16,83,109,593448,16753766,15521,18473,11162,21372,9704,3015,Tag0,unknown
613,1611472498792,26,307,6.74560546875e-05,16,83,109,593448,16753766,15521,18473,11162,21372,9704,3015,Tag0,unknown
614,1611472498807,26,49,1.07666015625e-05,16,83,109,593448,16753766,15521,18473,11162,21372,9704,3015,Tag0,unknown
615,1611472498817,26,307,6.74560546875e-05,16,83,109,593448,16753766,15521,18473,11162,21372,9704,3015,Tag0,unknown
616,1611472498828,26,183,4.02099609375e-05,16,83,109,593448,16753766,15521,18473,11162,21372,9704,3015,Tag0,unknown
617,1611472498839,26,261,5.73486328125e-05,16,83,109,593448,16753766,15521,18473,11162,21372,9704,3015,Tag0,unknown
618,1611472498854,26,393,8.63525390625e-05,16,83,109,593448,16753766,15521,18473,11162,21372,9704,3015,Tag0,unknown
619,1611472498871,26,182,3.9990234375e-05,16,83,109,593448,16753766,15521,18473,11162,21372,9704,3015,Tag0,unknown
620,1611472498888,26,820,0.00018017578125,16,83,109,593448,16753766,15521,18473,11162,21372,9704,3015,Tag0,unknown
621,1611472498904,26,-69,-1.51611328125e-05,16,83,109,593448,16753766,15521,18473,11162,21372,9704,3015,Tag0,unknown
622,1611472498920,26,17,3.7353515625e-06,16,83,109,593448,16753766,15521,18473,11162,21372,9704,3015,Tag0,unknown
623,1611472498937,26,-378,-8.3056640625e-05,16,83,109,593448,16753766,15521,18473,11162,21372,9704,3015,Tag0,unknown
624,1611472498952,26,-603,-0.00013249511718750002,16,83,109,593448,16753766,15521,18473,11162,21372,9704,3015,Tag0,unknown
625,1611472498982,26,-8,-1.7578125e-06,16,83,109,593448,16753766,15521,18473,11162,21372,9704,3015,Tag0,unknown
626,1611472498992,26,121,2.6586914062500006e-05,16,83,109,593448,16753766,15521,18473,11162,21372,9704,3015,Tag0,unknown
627,1611472499019,26,-634,-0.000139306640625,16,83,109,593448,16753766,15521,18473,11162,21372,9704,3015,Tag0,unknown
628,1611472499038,26,-340,-7.470703125e-05,16,83,109,593448,16753766,15521,18473,11162,21372,9704,3015,Tag0,unknown
629,1611472499048,26,299,6.56982421875e-05,16,83,109,593448,16753766,15521,18473,11162,21372,9704,3015,Tag0,unknown
630,1611472499060,26,-68,-1.494140625e-05,16,83,109,593448,16753766,15521,18473,11162,21372,9704,3015,Tag0,unknown
631,1611472499070,26,130,2.8564453125e-05,16,83,109,593448,16753766,15521,18473,11162,21372,9704,3015,Tag0,unknown
632,1611472499088,26,12,2.63671875e-06,16,83,109,593448,16753766,15521,18473,11162,21372,9704,3015,Tag0,unknown
633,1611472499104,26,152,3.33984375e-05,16,83,109,593448,16753766,15521,18473,11162,21372,9704,3015,Tag0,unknown
634,1611472499114,26,377,8.28369140625e-05,16,83,109,593448,16753766,15521,18473,11162,21372,9704,3015,Tag0,unknown
635,1611472499140,26,138,3.0322265625e-05,16,83,109,593448,16753766,15521,18473,11162,21372,9704,3015,Tag0,unknown
636,1611472499157,26,-41,-9.0087890625e-06,16,83,109,593448,16753766,15521,18473,11162,21372,9704,3015,Tag0,unknown
637,1611472499167,26,513,0.0001127197265625,16,83,109,593448,16753766,15521,18473,11162,21372,9704,3015,Tag0,unknown
638,1611472499180,26,343,7.53662109375e-05,16,83,109,593448,16753766,15521,18473,11162,21372,9704,3015,Tag0,unknown
639,1611472499190,26,539,0.0001184326171875,16,83,109,593448,16753766,15521,18473,11162,21372,9704,3015,Tag0,unknown
640,1611472499210,26,-346,-7.6025390625e-05,16,83,109,593448,16753766,15521,18473,11162,21372,9704,3015,Tag0,unknown
641,1611472499221,26,341,7.492675781250003e-05,16,83,109,593448,16753766,15521,18473,11162,21372,9704,3015,Tag0,unknown
642,1611472499237,26,-523,-0.0001149169921875,16,83,109,593448,16753766,15521,18473,11162,21372,9704,3015,Tag0,unknown
643,1611472499254,26,-513,-0.0001127197265625,16,83,109,593448,16753766,15521,18473,11162,21372,9704,3015,Tag0,unknown
644,1611472499270,26,-595,-0.0001307373046875,16,83,109,593448,16753766,15521,18473,11162,21372,9704,3015,Tag0,unknown
645,1611472499293,26,-119,-2.6147460937500007e-05,16,83,109,593448,16753766,15521,18473,11162,21372,9704,3015,Tag0,unknown
646,1611472499305,26,-213,-4.68017578125e-05,16,83,109,593448,16753766,15521,18473,11162,21372,9704,3015,Tag0,unknown
647,1611472499327,26,-196,-4.306640625e-05,16,83,109,593448,16753766,15521,18473,11162,21372,9704,3015,Tag0,unknown
648,1611472499341,26,-414,-9.0966796875e-05,16,83,109,593448,16753766,15521,18473,11162,21372,9704,3015,Tag0,unknown
649,1611472499351,0,45,9.8876953125e-06,16,88,109,123329,197181,31453,31296,10254,18712,31628,2698,Tag0,unknown
650,1611472499363,0,-103,-2.26318359375e-05,16,88,109,123329,197181,31453,31296,10254,18712,31628,2698,Tag0,unknown
651,1611472499375,0,-402,-8.8330078125e-05,16,88,109,123329,197181,31453,31296,10254,18712,31628,2698,Tag0,unknown
652,1611472499388,0,-151,-3.31787109375e-05,16,88,109,123329,197181,31453,31296,10254,18712,31628,2698,Tag0,unknown
653,1611472499405,0,-609,-0.0001338134765625,16,88,109,123329,197181,31453,31296,10254,18712,31628,2698,Tag0,unknown
654,1611472499419,0,-275,-6.04248046875e-05,16,88,109,123329,197181,31453,31296,10254,18712,31628,2698,Tag0,unknown
655,1611472499438,0,-252,-5.537109375e-05,16,88,109,123329,197181,31453,31296,10254,18712,31628,2698,Tag0,unknown
656,1611472499453,0,-35,-7.6904296875e-06,16,88,109,123329,197181,31453,31296,10254,18712,31628,2698,Tag0,unknown
657,1611472499479,0,-348,-7.646484375e-05,16,88,109,123329,197181,31453,31296,10254,18712,31628,2698,Tag0,unknown
658,1611472499490,0,-30,-6.591796875e-06,16,88,109,123329,197181,31453,31296,10254,18712,31628,2698,Tag0,unknown
659,1611472499505,0,-12,-2.63671875e-06,16,88,109,123329,197181,31453,31296,10254,18712,31628,2698,Tag0,unknown
660,1611472499522,0,101,2.21923828125e-05,16,88,109,123329,197181,31453,31296,10254,18712,31628,2698,Tag0,unknown
661,1611472499539,0,-269,-5.91064453125e-05,16,88,109,123329,197181,31453,31296,10254,18712,31628,2698,Tag0,unknown
662,1611472499549,0,-525,-0.0001153564453125,16,88,109,123329,197181,31453,31296,10254,18712,31628,2698,Tag0,unknown
663,1611472499559,0,-109,-2.39501953125e-05,16,88,109,123329,197181,31453,31296,10254,18712,31628,2698,Tag0,unknown
664,1611472499572,0,-573,-0.0001259033203125,16,88,109,123329,197181,31453,31296,10254,18712,31628,2698,Tag0,unknown
665,1611472499590,0,-567,-0.0001245849609375,16,88,109,123329,197181,31453,31296,10254,18712,31628,2698,Tag0,unknown
666,1611472499604,0,-499,-0.0001096435546875,16,88,109,123329,197181,31453,31296,10254,18712,31628,2698,Tag0,unknown
667,1611472499626,0,-388,-8.525390625e-05,16,88,109,123329,197181,31453,31296,10254,18712,31628,2698,Tag0,unknown
668,1611472499636,0,-279,-6.13037109375e-05,16,88,109,123329,197181,31453,31296,10254,18712,31628,2698,Tag0,unknown
669,1611472499660,0,-314,-6.8994140625e-05,16,88,109,123329,197181,31453,31296,10254,18712,31628,2698,Tag0,unknown
670,1611472499670,0,-434,-9.5361328125e-05,16,88,109,123329,197181,31453,31296,10254,18712,31628,2698,Tag0,unknown
671,1611472499680,0,180,3.955078125e-05,16,88,109,123329,197181,31453,31296,10254,18712,31628,2698,Tag0,unknown
672,1611472499704,0,402,8.8330078125e-05,16,88,109,123329,197181,31453,31296,10254,18712,31628,2698,Tag0,unknown
673,1611472499737,0,-79,-1.7358398437500006e-05,16,88,109,123329,197181,31453,31296,10254,18712,31628,2698,Tag0,unknown
674,1611472499754,0,-343,-7.53662109375e-05,16,88,109,123329,197181,31453,31296,10254,18712,31628,2698,Tag0,unknown
675,1611472499764,0,-95,-2.08740234375e-05,16,88,109,123329,197181,31453,31296,10254,18712,31628,2698,Tag0,unknown
676,1611472499775,0,-45,-9.8876953125e-06,16,88,109,123329,197181,31453,31296,10254,18712,31628,2698,Tag0,unknown
677,1611472499787,0,-342,-7.5146484375e-05,16,88,109,123329,197181,31453,31296,10254,18712,31628,2698,Tag0,unknown
678,1611472499809,0,-418,-9.1845703125e-05,16,88,109,123329,197181,31453,31296,10254,18712,31628,2698,Tag0,unknown
679,1611472499821,0,68,1.494140625e-05,16,88,109,123329,197181,31453,31296,10254,18712,31628,2698,Tag0,unknown
680,1611472499831,0,104,2.28515625e-05,16,88,109,123329,197181,31453,31296,10254,18712,31628,2698,Tag0,unknown
681,1611472499846,0,-163,-3.581542968750001e-05,16,88,109,123329,197181,31453,31296,10254,18712,31628,2698,Tag0,unknown
682,1611472499858,0,-163,-3.581542968750001e-05,16,88,109,123329,197181,31453,31296,10254,18712,31628,2698,Tag0,unknown
683,1611472499879,0,-577,-0.00012678222656250002,16,88,109,123329,197181,31453,31296,10254,18712,31628,2698,Tag0,unknown
684,1611472499890,0,-285,-6.26220703125e-05,16,88,109,123329,197181,31453,31296,10254,18712,31628,2698,Tag0,unknown
685,1611472499900,0,-329,-7.229003906250001e-05,16,88,109,123329,197181,31453,31296,10254,18712,31628,2698,Tag0,unknown
686,1611472499923,0,-119,-2.6147460937500007e-05,16,88,109,123329,197181,31453,31296,10254,18712,31628,2698,Tag0,unknown
687,1611472499939,0,96,2.109375e-05,16,88,109,123329,197181,31453,31296,10254,18712,31628,2698,Tag0,unknown
688,1611472499957,0,-130,-2.8564453125e-05,16,88,109,123329,197181,31453,31296,10254,18712,31628,2698,Tag0,unknown
689,1611472499973,0,-613,-0.00013469238281250002,16,88,109,123329,197181,31453,31296,10254,18712,31628,2698,Tag0,unknown
690,1611472499983,0,-602,-0.000132275390625,16,88,109,123329,197181,31453,31296,10254,18712,31628,2698,Tag0,unknown
691,1611472499993,0,-73,-1.6040039062500002e-05,16,88,109,123329,197181,31453,31296,10254,18712,31628,2698,Tag0,unknown
692,1611472500006,0,19,4.1748046875e-06,16,88,109,123329,197181,31453,31296,10254,18712,31628,2698,Tag0,unknown
693,1611472500026,0,92,2.021484375e-05,16,88,109,123329,197181,31453,31296,10254,18712,31628,2698,Tag0,unknown
694,1611472500037,0,313,6.87744140625e-05,16,88,109,123329,197181,31453,31296,10254,18712,31628,2698,Tag0,unknown
695,1611472500061,0,373,8.19580078125e-05,16,88,109,123329,197181,31453,31296,10254,18712,31628,2698,Tag0,unknown
696,1611472500087,0,197,4.32861328125e-05,16,88,109,123329,197181,31453,31296,10254,18712,31628,2698,Tag0,unknown
697,1611472500105,0,-375,-8.23974609375e-05,16,88,109,123329,197181,31453,31296,10254,18712,31628,2698,Tag0,unknown
698,1611472500121,0,-382,-8.3935546875e-05,16,88,109,123329,197181,31453,31296,10254,18712,31628,2698,Tag0,unknown
699,1611472500144,0,-275,-6.04248046875e-05,16,88,109,123329,197181,31453,31296,10254,18712,31628,2698,Tag0,unknown
700,1611472500171,0,-85,-1.86767578125e-05,16,88,109,123329,197181,31453,31296,10254,18712,31628,2698,Tag0,unknown
701,1611472500187,0,-529,-0.0001162353515625,16,88,109,123329,197181,31453,31296,10254,18712,31628,2698,Tag0,unknown
702,1611472500207,0,-41,-9.0087890625e-06,16,88,109,123329,197181,31453,31296,10254,18712,31628,2698,Tag0,unknown
703,1611472500221,0,-12,-2.63671875e-06,16,88,109,123329,197181,31453,31296,10254,18712,31628,2698,Tag0,unknown
704,1611472500242,0,-282,-6.1962890625e-05,16,88,109,123329,197181,31453,31296,10254,18712,31628,2698,Tag0,unknown
705,1611472500257,0,11,2.4169921875e-06,16,88,109,123329,197181,31453,31296,10254,18712,31628,2698,Tag0,unknown
706,1611472500267,0,-362,-7.954101562500001e-05,16,88,109,123329,197181,31453,31296,10254,18712,31628,2698,Tag0,unknown
707,1611472500282,0,515,0.0001131591796875,16,88,109,123329,197181,31453,31296,10254,18712,31628,2698,Tag0,unknown
708,1611472500316,0,-553,-0.0001215087890625,16,88,109,123329,197181,31453,31296,10254,18712,31628,2698,Tag0,unknown
709,1611472500340,0,84,1.8457031250000007e-05,13,63,109,831064,287675,16758895,16756004,28607,16756176,25399,3196,Tag0,unknown
710,1611472500355,0,-350,-7.6904296875e-05,13,63,109,831064,287675,16758895,16756004,28607,16756176,25399,3196,Tag0,unknown
711,1611472500372,0,-625,-0.0001373291015625,13,63,109,831064,287675,16758895,16756004,28607,16756176,25399,3196,Tag0,unknown
712,1611472500383,0,-174,-3.8232421875e-05,13,63,109,831064,287675,16758895,16756004,28607,16756176,25399,3196,Tag0,unknown
713,1611472500393,0,-38,-8.349609375e-06,13,63,109,831064,287675,16758895,16756004,28607,16756176,25399,3196,Tag0,unknown
714,1611472500405,0,278,6.108398437500001e-05,13,63,109,831064,287675,16758895,16756004,28607,16756176,25399,3196,Tag0,unknown
715,1611472500421,0,-515,-0.0001131591796875,13,63,109,831064,287675,16758895,16756004,28607,16756176,25399,3196,Tag0,unknown
716,1611472500438,0,-326,-7.163085937500001e-05,13,63,109,831064,287675,16758895,16756004,28607,16756176,25399,3196,Tag0,unknown
717,1611472500454,0,-279,-6.13037109375e-05,13,63,109,831064,287675,16758895,16756004,28607,16756176,25399,3196,Tag0,unknown
718,1611472500474,0,-258,-5.6689453125e-05,13,63,109,831064,287675,16758895,16756004,28607,16756176,25399,3196,Tag0,unknown
719,1611472500484,0,-249,-5.47119140625e-05,13,63,109,831064,287675,16758895,16756004,28607,16756176,25399,3196,Tag0,unknown
720,1611472500498,0,340,7.470703125e-05,13,63,109,831064,287675,16758895,16756004,28607,16756176,25399,3196,Tag0,unknown
721,1611472500527,0,-71,-1.56005859375e-05,13,63,109,831064,287675,16758895,16756004,28607,16756176,25399,3196,Tag0,unknown
722,1611472500537,0,-518,-0.000113818359375,13,63,109,831064,287675,16758895,16756004,28607,16756176,25399,3196,Tag0,unknown
723,1611472500565,0,308,6.767578125e-05,13,63,109,831064,287675,16758895,16756004,28607,16756176,25399,3196,Tag0,unknown
724,1611472500575,0,361,7.93212890625e-05,13,63,109,831064,287675,16758895,16756004,28607,16756176,25399,3196,Tag0,unknown
725,1611472500590,0,148,3.251953125e-05,13,63,109,831064,287675,16758895,16756004,28607,16756176,25399,3196,Tag0,unknown
726,1611472500608,0,-545,-0.0001197509765625,13,63,109,831064,287675,16758895,16756004,28607,16756176,25399,3196,Tag0,unknown
727,1611472500618,0,33,7.2509765625e-06,13,63,109,831064,287675,16758895,16756004,28607,16756176,25399,3196,Tag0,unknown
728,1611472500628,0,-305,-6.70166015625e-05,13,63,109,831064,287675,16758895,16756004,28607,16756176,25399,3196,Tag0,unknown
729,1611472500640,0,-301,-6.613769531250001e-05,13,63,109,831064,287675,16758895,16756004,28607,16756176,25399,3196,Tag0,unknown
730,1611472500657,0,49,1.07666015625e-05,13,63,109,831064,287675,16758895,16756004,28607,16756176,25399,3196,Tag0,unknown
731,1611472500674,0,-609,-0.0001338134765625,13,63,109,831064,287675,16758895,16756004,28607,16756176,25399,3196,Tag0,unknown
732,1611472500690,0,85,1.86767578125e-05,13,63,109,831064,287675,16758895,16756004,28607,16756176,25399,3196,Tag0,unknown
733,1611472500700,0,-763,-0.00016765136718750002,13,63,109,831064,287675,16758895,16756004,28607,16756176,25399,3196,Tag0,unknown
734,1611472500713,0,-853,-0.0001874267578125,13,63,109,831064,287675,16758895,16756004,28607,16756176,25399,3196,Tag0,unknown
735,1611472500723,0,-610,-0.000134033203125,13,63,109,831064,287675,16758895,16756004,28607,16756176,25399,3196,Tag0,unknown
736,1611472500746,0,-1000,-0.0002197265625,13,63,109,831064,287675,16758895,16756004,28607,16756176,25399,3196,Tag0,unknown
737,1611472500756,0,-953,-0.0002093994140625,13,63,109,831064,287675,16758895,16756004,28607,16756176,25399,3196,Tag0,unknown
738,1611472500772,0,-497,-0.0001092041015625,13,63,109,831064,287675,16758895,16756004,28607,16756176,25399,3196,Tag0,unknown
739,1611472500790,0,-424,-9.31640625e-05,13,63,109,831064,287675,16758895,16756004,28607,16756176,25399,3196,Tag0,unknown
740,1611472500807,0,275,6.04248046875e-05,13,63,109,831064,287675,16758895,16756004,28607,16756176,25399,3196,Tag0,unknown
741,1611472500826,0,203,4.4604492187500014e-05,13,63,109,831064,287675,16758895,16756004,28607,16756176,25399,3196,Tag0,unknown
742,1611472500842,0,-101,-2.21923828125e-05,13,63,109,831064,287675,16758895,16756004,28607,16756176,25399,3196,Tag0,unknown
743,1611472500852,0,236,5.185546875e-05,13,63,109,831064,287675,16758895,16756004,28607,16756176,25399,3196,Tag0,unknown
744,1611472500862,0,-273,-5.9985351562500014e-05,13,63,109,831064,287675,16758895,16756004,28607,16756176,25399,3196,Tag0,unknown
745,1611472500875,0,-89,-1.95556640625e-05,13,63,109,831064,287675,16758895,16756004,28607,16756176,25399,3196,Tag0,unknown
746,1611472500894,0,388,8.525390625e-05,13,63,109,831064,287675,16758895,16756004,28607,16756176,25399,3196,Tag0,unknown
747,1611472500906,0,-79,-1.7358398437500006e-05,13,63,109,831064,287675,16758895,16756004,28607,16756176,25399,3196,Tag0,unknown
748,1611472500930,0,720,0.000158203125,13,63,109,831064,287675,16758895,16756004,28607,16756176,25399,3196,Tag0,unknown
749,1611472500940,0,781,0.0001716064453125,13,63,109,831064,287675,16758895,16756004,28607,16756176,25399,3196,Tag0,unknown
750,1611472500966,0,173,3.80126953125e-05,13,63,109,831064,287675,16758895,16756004,28607,16756176,25399,3196,Tag0,unknown
751,1611472500980,0,118,2.5927734375e-05,13,63,109,831064,287675,16758895,16756004,28607,16756176,25399,3196,Tag0,unknown
752,1611472500990,0,353,7.75634765625e-05,13,63,109,831064,287675,16758895,16756004,28607,16756176,25399,3196,Tag0,unknown
753,1611472501000,0,325,7.14111328125e-05,13,63,109,831064,287675,16758895,16756004,28607,16756176,25399,3196,Tag0,unknown
754,1611472501014,0,277,6.086425781250001e-05,13,63,109,831064,287675,16758895,16756004,28607,16756176,25399,3196,Tag0,unknown
755,1611472501038,0,10,2.197265625e-06,13,63,109,831064,287675,16758895,16756004,28607,16756176,25399,3196,Tag0,unknown
756,1611472501056,0,271,5.95458984375e-05,13,63,109,831064,287675,16758895,16756004,28607,16756176,25399,3196,Tag0,unknown
757,1611472501076,0,-365,-8.02001953125e-05,13,63,109,831064,287675,16758895,16756004,28607,16756176,25399,3196,Tag0,unknown
758,1611472501090,0,-515,-0.0001131591796875,13,63,109,831064,287675,16758895,16756004,28607,16756176,25399,3196,Tag0,unknown
759,1611472501110,0,269,5.91064453125e-05,13,63,109,831064,287675,16758895,16756004,28607,16756176,25399,3196,Tag0,unknown
760,1611472501126,0,119,2.6147460937500007e-05,13,63,109,831064,287675,16758895,16756004,28607,16756176,25399,3196,Tag0,unknown
761,1611472501136,0,349,7.668457031250001e-05,13,63,109,831064,287675,16758895,16756004,28607,16756176,25399,3196,Tag0,unknown
762,1611472501146,0,-515,-0.0001131591796875,13,63,109,831064,287675,16758895,16756004,28607,16756176,25399,3196,Tag0,unknown
763,1611472501156,0,-316,-6.943359375000001e-05,13,63,109,831064,287675,16758895,16756004,28607,16756176,25399,3196,Tag0,unknown
764,1611472501181,0,139,3.0541992187500004e-05,13,63,109,831064,287675,16758895,16756004,28607,16756176,25399,3196,Tag0,unknown
765,1611472501191,0,69,1.51611328125e-05,13,63,109,831064,287675,16758895,16756004,28607,16756176,25399,3196,Tag0,unknown
766,1611472501207,0,348,7.646484375e-05,13,63,109,831064,287675,16758895,16756004,28607,16756176,25399,3196,Tag0,unknown
767,1611472501226,0,116,2.548828125e-05,13,63,109,831064,287675,16758895,16756004,28607,16756176,25399,3196,Tag0,unknown
768,1611472501242,0,376,8.261718750000001e-05,13,63,109,831064,287675,16758895,16756004,28607,16756176,25399,3196,Tag0,unknown
769,1611472501252,0,-55,-1.20849609375e-05,13,63,109,831064,287675,16758895,16756004,28607,16756176,25399,3196,Tag0,unknown
770,1611472501262,0,-125,-2.74658203125e-05,13,63,109,831064,287675,16758895,16756004,28607,16756176,25399,3196,Tag0,unknown
771,1611472501276,0,-454,-9.9755859375e-05,13,63,109,831064,287675,16758895,16756004,28607,16756176,25399,3196,Tag0,unknown
772,1611472501286,0,-839,-0.0001843505859375,13,63,109,831064,287675,16758895,16756004,28607,16756176,25399,3196,Tag0,unknown
773,1611472501296,0,-196,-4.306640625e-05,13,63,109,831064,287675,16758895,16756004,28607,16756176,25399,3196,Tag0,unknown
774,1611472501310,0,-374,-8.2177734375e-05,13,63,103,831064,287675,16758895,16756004,28607,16756176,25399,3196,Tag0,unknown
775,1611472501326,0,635,0.0001395263671875,13,63,103,831064,287675,16758895,16756004,28607,16756176,25399,3196,Tag0,unknown
776,1611472501343,26,1497,0.0003289306640625,13,63,103,755261,178495,16759533,45204,16765970,16763411,16748588,7737,Tag0,unknown
777,1611472501373,26,-940,-0.00020654296875,13,63,103,755261,178495,16759533,45204,16765970,16763411,16748588,7737,Tag0,unknown
778,1611472501391,26,-1819,-0.0003996826171875001,13,63,103,755261,178495,16759533,45204,16765970,16763411,16748588,7737,Tag0,unknown
779,1611472501401,26,-555,-0.0001219482421875,13,63,103,755261,178495,16759533,45204,16765970,16763411,16748588,7737,Tag0,unknown
780,1611472501411,26,-194,-4.2626953125e-05,13,63,103,755261,178495,16759533,45204,16765970,16763411,16748588,7737,Tag0,unknown
781,1611472501422,26,307,6.74560546875e-05,13,63,103,755261,178495,16759533,45204,16765970,16763411,16748588,7737,Tag0,unknown
782,1611472501443,26,-32,-7.03125e-06,13,63,103,755261,178495,16759533,45204,16765970,16763411,16748588,7737,Tag0,unknown
783,1611472501459,26,-283,-6.218261718750001e-05,13,63,103,755261,178495,16759533,45204,16765970,16763411,16748588,7737,Tag0,unknown
784,1611472501469,26,123,2.70263671875e-05,13,63,103,755261,178495,16759533,45204,16765970,16763411,16748588,7737,Tag0,unknown
785,1611472501481,26,885,0.0001944580078125,13,63,103,755261,178495,16759533,45204,16765970,16763411,16748588,7737,Tag0,unknown
786,1611472501491,26,195,4.28466796875e-05,13,63,103,755261,178495,16759533,45204,16765970,16763411,16748588,7737,Tag0,unknown
787,1611472501515,26,65,1.42822265625e-05,13,63,103,755261,178495,16759533,45204,16765970,16763411,16748588,7737,Tag0,unknown
788,1611472501525,26,-91,-1.99951171875e-05,13,63,103,755261,178495,16759533,45204,16765970,16763411,16748588,7737,Tag0,unknown
789,1611472501553,26,-69,-1.51611328125e-05,13,63,103,755261,178495,16759533,45204,16765970,16763411,16748588,7737,Tag0,unknown
790,1611472501563,26,548,0.00012041015625,13,63,103,755261,178495,16759533,45204,16765970,16763411,16748588,7737,Tag0,unknown
791,1611472501576,26,377,8.28369140625e-05,13,63,103,755261,178495,16759533,45204,16765970,16763411,16748588,7737,Tag0,unknown
792,1611472501597,26,137,3.01025390625e-05,13,63,103,755261,178495,16759533,45204,16765970,16763411,16748588,7737,Tag0,unknown
793,1611472501607,26,-359,-7.88818359375e-05,13,63,103,755261,178495,16759533,45204,16765970,16763411,16748588,7737,Tag0,unknown
794,1611472501617,26,-341,-7.492675781250003e-05,13,63,103,755261,178495,16759533,45204,16765970,16763411,16748588,7737,Tag0,unknown
795,1611472501629,26,123,2.70263671875e-05,13,63,103,755261,178495,16759533,45204,16765970,16763411,16748588,7737,Tag0,unknown
796,1611472501642,26,168,3.6914062500000014e-05,13,63,103,755261,178495,16759533,45204,16765970,16763411,16748588,7737,Tag0,unknown
797,1611472501660,26,-312,-6.85546875e-05,13,63,103,755261,178495,16759533,45204,16765970,16763411,16748588,7737,Tag0,unknown
798,1611472501676,26,83,1.82373046875e-05,13,63,103,755261,178495,16759533,45204,16765970,16763411,16748588,7737,Tag0,unknown
799,1611472501686,26,-301,-6.613769531250001e-05,13,63,103,755261,178495,16759533,45204,16765970,16763411,16748588,7737,Tag0,unknown
800,1611472501700,26,-377,-8.28369140625e-05,13,63,103,755261,178495,16759533,45204,16765970,16763411,16748588,7737,Tag0,unknown
801,1611472501710,26,-579,-0.0001272216796875,13,63,103,755261,178495,16759533,45204,16765970,16763411,16748588,7737,Tag0,unknown
802,1611472501734,26,359,7.88818359375e-05,13,63,103,755261,178495,16759533,45204,16765970,16763411,16748588,7737,Tag0,unknown
803,1611472501744,26,313,6.87744140625e-05,13,63,103,755261,178495,16759533,45204,16765970,16763411,16748588,7737,Tag0,unknown
804,1611472501759,26,-145,-3.18603515625e-05,13,63,103,755261,178495,16759533,45204,16765970,16763411,16748588,7737,Tag0,unknown
805,1611472501775,26,81,1.77978515625e-05,13,63,103,755261,178495,16759533,45204,16765970,16763411,16748588,7737,Tag0,unknown
806,1611472501792,26,-89,-1.95556640625e-05,13,63,103,755261,178495,16759533,45204,16765970,16763411,16748588,7737,Tag0,unknown
807,1611472501811,26,169,3.71337890625e-05,13,63,103,755261,178495,16759533,45204,16765970,16763411,16748588,7737,Tag0,unknown
808,1611472501828,26,-275,-6.04248046875e-05,13,63,103,755261,178495,16759533,45204,16765970,16763411,16748588,7737,Tag0,unknown
809,1611472501838,26,164,3.603515625e-05,13,63,103,755261,178495,16759533,45204,16765970,16763411,16748588,7737,Tag0,unknown
810,1611472501848,26,136,2.98828125e-05,13,63,103,755261,178495,16759533,45204,16765970,16763411,16748588,7737,Tag0,unknown
811,1611472501860,26,458,0.000100634765625,13,63,103,755261,178495,16759533,45204,16765970,16763411,16748588,7737,Tag0,unknown
812,1611472501880,26,-162,-3.5595703125e-05,13,63,103,755261,178495,16759533,45204,16765970,16763411,16748588,7737,Tag0,unknown
813,1611472501894,26,-644,-0.00014150390625,13,63,103,755261,178495,16759533,45204,16765970,16763411,16748588,7737,Tag0,unknown
814,1611472501904,26,-436,-9.580078125e-05,13,63,103,755261,178495,16759533,45204,16765970,16763411,16748588,7737,Tag0,unknown
815,1611472501958,26,385,8.45947265625e-05,13,63,103,755261,178495,16759533,45204,16765970,16763411,16748588,7737,Tag0,unknown
816,1611472501981,26,341,7.492675781250003e-05,13,63,103,755261,178495,16759533,45204,16765970,16763411,16748588,7737,Tag0,unknown
817,1611472502026,26,72,1.58203125e-05,13,63,103,755261,178495,16759533,45204,16765970,16763411,16748588,7737,Tag0,unknown
818,1611472502044,26,-250,-5.4931640625e-05,13,63,103,755261,178495,16759533,45204,16765970,16763411,16748588,7737,Tag0,unknown
819,1611472502054,26,315,6.92138671875e-05,13,63,103,755261,178495,16759533,45204,16765970,16763411,16748588,7737,Tag0,unknown
820,1611472502093,26,-597,-0.00013117675781250005,13,63,103,755261,178495,16759533,45204,16765970,16763411,16748588,7737,Tag0,unknown
821,1611472502110,26,-283,-6.218261718750001e-05,13,63,103,755261,178495,16759533,45204,16765970,16763411,16748588,7737,Tag0,unknown
822,1611472502160,26,-302,-6.6357421875e-05,13,63,103,755261,178495,16759533,45204,16765970,16763411,16748588,7737,Tag0,unknown
823,1611472502177,26,-172,-3.779296875000001e-05,13,63,103,755261,178495,16759533,45204,16765970,16763411,16748588,7737,Tag0,unknown
824,1611472502298,26,-3,-6.591796875e-07,13,63,103,755261,178495,16759533,45204,16765970,16763411,16748588,7737,Tag0,unknown
825,1611472502315,26,171,3.75732421875e-05,13,63,103,755261,178495,16759533,45204,16765970,16763411,16748588,7737,Tag0,unknown
826,1611472502325,26,263,5.778808593750001e-05,13,63,103,755261,178495,16759533,45204,16765970,16763411,16748588,7737,Tag0,unknown
827,1611472502366,26,-572,-0.00012568359375,13,63,103,755261,178495,16759533,45204,16765970,16763411,16748588,7737,Tag0,unknown
828,1611472502378,26,56,1.23046875e-05,13,63,103,755261,178495,16759533,45204,16765970,16763411,16748588,7737,Tag0,unknown
829,1611472502388,26,-329,-7.229003906250001e-05,13,63,103,755261,178495,16759533,45204,16765970,16763411,16748588,7737,Tag0,unknown
830,1611472502462,26,-209,-4.59228515625e-05,13,63,103,755261,178495,16759533,45204,16765970,16763411,16748588,7737,Tag0,unknown
831,1611472502487,26,19,4.1748046875e-06,13,63,103,755261,178495,16759533,45204,16765970,16763411,16748588,7737,Tag0,unknown
832,1611472502497,26,-553,-0.0001215087890625,13,63,103,755261,178495,16759533,45204,16765970,16763411,16748588,7737,Tag0,unknown
833,1611472502507,26,-221,-4.85595703125e-05,13,63,103,755261,178495,16759533,45204,16765970,16763411,16748588,7737,Tag0,unknown
834,1611472502517,26,-371,-8.151855468750001e-05,13,63,103,755261,178495,16759533,45204,16765970,16763411,16748588,7737,Tag0,unknown
835,1611472502527,26,35,7.6904296875e-06,13,63,103,755261,178495,16759533,45204,16765970,16763411,16748588,7737,Tag0,unknown
836,1611472502537,26,-1809,-0.0003974853515625,13,63,103,1402688,179800,168932,16766997,54075,146195,16757403,24260,Tag0,unknown
837,1611472502547,26,-393,-8.63525390625e-05,13,63,103,1402688,179800,168932,16766997,54075,146195,16757403,24260,Tag0,unknown
838,1611472502557,26,273,5.9985351562500014e-05,13,63,103,1402688,179800,168932,16766997,54075,146195,16757403,24260,Tag0,unknown
839,1611472502576,26,-598,-0.000131396484375,13,63,78,1402688,179800,168932,16766997,54075,146195,16757403,24260,Tag0,unknown
840,1611472502604,26,-806,-0.00017709960937499998,13,63,78,1402688,179800,168932,16766997,54075,146195,16757403,24260,Tag0,unknown
841,1611472502625,26,405,8.89892578125e-05,13,63,78,1402688,179800,168932,16766997,54075,146195,16757403,24260,Tag0,unknown
842,1611472502644,26,132,2.900390625e-05,13,63,78,1402688,179800,168932,16766997,54075,146195,16757403,24260,Tag0,unknown
843,1611472502660,26,200,4.39453125e-05,13,63,78,1402688,179800,168932,16766997,54075,146195,16757403,24260,Tag0,unknown
844,1611472502678,26,-204,-4.482421875e-05,13,63,78,1402688,179800,168932,16766997,54075,146195,16757403,24260,Tag0,unknown
845,1611472502694,26,105,2.30712890625e-05,13,63,78,1402688,179800,168932,16766997,54075,146195,16757403,24260,Tag0,unknown
846,1611472502704,26,-626,-0.000137548828125,13,63,78,1402688,179800,168932,16766997,54075,146195,16757403,24260,Tag0,unknown
847,1611472502720,26,-149,-3.27392578125e-05,13,63,78,1402688,179800,168932,16766997,54075,146195,16757403,24260,Tag0,unknown
848,1611472502730,26,455,9.99755859375e-05,13,63,78,1402688,179800,168932,16766997,54075,146195,16757403,24260,Tag0,unknown
849,1611472502754,26,561,0.0001232666015625,13,63,78,1402688,179800,168932,16766997,54075,146195,16757403,24260,Tag0,unknown
850,1611472502764,26,-286,-6.2841796875e-05,13,63,78,1402688,179800,168932,16766997,54075,146195,16757403,24260,Tag0,unknown
851,1611472502778,26,283,6.218261718750001e-05,13,63,78,1402688,179800,168932,16766997,54075,146195,16757403,24260,Tag0,unknown
852,1611472502795,26,-597,-0.00013117675781250005,13,63,78,1402688,179800,168932,16766997,54075,146195,16757403,24260,Tag0,unknown
853,1611472502816,26,523,0.0001149169921875,13,63,78,1402688,179800,168932,16766997,54075,146195,16757403,24260,Tag0,unknown
854,1611472502826,26,-47,-1.03271484375e-05,13,63,78,1402688,179800,168932,16766997,54075,146195,16757403,24260,Tag0,unknown
855,1611472502859,26,-269,-5.91064453125e-05,13,63,78,1402688,179800,168932,16766997,54075,146195,16757403,24260,Tag0,unknown
856,1611472502879,26,-126,-2.7685546875e-05,13,63,78,1402688,179800,168932,16766997,54075,146195,16757403,24260,Tag0,unknown
857,1611472502889,26,-582,-0.000127880859375,13,63,78,1402688,179800,168932,16766997,54075,146195,16757403,24260,Tag0,unknown
858,1611472502918,26,-411,-9.03076171875e-05,13,63,78,1402688,179800,168932,16766997,54075,146195,16757403,24260,Tag0,unknown
859,1611472502930,26,-871,-0.0001913818359375,13,63,78,1402688,179800,168932,16766997,54075,146195,16757403,24260,Tag0,unknown
860,1611472502940,26,68,1.494140625e-05,13,63,78,1402688,179800,168932,16766997,54075,146195,16757403,24260,Tag0,unknown
861,1611472502951,26,57,1.25244140625e-05,13,63,78,1402688,179800,168932,16766997,54075,146195,16757403,24260,Tag0,unknown
862,1611472502980,26,546,0.000119970703125,13,63,78,1402688,179800,168932,16766997,54075,146195,16757403,24260,Tag0,unknown
863,1611472502995,26,151,3.31787109375e-05,13,63,78,1402688,179800,168932,16766997,54075,146195,16757403,24260,Tag0,unknown
864,1611472503005,26,-130,-2.8564453125e-05,13,63,107,1402688,179800,168932,16766997,54075,146195,16757403,24260,Tag0,unknown
865,1611472503018,26,-601,-0.00013205566406249998,13,63,107,1402688,179800,168932,16766997,54075,146195,16757403,24260,Tag0,unknown
866,1611472503028,26,-617,-0.0001355712890625,13,63,107,1402688,179800,168932,16766997,54075,146195,16757403,24260,Tag0,unknown
867,1611472503045,26,124,2.724609375e-05,13,63,107,1402688,179800,168932,16766997,54075,146195,16757403,24260,Tag0,unknown
868,1611472503062,26,10,2.197265625e-06,13,63,107,1402688,179800,168932,16766997,54075,146195,16757403,24260,Tag0,unknown
869,1611472503089,26,-289,-6.35009765625e-05,13,63,107,1402688,179800,168932,16766997,54075,146195,16757403,24260,Tag0,unknown
870,1611472503110,26,-387,-8.50341796875e-05,13,63,107,1402688,179800,168932,16766997,54075,146195,16757403,24260,Tag0,unknown
871,1611472503129,26,-24,-5.2734375e-06,13,63,107,1402688,179800,168932,16766997,54075,146195,16757403,24260,Tag0,unknown
872,1611472503146,26,51,1.12060546875e-05,13,63,116,1402688,179800,168932,16766997,54075,146195,16757403,24260,Tag0,unknown
873,1611472503164,26,-73,-1.6040039062500002e-05,13,63,116,1402688,179800,168932,16766997,54075,146195,16757403,24260,Tag0,unknown
874,1611472503180,26,297,6.525878906250001e-05,13,63,116,1402688,179800,168932,16766997,54075,146195,16757403,24260,Tag0,unknown
875,1611472503190,26,171,3.75732421875e-05,13,63,116,1402688,179800,168932,16766997,54075,146195,16757403,24260,Tag0,unknown
876,1611472503212,26,-521,-0.0001144775390625,13,63,116,1402688,179800,168932,16766997,54075,146195,16757403,24260,Tag0,unknown
877,1611472503228,26,-599,-0.0001316162109375,13,63,116,1402688,179800,168932,16766997,54075,146195,16757403,24260,Tag0,unknown
878,1611472503255,26,-282,-6.1962890625e-05,13,63,116,1402688,179800,168932,16766997,54075,146195,16757403,24260,Tag0,unknown
879,1611472503289,26,203,4.4604492187500014e-05,13,63,116,1402688,179800,168932,16766997,54075,146195,16757403,24260,Tag0,unknown
880,1611472503299,26,353,7.75634765625e-05,13,63,116,1402688,179800,168932,16766997,54075,146195,16757403,24260,Tag0,unknown
881,1611472503313,26,1061,0.0002331298828125,13,63,116,1402688,179800,168932,16766997,54075,146195,16757403,24260,Tag0,unknown
882,1611472503341,26,-630,-0.000138427734375,13,63,116,632406,72293,13418,17353,16977,14841,9277,10620,Tag0,unknown
883,1611472503351,26,741,0.00016281738281249998,13,63,116,632406,72293,13418,17353,16977,14841,9277,10620,Tag0,unknown
884,1611472503361,26,-1385,-0.0003043212890625,13,63,116,632406,72293,13418,17353,16977,14841,9277,10620,Tag0,unknown
885,1611472503377,26,-1037,-0.0002278564453125,13,63,116,632406,72293,13418,17353,16977,14841,9277,10620,Tag0,unknown
886,1611472503399,26,-715,-0.0001571044921875,13,63,116,632406,72293,13418,17353,16977,14841,9277,10620,Tag0,unknown
887,1611472503411,26,-513,-0.0001127197265625,13,63,116,632406,72293,13418,17353,16977,14841,9277,10620,Tag0,unknown
888,1611472503437,26,375,8.23974609375e-05,13,63,116,632406,72293,13418,17353,16977,14841,9277,10620,Tag0,unknown
889,1611472503447,26,151,3.31787109375e-05,13,63,116,632406,72293,13418,17353,16977,14841,9277,10620,Tag0,unknown
890,1611472503471,26,35,7.6904296875e-06,13,63,116,632406,72293,13418,17353,16977,14841,9277,10620,Tag0,unknown
891,1611472503481,26,195,4.28466796875e-05,13,63,116,632406,72293,13418,17353,16977,14841,9277,10620,Tag0,unknown
892,1611472503491,26,-625,-0.0001373291015625,13,63,116,632406,72293,13418,17353,16977,14841,9277,10620,Tag0,unknown
893,1611472503501,26,-139,-3.0541992187500004e-05,13,63,116,632406,72293,13418,17353,16977,14841,9277,10620,Tag0,unknown
894,1611472503514,26,-146,-3.2080078125000004e-05,13,63,116,632406,72293,13418,17353,16977,14841,9277,10620,Tag0,unknown
895,1611472503529,26,202,4.4384765625e-05,13,63,116,632406,72293,13418,17353,16977,14841,9277,10620,Tag0,unknown
896,1611472503547,26,369,8.10791015625e-05,13,63,116,632406,72293,13418,17353,16977,14841,9277,10620,Tag0,unknown
897,1611472503563,26,-84,-1.8457031250000007e-05,13,63,116,632406,72293,13418,17353,16977,14841,9277,10620,Tag0,unknown
898,1611472503573,26,305,6.70166015625e-05,13,63,116,632406,72293,13418,17353,16977,14841,9277,10620,Tag0,unknown
899,1611472503585,26,-453,-9.95361328125e-05,13,63,116,632406,72293,13418,17353,16977,14841,9277,10620,Tag0,unknown
900,1611472503597,26,-139,-3.0541992187500004e-05,13,63,116,632406,72293,13418,17353,16977,14841,9277,10620,Tag0,unknown
901,1611472503619,26,-565,-0.0001241455078125,13,63,116,632406,72293,13418,17353,16977,14841,9277,10620,Tag0,unknown
902,1611472503631,26,-379,-8.32763671875e-05,13,63,116,632406,72293,13418,17353,16977,14841,9277,10620,Tag0,unknown
903,1611472503642,26,465,0.0001021728515625,13,63,116,632406,72293,13418,17353,16977,14841,9277,10620,Tag0,unknown
904,1611472503652,26,615,0.0001351318359375,13,63,116,632406,72293,13418,17353,16977,14841,9277,10620,Tag0,unknown
905,1611472503667,26,-121,-2.6586914062500006e-05,13,63,116,632406,72293,13418,17353,16977,14841,9277,10620,Tag0,unknown
906,1611472503689,26,3,6.591796875e-07,13,63,116,632406,72293,13418,17353,16977,14841,9277,10620,Tag0,unknown
907,1611472503699,26,-451,-9.90966796875e-05,13,63,116,632406,72293,13418,17353,16977,14841,9277,10620,Tag0,unknown
908,1611472503712,26,-380,-8.349609375e-05,13,63,116,632406,72293,13418,17353,16977,14841,9277,10620,Tag0,unknown
909,1611472503729,26,693,0.0001522705078125,13,63,116,632406,72293,13418,17353,16977,14841,9277,10620,Tag0,unknown
910,1611472503747,26,739,0.0001623779296875,13,63,116,632406,72293,13418,17353,16977,14841,9277,10620,Tag0,unknown
911,1611472503766,26,5,1.0986328125e-06,13,63,116,632406,72293,13418,17353,16977,14841,9277,10620,Tag0,unknown
912,1611472503784,26,-251,-5.51513671875e-05,13,63,116,632406,72293,13418,17353,16977,14841,9277,10620,Tag0,unknown
913,1611472503794,26,-500,-0.00010986328125,13,63,116,632406,72293,13418,17353,16977,14841,9277,10620,Tag0,unknown
914,1611472503804,26,-771,-0.0001694091796875,13,63,116,632406,72293,13418,17353,16977,14841,9277,10620,Tag0,unknown
915,1611472503816,26,20,4.39453125e-06,13,63,116,632406,72293,13418,17353,16977,14841,9277,10620,Tag0,unknown
916,1611472503834,26,201,4.41650390625e-05,13,63,116,632406,72293,13418,17353,16977,14841,9277,10620,Tag0,unknown
917,1611472503848,26,679,0.0001491943359375,13,63,116,632406,72293,13418,17353,16977,14841,9277,10620,Tag0,unknown
918,1611472503858,26,41,9.0087890625e-06,13,63,116,632406,72293,13418,17353,16977,14841,9277,10620,Tag0,unknown
919,1611472503874,26,-76,-1.669921875e-05,13,63,116,632406,72293,13418,17353,16977,14841,9277,10620,Tag0,unknown
920,1611472503897,26,-266,-5.8447265625e-05,13,63,116,632406,72293,13418,17353,16977,14841,9277,10620,Tag0,unknown
921,1611472503914,26,-1121,-0.0002463134765625,13,63,116,632406,72293,13418,17353,16977,14841,9277,10620,Tag0,unknown
922,1611472503934,26,515,0.0001131591796875,13,63,116,632406,72293,13418,17353,16977,14841,9277,10620,Tag0,unknown
923,1611472503945,26,650,0.000142822265625,13,63,116,632406,72293,13418,17353,16977,14841,9277,10620,Tag0,unknown
924,1611472503955,26,884,0.00019423828125,13,63,116,632406,72293,13418,17353,16977,14841,9277,10620,Tag0,unknown
925,1611472503965,26,1129,0.0002480712890625,13,63,116,632406,72293,13418,17353,16977,14841,9277,10620,Tag0,unknown
926,1611472503981,26,760,0.0001669921875,13,63,116,632406,72293,13418,17353,16977,14841,9277,10620,Tag0,unknown
927,1611472503998,26,994,0.000218408203125,13,63,116,632406,72293,13418,17353,16977,14841,9277,10620,Tag0,unknown
928,1611472504008,26,742,0.000163037109375,13,63,116,632406,72293,13418,17353,16977,14841,9277,10620,Tag0,unknown
929,1611472504021,26,489,0.0001074462890625,13,63,116,632406,72293,13418,17353,16977,14841,9277,10620,Tag0,unknown
930,1611472504034,26,857,0.0001883056640625,13,63,116,632406,72293,13418,17353,16977,14841,9277,10620,Tag0,unknown
931,1611472504058,26,232,5.09765625e-05,13,63,116,632406,72293,13418,17353,16977,14841,9277,10620,Tag0,unknown
932,1611472504068,26,186,4.0869140625e-05,13,63,116,632406,72293,13418,17353,16977,14841,9277,10620,Tag0,unknown
933,1611472504082,26,-89,-1.95556640625e-05,13,63,116,632406,72293,13418,17353,16977,14841,9277,10620,Tag0,unknown
934,1611472504097,26,-371,-8.151855468750001e-05,13,63,116,632406,72293,13418,17353,16977,14841,9277,10620,Tag0,unknown
935,1611472504113,26,-300,-6.591796875e-05,13,63,116,632406,72293,13418,17353,16977,14841,9277,10620,Tag0,unknown
936,1611472504130,26,-357,-7.844238281250001e-05,13,63,116,632406,72293,13418,17353,16977,14841,9277,10620,Tag0,unknown
937,1611472504147,26,-565,-0.0001241455078125,13,63,116,632406,72293,13418,17353,16977,14841,9277,10620,Tag0,unknown
938,1611472504166,26,-588,-0.00012919921875,13,63,116,632406,72293,13418,17353,16977,14841,9277,10620,Tag0,unknown
939,1611472504183,26,-146,-3.2080078125000004e-05,13,63,116,632406,72293,13418,17353,16977,14841,9277,10620,Tag0,unknown
940,1611472504200,26,-555,-0.0001219482421875,13,63,116,632406,72293,13418,17353,16977,14841,9277,10620,Tag0,unknown
941,1611472504218,26,-859,-0.0001887451171875,13,63,116,632406,72293,13418,17353,16977,14841,9277,10620,Tag0,unknown
942,1611472504228,26,-531,-0.0001166748046875,13,63,116,632406,72293,13418,17353,16977,14841,9277,10620,Tag0,unknown
943,1611472504261,26,-249,-5.47119140625e-05,13,63,116,632406,72293,13418,17353,16977,14841,9277,10620,Tag0,unknown
944,1611472504281,26,-267,-5.86669921875e-05,13,63,116,632406,72293,13418,17353,16977,14841,9277,10620,Tag0,unknown
945,1611472504291,26,-417,-9.16259765625e-05,13,63,116,632406,72293,13418,17353,16977,14841,9277,10620,Tag0,unknown
946,1611472504301,26,-183,-4.02099609375e-05,13,63,116,632406,72293,13418,17353,16977,14841,9277,10620,Tag0,unknown
947,1611472504311,26,-653,-0.0001434814453125,13,63,116,632406,72293,13418,17353,16977,14841,9277,10620,Tag0,unknown
948,1611472504321,26,-433,-9.51416015625e-05,13,63,116,1052460,151687,130179,77109,16762100,68350,81976,16747058,Tag0,unknown
949,1611472504335,26,-259,-5.69091796875e-05,13,63,116,1052460,151687,130179,77109,16762100,68350,81976,16747058,Tag0,unknown
950,1611472504346,26,-373,-8.19580078125e-05,13,63,116,1052460,151687,130179,77109,16762100,68350,81976,16747058,Tag0,unknown
951,1611472504376,26,-323,-7.09716796875e-05,13,63,116,1052460,151687,130179,77109,16762100,68350,81976,16747058,Tag0,unknown
952,1611472504398,26,-342,-7.5146484375e-05,13,63,116,1052460,151687,130179,77109,16762100,68350,81976,16747058,Tag0,unknown
953,1611472504417,26,-375,-8.23974609375e-05,13,63,116,1052460,151687,130179,77109,16762100,68350,81976,16747058,Tag0,unknown
954,1611472504432,26,-547,-0.0001201904296875,13,63,116,1052460,151687,130179,77109,16762100,68350,81976,16747058,Tag0,unknown
955,1611472504442,26,-325,-7.14111328125e-05,13,63,116,1052460,151687,130179,77109,16762100,68350,81976,16747058,Tag0,unknown
956,1611472504465,26,-59,-1.29638671875e-05,13,63,116,1052460,151687,130179,77109,16762100,68350,81976,16747058,Tag0,unknown
957,1611472504484,26,-153,-3.3618164062500004e-05,13,63,116,1052460,151687,130179,77109,16762100,68350,81976,16747058,Tag0,unknown
958,1611472504498,26,-614,-0.000134912109375,13,63,116,1052460,151687,130179,77109,16762100,68350,81976,16747058,Tag0,unknown
959,1611472504508,26,-277,-6.086425781250001e-05,13,63,116,1052460,151687,130179,77109,16762100,68350,81976,16747058,Tag0,unknown
960,1611472504523,26,-30,-6.591796875e-06,13,63,116,1052460,151687,130179,77109,16762100,68350,81976,16747058,Tag0,unknown
961,1611472504533,26,103,2.26318359375e-05,13,63,116,1052460,151687,130179,77109,16762100,68350,81976,16747058,Tag0,unknown
962,1611472504557,26,267,5.86669921875e-05,13,63,116,1052460,151687,130179,77109,16762100,68350,81976,16747058,Tag0,unknown
963,1611472504567,26,-201,-4.41650390625e-05,13,63,116,1052460,151687,130179,77109,16762100,68350,81976,16747058,Tag0,unknown
964,1611472504577,26,-186,-4.0869140625e-05,13,63,116,1052460,151687,130179,77109,16762100,68350,81976,16747058,Tag0,unknown
965,1611472504587,26,-211,-4.63623046875e-05,13,63,116,1052460,151687,130179,77109,16762100,68350,81976,16747058,Tag0,unknown
966,1611472504600,26,168,3.6914062500000014e-05,13,63,116,1052460,151687,130179,77109,16762100,68350,81976,16747058,Tag0,unknown
967,1611472504616,26,193,4.240722656250001e-05,13,63,116,1052460,151687,130179,77109,16762100,68350,81976,16747058,Tag0,unknown
968,1611472504634,26,-515,-0.0001131591796875,13,63,116,1052460,151687,130179,77109,16762100,68350,81976,16747058,Tag0,unknown
969,1611472504650,26,-28,-6.15234375e-06,13,63,116,1052460,151687,130179,77109,16762100,68350,81976,16747058,Tag0,unknown
970,1611472504660,26,-347,-7.62451171875e-05,13,63,116,1052460,151687,130179,77109,16762100,68350,81976,16747058,Tag0,unknown
971,1611472504673,26,58,1.2744140625e-05,13,63,116,1052460,151687,130179,77109,16762100,68350,81976,16747058,Tag0,unknown
972,1611472504683,26,263,5.778808593750001e-05,13,63,116,1052460,151687,130179,77109,16762100,68350,81976,16747058,Tag0,unknown
973,1611472504703,26,-244,-5.361328125e-05,13,63,116,1052460,151687,130179,77109,16762100,68350,81976,16747058,Tag0,unknown
974,1611472504715,26,114,2.5048828125000006e-05,13,63,116,1052460,151687,130179,77109,16762100,68350,81976,16747058,Tag0,unknown
975,1611472504743,26,57,1.25244140625e-05,13,63,116,1052460,151687,130179,77109,16762100,68350,81976,16747058,Tag0,unknown
976,1611472504753,26,291,6.39404296875e-05,13,63,116,1052460,151687,130179,77109,16762100,68350,81976,16747058,Tag0,unknown
977,1611472504767,26,296,6.50390625e-05,13,63,116,1052460,151687,130179,77109,16762100,68350,81976,16747058,Tag0,unknown
978,1611472504786,26,-362,-7.954101562500001e-05,13,63,116,1052460,151687,130179,77109,16762100,68350,81976,16747058,Tag0,unknown
979,1611472504801,26,-371,-8.151855468750001e-05,13,63,116,1052460,151687,130179,77109,16762100,68350,81976,16747058,Tag0,unknown
980,1611472504818,26,-210,-4.6142578125e-05,13,63,116,1052460,151687,130179,77109,16762100,68350,81976,16747058,Tag0,unknown
981,1611472504832,26,197,4.32861328125e-05,13,63,116,1052460,151687,130179,77109,16762100,68350,81976,16747058,Tag0,unknown
982,1611472504842,26,-242,-5.317382812500001e-05,13,63,116,1052460,151687,130179,77109,16762100,68350,81976,16747058,Tag0,unknown
983,1611472504865,26,123,2.70263671875e-05,13,63,116,1052460,151687,130179,77109,16762100,68350,81976,16747058,Tag0,unknown
984,1611472504886,26,-235,-5.16357421875e-05,13,63,116,1052460,151687,130179,77109,16762100,68350,81976,16747058,Tag0,unknown
985,1611472504898,26,-48,-1.0546875e-05,13,63,116,1052460,151687,130179,77109,16762100,68350,81976,16747058,Tag0,unknown
986,1611472504920,26,260,5.712890625e-05,13,63,116,1052460,151687,130179,77109,16762100,68350,81976,16747058,Tag0,unknown
987,1611472504936,26,-222,-4.8779296875e-05,13,63,116,1052460,151687,130179,77109,16762100,68350,81976,16747058,Tag0,unknown
988,1611472504947,26,-331,-7.272949218750001e-05,13,63,116,1052460,151687,130179,77109,16762100,68350,81976,16747058,Tag0,unknown
989,1611472504964,26,325,7.14111328125e-05,13,63,116,1052460,151687,130179,77109,16762100,68350,81976,16747058,Tag0,unknown
990,1611472504984,26,198,4.350585937500001e-05,13,63,116,1052460,151687,130179,77109,16762100,68350,81976,16747058,Tag0,unknown
991,1611472505002,26,83,1.82373046875e-05,13,63,116,1052460,151687,130179,77109,16762100,68350,81976,16747058,Tag0,unknown
992,1611472505018,26,103,2.26318359375e-05,13,63,116,1052460,151687,130179,77109,16762100,68350,81976,16747058,Tag0,unknown
993,1611472505028,26,-299,-6.56982421875e-05,13,63,116,1052460,151687,130179,77109,16762100,68350,81976,16747058,Tag0,unknown
994,1611472505038,26,-152,-3.33984375e-05,13,63,116,1052460,151687,130179,77109,16762100,68350,81976,16747058,Tag0,unknown
995,1611472505048,26,515,0.0001131591796875,13,63,116,1052460,151687,130179,77109,16762100,68350,81976,16747058,Tag0,unknown
996,1611472505068,26,-514,-0.000112939453125,13,63,116,1052460,151687,130179,77109,16762100,68350,81976,16747058,Tag0,unknown
997,1611472505081,26,-343,-7.53662109375e-05,13,63,116,1052460,151687,130179,77109,16762100,68350,81976,16747058,Tag0,unknown
998,1611472505105,26,-86,-1.8896484375000006e-05,13,63,116,1052460,151687,130179,77109,16762100,68350,81976,16747058,Tag0,unknown
999,1611472505116,26,-338,-7.426757812499999e-05,13,63,116,1052460,151687,130179,77109,16762100,68350,81976,16747058,Tag0,unknown
1000,1611472505139,26,-315,-6.92138671875e-05,13,63,116,1052460,151687,130179,77109,16762100,68350,81976,16747058,Tag0,unknown
1001,1611472505154,26,-180,-3.955078125e-05,13,63,116,1052460,151687,130179,77109,16762100,68350,81976,16747058,Tag0,unknown
1002,1611472505164,26,-369,-8.10791015625e-05,13,63,116,1052460,151687,130179,77109,16762100,68350,81976,16747058,Tag0,unknown
1003,1611472505174,26,-372,-8.173828125e-05,13,63,116,1052460,151687,130179,77109,16762100,68350,81976,16747058,Tag0,unknown
1004,1611472505193,26,211,4.63623046875e-05,13,63,116,1052460,151687,130179,77109,16762100,68350,81976,16747058,Tag0,unknown
1005,1611472505203,26,281,6.17431640625e-05,13,63,116,1052460,151687,130179,77109,16762100,68350,81976,16747058,Tag0,unknown
1006,1611472505215,26,-101,-2.21923828125e-05,13,63,116,1052460,151687,130179,77109,16762100,68350,81976,16747058,Tag0,unknown
1007,1611472505234,26,-47,-1.03271484375e-05,13,63,116,1052460,151687,130179,77109,16762100,68350,81976,16747058,Tag0,unknown
1008,1611472505249,26,-32,-7.03125e-06,13,63,116,1052460,151687,130179,77109,16762100,68350,81976,16747058,Tag0,unknown
1009,1611472505276,26,59,1.29638671875e-05,13,63,116,1052460,151687,130179,77109,16762100,68350,81976,16747058,Tag0,unknown
1010,1611472505286,26,35,7.6904296875e-06,13,63,116,1052460,151687,130179,77109,16762100,68350,81976,16747058,Tag0,unknown
1011,1611472505309,26,41,9.0087890625e-06,13,63,116,1052460,151687,130179,77109,16762100,68350,81976,16747058,Tag0,unknown
1012,1611472505321,0,-306,-6.723632812500001e-05,1,48,116,245085,283055,12322,16754172,10801,16794,16753291,3232,Tag0,unknown
1013,1611472505339,0,38,8.349609375e-06,1,48,116,245085,283055,12322,16754172,10801,16794,16753291,3232,Tag0,unknown
1014,1611472505350,0,5,1.0986328125e-06,1,48,116,245085,283055,12322,16754172,10801,16794,16753291,3232,Tag0,unknown
