,timestampMs,poorSignal,eegRawValue,eegRawValueVolts,attention,meditation,blinkStrength,delta,theta,alphaLow,alphaHigh,betaLow,betaHigh,gammaLow,gammaMid,tagEvent,location
0,1611472553872,26,-221,-4.85595703125e-05,13,60,116,421706,16752950,44846,26315,16757140,16752108,17970,9060,Tag0,unknown
1,1611472553893,26,-111,-2.43896484375e-05,13,60,116,421706,16752950,44846,26315,16757140,16752108,17970,9060,Tag0,unknown
2,1611472553906,26,-585,-0.0001285400390625,13,60,116,421706,16752950,44846,26315,16757140,16752108,17970,9060,Tag0,unknown
3,1611472553926,26,-159,-3.49365234375e-05,13,60,116,421706,16752950,44846,26315,16757140,16752108,17970,9060,Tag0,unknown
4,1611472553939,26,198,4.350585937500001e-05,13,60,116,421706,16752950,44846,26315,16757140,16752108,17970,9060,Tag0,unknown
5,1611472553960,26,44,9.66796875e-06,13,60,116,421706,16752950,44846,26315,16757140,16752108,17970,9060,Tag0,unknown
6,1611472553972,26,-228,-5.009765625000001e-05,13,60,116,421706,16752950,44846,26315,16757140,16752108,17970,9060,Tag0,unknown
7,1611472553994,26,-398,-8.745117187499999e-05,13,60,116,421706,16752950,44846,26315,16757140,16752108,17970,9060,Tag0,unknown
8,1611472554006,26,-169,-3.71337890625e-05,13,60,116,421706,16752950,44846,26315,16757140,16752108,17970,9060,Tag0,unknown
9,1611472554058,26,380,8.349609375e-05,13,60,116,421706,16752950,44846,26315,16757140,16752108,17970,9060,Tag0,unknown
10,1611472554073,26,-569,-0.0001250244140625,13,60,116,421706,16752950,44846,26315,16757140,16752108,17970,9060,Tag0,unknown
11,1611472554115,26,529,0.0001162353515625,13,60,116,421706,16752950,44846,26315,16757140,16752108,17970,9060,Tag0,unknown
12,1611472554125,26,209,4.59228515625e-05,13,60,116,421706,16752950,44846,26315,16757140,16752108,17970,9060,Tag0,unknown
13,1611472554140,26,-35,-7.6904296875e-06,13,60,116,832642,16755276,65808,12105,22858,16749130,23896,3751,Tag0,unknown
14,1611472554180,26,-531,-0.0001166748046875,13,60,116,832642,16755276,65808,12105,22858,16749130,23896,3751,Tag0,unknown
15,1611472554191,26,212,4.658203125000001e-05,13,60,116,832642,16755276,65808,12105,22858,16749130,23896,3751,Tag0,unknown
16,1611472554232,26,-589,-0.0001294189453125,13,60,116,832642,16755276,65808,12105,22858,16749130,23896,3751,Tag0,unknown
17,1611472554242,26,-393,-8.63525390625e-05,13,60,116,832642,16755276,65808,12105,22858,16749130,23896,3751,Tag0,unknown
18,1611472554252,26,455,9.99755859375e-05,13,60,116,832642,16755276,65808,12105,22858,16749130,23896,3751,Tag0,unknown
19,1611472554262,26,-345,-7.58056640625e-05,13,60,116,832642,16755276,65808,12105,22858,16749130,23896,3751,Tag0,unknown
20,1611472554277,26,-358,-7.8662109375e-05,13,60,116,832642,16755276,65808,12105,22858,16749130,23896,3751,Tag0,unknown
21,1611472554292,26,197,4.32861328125e-05,13,60,116,832642,16755276,65808,12105,22858,16749130,23896,3751,Tag0,unknown
22,1611472554302,26,208,4.5703125e-05,13,60,116,832642,16755276,65808,12105,22858,16749130,23896,3751,Tag0,unknown
23,1611472554316,26,-182,-3.9990234375e-05,13,60,116,832642,16755276,65808,12105,22858,16749130,23896,3751,Tag0,unknown
24,1611472554326,26,304,6.6796875e-05,13,60,116,832642,16755276,65808,12105,22858,16749130,23896,3751,Tag0,unknown
25,1611472554349,26,102,2.2412109375e-05,13,60,116,832642,16755276,65808,12105,22858,16749130,23896,3751,Tag0,unknown
26,1611472554359,26,759,0.0001667724609375,13,60,116,832642,16755276,65808,12105,22858,16749130,23896,3751,Tag0,unknown
27,1611472554369,26,498,0.000109423828125,13,60,116,832642,16755276,65808,12105,22858,16749130,23896,3751,Tag0,unknown
28,1611472554382,26,98,2.1533203125e-05,13,60,116,832642,16755276,65808,12105,22858,16749130,23896,3751,Tag0,unknown
29,1611472554396,26,119,2.6147460937500007e-05,13,60,116,832642,16755276,65808,12105,22858,16749130,23896,3751,Tag0,unknown
30,1611472554409,26,-265,-5.82275390625e-05,13,60,116,832642,16755276,65808,12105,22858,16749130,23896,3751,Tag0,unknown
31,1611472554424,26,772,0.00016962890625000002,13,60,116,832642,16755276,65808,12105,22858,16749130,23896,3751,Tag0,unknown
32,1611472554441,26,-84,-1.8457031250000007e-05,13,60,116,832642,16755276,65808,12105,22858,16749130,23896,3751,Tag0,unknown
33,1611472554462,26,-765,-0.0001680908203125,13,60,116,832642,16755276,65808,12105,22858,16749130,23896,3751,Tag0,unknown
34,1611472554476,26,302,6.6357421875e-05,13,60,116,832642,16755276,65808,12105,22858,16749130,23896,3751,Tag0,unknown
35,1611472554486,26,-138,-3.0322265625e-05,13,60,116,832642,16755276,65808,12105,22858,16749130,23896,3751,Tag0,unknown
36,1611472554497,26,326,7.163085937500001e-05,13,60,116,832642,16755276,65808,12105,22858,16749130,23896,3751,Tag0,unknown
37,1611472554511,26,-96,-2.109375e-05,13,60,116,832642,16755276,65808,12105,22858,16749130,23896,3751,Tag0,unknown
38,1611472554521,26,547,0.0001201904296875,13,60,116,832642,16755276,65808,12105,22858,16749130,23896,3751,Tag0,unknown
39,1611472554531,26,39,8.5693359375e-06,13,60,116,832642,16755276,65808,12105,22858,16749130,23896,3751,Tag0,unknown
40,1611472554544,26,-597,-0.00013117675781250005,13,60,116,832642,16755276,65808,12105,22858,16749130,23896,3751,Tag0,unknown
41,1611472554560,26,-419,-9.20654296875e-05,13,60,116,832642,16755276,65808,12105,22858,16749130,23896,3751,Tag0,unknown
42,1611472554570,26,-727,-0.00015974121093750005,13,60,116,832642,16755276,65808,12105,22858,16749130,23896,3751,Tag0,unknown
43,1611472554580,26,290,6.3720703125e-05,13,60,116,832642,16755276,65808,12105,22858,16749130,23896,3751,Tag0,unknown
44,1611472554591,26,-64,-1.40625e-05,13,60,116,832642,16755276,65808,12105,22858,16749130,23896,3751,Tag0,unknown
45,1611472554609,26,124,2.724609375e-05,13,60,116,832642,16755276,65808,12105,22858,16749130,23896,3751,Tag0,unknown
46,1611472554625,26,-234,-5.1416015625e-05,13,60,116,832642,16755276,65808,12105,22858,16749130,23896,3751,Tag0,unknown
47,1611472554646,26,-15,-3.2958984375e-06,13,60,116,832642,16755276,65808,12105,22858,16749130,23896,3751,Tag0,unknown
48,1611472554663,26,-474,-0.000104150390625,13,60,116,832642,16755276,65808,12105,22858,16749130,23896,3751,Tag0,unknown
49,1611472554673,26,834,0.000183251953125,13,60,116,832642,16755276,65808,12105,22858,16749130,23896,3751,Tag0,unknown
50,1611472554684,26,849,0.0001865478515625,13,60,116,832642,16755276,65808,12105,22858,16749130,23896,3751,Tag0,unknown
51,1611472554695,26,-185,-4.06494140625e-05,13,60,116,832642,16755276,65808,12105,22858,16749130,23896,3751,Tag0,unknown
52,1611472554717,26,-761,-0.0001672119140625,13,60,116,832642,16755276,65808,12105,22858,16749130,23896,3751,Tag0,unknown
53,1611472554730,26,-363,-7.97607421875e-05,13,60,116,832642,16755276,65808,12105,22858,16749130,23896,3751,Tag0,unknown
54,1611472554748,26,269,5.91064453125e-05,13,60,116,832642,16755276,65808,12105,22858,16749130,23896,3751,Tag0,unknown
55,1611472554761,26,-87,-1.91162109375e-05,13,60,116,832642,16755276,65808,12105,22858,16749130,23896,3751,Tag0,unknown
56,1611472554786,26,-796,-0.00017490234374999998,13,60,116,832642,16755276,65808,12105,22858,16749130,23896,3751,Tag0,unknown
57,1611472554808,26,-540,-0.00011865234375,13,60,116,832642,16755276,65808,12105,22858,16749130,23896,3751,Tag0,unknown
58,1611472554830,26,-435,-9.55810546875e-05,13,60,116,832642,16755276,65808,12105,22858,16749130,23896,3751,Tag0,unknown
59,1611472554845,26,-705,-0.0001549072265625,13,60,116,832642,16755276,65808,12105,22858,16749130,23896,3751,Tag0,unknown
60,1611472554864,26,-893,-0.0001962158203125,13,60,116,832642,16755276,65808,12105,22858,16749130,23896,3751,Tag0,unknown
61,1611472554878,26,-375,-8.23974609375e-05,13,60,116,832642,16755276,65808,12105,22858,16749130,23896,3751,Tag0,unknown
62,1611472554888,26,-1592,-0.0003498046875,13,60,116,832642,16755276,65808,12105,22858,16749130,23896,3751,Tag0,unknown
63,1611472554901,26,-1497,-0.0003289306640625,13,60,116,832642,16755276,65808,12105,22858,16749130,23896,3751,Tag0,unknown
64,1611472554912,26,-1210,-0.000265869140625,13,60,116,832642,16755276,65808,12105,22858,16749130,23896,3751,Tag0,unknown
65,1611472554935,26,-1107,-0.0002432373046875,13,60,116,832642,16755276,65808,12105,22858,16749130,23896,3751,Tag0,unknown
66,1611472554949,26,-660,-0.00014501953125,13,60,116,832642,16755276,65808,12105,22858,16749130,23896,3751,Tag0,unknown
67,1611472554959,26,973,0.0002137939453125,13,60,116,832642,16755276,65808,12105,22858,16749130,23896,3751,Tag0,unknown
68,1611472554975,26,1791,0.0003935302734375,13,60,116,832642,16755276,65808,12105,22858,16749130,23896,3751,Tag0,unknown
69,1611472554994,26,1791,0.0003935302734375,13,60,116,832642,16755276,65808,12105,22858,16749130,23896,3751,Tag0,unknown
70,1611472555015,26,1791,0.0003935302734375,13,60,116,832642,16755276,65808,12105,22858,16749130,23896,3751,Tag0,unknown
71,1611472555025,26,1015,0.0002230224609375,13,60,116,832642,16755276,65808,12105,22858,16749130,23896,3751,Tag0,unknown
72,1611472555035,26,774,0.000170068359375,13,60,116,832642,16755276,65808,12105,22858,16749130,23896,3751,Tag0,unknown
73,1611472555050,26,-63,-1.38427734375e-05,13,60,116,832642,16755276,65808,12105,22858,16749130,23896,3751,Tag0,unknown
74,1611472555060,26,-1045,-0.0002296142578125,13,60,116,832642,16755276,65808,12105,22858,16749130,23896,3751,Tag0,unknown
75,1611472555079,26,-388,-8.525390625e-05,13,60,116,832642,16755276,65808,12105,22858,16749130,23896,3751,Tag0,unknown
76,1611472555093,26,-763,-0.00016765136718750002,13,60,116,832642,16755276,65808,12105,22858,16749130,23896,3751,Tag0,unknown
77,1611472555121,26,-408,-8.964843749999999e-05,13,60,116,832642,16755276,65808,12105,22858,16749130,23896,3751,Tag0,unknown
78,1611472555132,26,82,1.8017578125e-05,13,60,116,832642,16755276,65808,12105,22858,16749130,23896,3751,Tag0,unknown
79,1611472555143,26,-644,-0.00014150390625,13,60,116,846891,495114,112177,361359,76930,57551,16759503,17081,Tag0,unknown
80,1611472555155,26,-135,-2.96630859375e-05,13,60,116,846891,495114,112177,361359,76930,57551,16759503,17081,Tag0,unknown
81,1611472555165,26,-221,-4.85595703125e-05,13,60,116,846891,495114,112177,361359,76930,57551,16759503,17081,Tag0,unknown
82,1611472555175,26,-70,-1.5380859375e-05,13,60,116,846891,495114,112177,361359,76930,57551,16759503,17081,Tag0,unknown
83,1611472555193,26,-245,-5.38330078125e-05,13,60,116,846891,495114,112177,361359,76930,57551,16759503,17081,Tag0,unknown
84,1611472555209,26,-662,-0.00014545898437500005,13,60,116,846891,495114,112177,361359,76930,57551,16759503,17081,Tag0,unknown
85,1611472555233,26,306,6.723632812500001e-05,13,60,116,846891,495114,112177,361359,76930,57551,16759503,17081,Tag0,unknown
86,1611472555243,26,-802,-0.00017622070312500005,13,60,116,846891,495114,112177,361359,76930,57551,16759503,17081,Tag0,unknown
87,1611472555268,26,-727,-0.00015974121093750005,13,60,116,846891,495114,112177,361359,76930,57551,16759503,17081,Tag0,unknown
88,1611472555279,26,65,1.42822265625e-05,13,60,116,846891,495114,112177,361359,76930,57551,16759503,17081,Tag0,unknown
89,1611472555289,26,-378,-8.3056640625e-05,13,60,116,846891,495114,112177,361359,76930,57551,16759503,17081,Tag0,unknown
90,1611472555303,26,-241,-5.29541015625e-05,13,60,116,846891,495114,112177,361359,76930,57551,16759503,17081,Tag0,unknown
91,1611472555315,26,-1122,-0.000246533203125,13,60,116,846891,495114,112177,361359,76930,57551,16759503,17081,Tag0,unknown
92,1611472555325,26,-1185,-0.0002603759765625,13,60,116,846891,495114,112177,361359,76930,57551,16759503,17081,Tag0,unknown
93,1611472555343,26,-1111,-0.0002441162109375,13,60,116,846891,495114,112177,361359,76930,57551,16759503,17081,Tag0,unknown
94,1611472555360,26,-473,-0.0001039306640625,13,60,116,846891,495114,112177,361359,76930,57551,16759503,17081,Tag0,unknown
95,1611472555379,26,-903,-0.0001984130859375,13,60,116,846891,495114,112177,361359,76930,57551,16759503,17081,Tag0,unknown
96,1611472555397,26,-852,-0.00018720703125,13,60,116,846891,495114,112177,361359,76930,57551,16759503,17081,Tag0,unknown
97,1611472555407,26,-887,-0.00019489746093750006,13,60,116,846891,495114,112177,361359,76930,57551,16759503,17081,Tag0,unknown
98,1611472555420,26,-162,-3.5595703125e-05,13,60,116,846891,495114,112177,361359,76930,57551,16759503,17081,Tag0,unknown
99,1611472555430,26,-73,-1.6040039062500002e-05,13,60,116,846891,495114,112177,361359,76930,57551,16759503,17081,Tag0,unknown
100,1611472555441,26,128,2.8125e-05,13,60,116,846891,495114,112177,361359,76930,57551,16759503,17081,Tag0,unknown
101,1611472555461,26,-85,-1.86767578125e-05,13,60,116,846891,495114,112177,361359,76930,57551,16759503,17081,Tag0,unknown
102,1611472555476,26,812,0.00017841796875000006,13,60,116,846891,495114,112177,361359,76930,57551,16759503,17081,Tag0,unknown
103,1611472555499,26,-41,-9.0087890625e-06,13,60,116,846891,495114,112177,361359,76930,57551,16759503,17081,Tag0,unknown
104,1611472555511,26,529,0.0001162353515625,13,60,116,846891,495114,112177,361359,76930,57551,16759503,17081,Tag0,unknown
105,1611472555536,26,-379,-8.32763671875e-05,13,60,116,846891,495114,112177,361359,76930,57551,16759503,17081,Tag0,unknown
106,1611472555546,26,544,0.00011953125,13,60,116,846891,495114,112177,361359,76930,57551,16759503,17081,Tag0,unknown
107,1611472555556,26,474,0.000104150390625,13,60,116,846891,495114,112177,361359,76930,57551,16759503,17081,Tag0,unknown
108,1611472555566,26,219,4.81201171875e-05,13,60,116,846891,495114,112177,361359,76930,57551,16759503,17081,Tag0,unknown
109,1611472555579,26,-211,-4.63623046875e-05,13,60,116,846891,495114,112177,361359,76930,57551,16759503,17081,Tag0,unknown
110,1611472555595,26,-161,-3.53759765625e-05,13,60,116,846891,495114,112177,361359,76930,57551,16759503,17081,Tag0,unknown
111,1611472555613,26,322,7.0751953125e-05,13,60,116,846891,495114,112177,361359,76930,57551,16759503,17081,Tag0,unknown
112,1611472555628,26,-237,-5.20751953125e-05,13,60,116,846891,495114,112177,361359,76930,57551,16759503,17081,Tag0,unknown
113,1611472555638,26,-36,-7.91015625e-06,13,60,116,846891,495114,112177,361359,76930,57551,16759503,17081,Tag0,unknown
114,1611472555661,26,776,0.0001705078125,13,60,116,846891,495114,112177,361359,76930,57551,16759503,17081,Tag0,unknown
115,1611472555680,26,116,2.548828125e-05,13,60,116,846891,495114,112177,361359,76930,57551,16759503,17081,Tag0,unknown
116,1611472555695,26,-331,-7.272949218750001e-05,13,60,116,846891,495114,112177,361359,76930,57551,16759503,17081,Tag0,unknown
117,1611472555705,26,-587,-0.00012897949218750005,13,60,116,846891,495114,112177,361359,76930,57551,16759503,17081,Tag0,unknown
118,1611472555717,26,-369,-8.10791015625e-05,13,60,116,846891,495114,112177,361359,76930,57551,16759503,17081,Tag0,unknown
119,1611472555727,26,563,0.0001237060546875,13,60,116,846891,495114,112177,361359,76930,57551,16759503,17081,Tag0,unknown
120,1611472555750,26,-359,-7.88818359375e-05,13,60,116,846891,495114,112177,361359,76930,57551,16759503,17081,Tag0,unknown
121,1611472555762,26,-385,-8.45947265625e-05,13,60,116,846891,495114,112177,361359,76930,57551,16759503,17081,Tag0,unknown
122,1611472555777,26,290,6.3720703125e-05,13,60,116,846891,495114,112177,361359,76930,57551,16759503,17081,Tag0,unknown
123,1611472555796,26,545,0.0001197509765625,13,60,116,846891,495114,112177,361359,76930,57551,16759503,17081,Tag0,unknown
124,1611472555813,26,219,4.81201171875e-05,13,60,116,846891,495114,112177,361359,76930,57551,16759503,17081,Tag0,unknown
125,1611472555831,26,328,7.207031249999999e-05,13,60,116,846891,495114,112177,361359,76930,57551,16759503,17081,Tag0,unknown
126,1611472555846,26,-374,-8.2177734375e-05,13,60,116,846891,495114,112177,361359,76930,57551,16759503,17081,Tag0,unknown
127,1611472555856,26,-628,-0.00013798828125,13,60,116,846891,495114,112177,361359,76930,57551,16759503,17081,Tag0,unknown
128,1611472555879,26,-85,-1.86767578125e-05,13,60,116,846891,495114,112177,361359,76930,57551,16759503,17081,Tag0,unknown
129,1611472555899,26,-482,-0.000105908203125,13,60,116,846891,495114,112177,361359,76930,57551,16759503,17081,Tag0,unknown
130,1611472555912,26,-96,-2.109375e-05,13,60,116,846891,495114,112177,361359,76930,57551,16759503,17081,Tag0,unknown
131,1611472555922,26,-625,-0.0001373291015625,13,60,116,846891,495114,112177,361359,76930,57551,16759503,17081,Tag0,unknown
132,1611472555940,26,101,2.21923828125e-05,13,60,116,846891,495114,112177,361359,76930,57551,16759503,17081,Tag0,unknown
133,1611472555950,26,54,1.1865234375e-05,13,60,116,846891,495114,112177,361359,76930,57551,16759503,17081,Tag0,unknown
134,1611472555962,26,-73,-1.6040039062500002e-05,13,60,116,846891,495114,112177,361359,76930,57551,16759503,17081,Tag0,unknown
135,1611472555977,26,-47,-1.03271484375e-05,13,60,116,846891,495114,112177,361359,76930,57551,16759503,17081,Tag0,unknown
136,1611472555994,26,371,8.151855468750001e-05,13,60,116,846891,495114,112177,361359,76930,57551,16759503,17081,Tag0,unknown
137,1611472556023,26,-276,-6.064453125e-05,13,60,116,846891,495114,112177,361359,76930,57551,16759503,17081,Tag0,unknown
138,1611472556045,26,506,0.000111181640625,13,60,116,846891,495114,112177,361359,76930,57551,16759503,17081,Tag0,unknown
139,1611472556055,26,-331,-7.272949218750001e-05,13,60,116,846891,495114,112177,361359,76930,57551,16759503,17081,Tag0,unknown
140,1611472556065,26,822,0.000180615234375,13,60,116,846891,495114,112177,361359,76930,57551,16759503,17081,Tag0,unknown
141,1611472556079,26,-61,-1.34033203125e-05,13,60,116,846891,495114,112177,361359,76930,57551,16759503,17081,Tag0,unknown
142,1611472556097,26,35,7.6904296875e-06,13,60,116,846891,495114,112177,361359,76930,57551,16759503,17081,Tag0,unknown
143,1611472556113,26,-350,-7.6904296875e-05,13,60,116,846891,495114,112177,361359,76930,57551,16759503,17081,Tag0,unknown
144,1611472556123,26,98,2.1533203125e-05,13,60,116,846891,495114,112177,361359,76930,57551,16759503,17081,Tag0,unknown
145,1611472556138,26,-427,-9.38232421875e-05,13,60,116,724149,80160,103002,68030,12427,16760251,14251,15824,Tag0,unknown
146,1611472556163,26,-75,-1.64794921875e-05,13,60,116,724149,80160,103002,68030,12427,16760251,14251,15824,Tag0,unknown
147,1611472556177,26,-413,-9.07470703125e-05,13,60,116,724149,80160,103002,68030,12427,16760251,14251,15824,Tag0,unknown
148,1611472556205,26,-47,-1.03271484375e-05,13,60,116,724149,80160,103002,68030,12427,16760251,14251,15824,Tag0,unknown
149,1611472556215,26,-807,-0.0001773193359375,13,60,116,724149,80160,103002,68030,12427,16760251,14251,15824,Tag0,unknown
150,1611472556229,26,507,0.0001114013671875,13,60,116,724149,80160,103002,68030,12427,16760251,14251,15824,Tag0,unknown
151,1611472556249,26,-359,-7.88818359375e-05,13,60,116,724149,80160,103002,68030,12427,16760251,14251,15824,Tag0,unknown
152,1611472556262,26,482,0.000105908203125,13,60,116,724149,80160,103002,68030,12427,16760251,14251,15824,Tag0,unknown
153,1611472556283,26,41,9.0087890625e-06,13,60,116,724149,80160,103002,68030,12427,16760251,14251,15824,Tag0,unknown
154,1611472556296,26,104,2.28515625e-05,13,60,116,724149,80160,103002,68030,12427,16760251,14251,15824,Tag0,unknown
155,1611472556306,26,-443,-9.73388671875e-05,13,60,116,724149,80160,103002,68030,12427,16760251,14251,15824,Tag0,unknown
156,1611472556318,26,-347,-7.62451171875e-05,13,60,116,724149,80160,103002,68030,12427,16760251,14251,15824,Tag0,unknown
157,1611472556330,26,213,4.68017578125e-05,13,60,116,724149,80160,103002,68030,12427,16760251,14251,15824,Tag0,unknown
158,1611472556353,26,-79,-1.7358398437500006e-05,13,60,116,724149,80160,103002,68030,12427,16760251,14251,15824,Tag0,unknown
159,1611472556364,26,-605,-0.0001329345703125,13,60,116,724149,80160,103002,68030,12427,16760251,14251,15824,Tag0,unknown
160,1611472556374,26,336,7.382812500000001e-05,13,60,116,724149,80160,103002,68030,12427,16760251,14251,15824,Tag0,unknown
161,1611472556384,26,-408,-8.964843749999999e-05,13,60,116,724149,80160,103002,68030,12427,16760251,14251,15824,Tag0,unknown
162,1611472556394,26,199,4.37255859375e-05,13,60,116,724149,80160,103002,68030,12427,16760251,14251,15824,Tag0,unknown
163,1611472556412,26,261,5.73486328125e-05,13,60,116,724149,80160,103002,68030,12427,16760251,14251,15824,Tag0,unknown
164,1611472556428,26,1,2.197265625e-07,13,60,116,724149,80160,103002,68030,12427,16760251,14251,15824,Tag0,unknown
165,1611472556446,26,-141,-3.09814453125e-05,13,60,116,724149,80160,103002,68030,12427,16760251,14251,15824,Tag0,unknown
166,1611472556456,26,-229,-5.03173828125e-05,13,60,116,724149,80160,103002,68030,12427,16760251,14251,15824,Tag0,unknown
167,1611472556480,26,252,5.537109375e-05,13,60,116,724149,80160,103002,68030,12427,16760251,14251,15824,Tag0,unknown
168,1611472556498,26,-195,-4.28466796875e-05,13,60,116,724149,80160,103002,68030,12427,16760251,14251,15824,Tag0,unknown
169,1611472556514,26,349,7.668457031250001e-05,13,60,116,724149,80160,103002,68030,12427,16760251,14251,15824,Tag0,unknown
170,1611472556524,26,-229,-5.03173828125e-05,13,60,116,724149,80160,103002,68030,12427,16760251,14251,15824,Tag0,unknown
171,1611472556537,26,715,0.0001571044921875,13,60,116,724149,80160,103002,68030,12427,16760251,14251,15824,Tag0,unknown
172,1611472556547,26,567,0.0001245849609375,13,60,116,724149,80160,103002,68030,12427,16760251,14251,15824,Tag0,unknown
173,1611472556564,26,521,0.0001144775390625,13,60,116,724149,80160,103002,68030,12427,16760251,14251,15824,Tag0,unknown
174,1611472556580,26,-953,-0.0002093994140625,13,60,116,724149,80160,103002,68030,12427,16760251,14251,15824,Tag0,unknown
175,1611472556590,26,-187,-4.10888671875e-05,13,60,116,724149,80160,103002,68030,12427,16760251,14251,15824,Tag0,unknown
176,1611472556600,26,-829,-0.0001821533203125,13,60,116,724149,80160,103002,68030,12427,16760251,14251,15824,Tag0,unknown
177,1611472556612,26,249,5.47119140625e-05,13,60,116,724149,80160,103002,68030,12427,16760251,14251,15824,Tag0,unknown
178,1611472556628,26,-315,-6.92138671875e-05,13,60,116,724149,80160,103002,68030,12427,16760251,14251,15824,Tag0,unknown
179,1611472556651,26,-441,-9.68994140625e-05,13,60,116,724149,80160,103002,68030,12427,16760251,14251,15824,Tag0,unknown
180,1611472556666,26,277,6.086425781250001e-05,13,60,116,724149,80160,103002,68030,12427,16760251,14251,15824,Tag0,unknown
181,1611472556679,26,-477,-0.0001048095703125,13,60,116,724149,80160,103002,68030,12427,16760251,14251,15824,Tag0,unknown
182,1611472556696,26,-471,-0.0001034912109375,13,60,116,724149,80160,103002,68030,12427,16760251,14251,15824,Tag0,unknown
183,1611472556718,26,-547,-0.0001201904296875,13,60,116,724149,80160,103002,68030,12427,16760251,14251,15824,Tag0,unknown
184,1611472556732,26,258,5.6689453125e-05,13,60,116,724149,80160,103002,68030,12427,16760251,14251,15824,Tag0,unknown
185,1611472556753,26,294,6.4599609375e-05,13,60,116,724149,80160,103002,68030,12427,16760251,14251,15824,Tag0,unknown
186,1611472556766,26,565,0.0001241455078125,13,60,116,724149,80160,103002,68030,12427,16760251,14251,15824,Tag0,unknown
187,1611472556781,26,-157,-3.44970703125e-05,13,60,116,724149,80160,103002,68030,12427,16760251,14251,15824,Tag0,unknown
188,1611472556795,26,630,0.000138427734375,13,60,116,724149,80160,103002,68030,12427,16760251,14251,15824,Tag0,unknown
189,1611472556814,26,71,1.56005859375e-05,13,60,116,724149,80160,103002,68030,12427,16760251,14251,15824,Tag0,unknown
190,1611472556828,26,-419,-9.20654296875e-05,13,60,116,724149,80160,103002,68030,12427,16760251,14251,15824,Tag0,unknown
191,1611472556855,26,170,3.7353515625e-05,13,60,116,724149,80160,103002,68030,12427,16760251,14251,15824,Tag0,unknown
192,1611472556866,26,115,2.52685546875e-05,13,60,116,724149,80160,103002,68030,12427,16760251,14251,15824,Tag0,unknown
193,1611472556889,26,-635,-0.0001395263671875,13,60,116,724149,80160,103002,68030,12427,16760251,14251,15824,Tag0,unknown
194,1611472556900,26,183,4.02099609375e-05,13,60,116,724149,80160,103002,68030,12427,16760251,14251,15824,Tag0,unknown
195,1611472556916,26,180,3.955078125e-05,13,60,116,724149,80160,103002,68030,12427,16760251,14251,15824,Tag0,unknown
196,1611472556964,26,-317,-6.96533203125e-05,13,60,116,724149,80160,103002,68030,12427,16760251,14251,15824,Tag0,unknown
197,1611472556980,26,-328,-7.207031249999999e-05,13,60,116,724149,80160,103002,68030,12427,16760251,14251,15824,Tag0,unknown
198,1611472557031,26,-444,-9.755859375e-05,13,60,116,724149,80160,103002,68030,12427,16760251,14251,15824,Tag0,unknown
199,1611472557047,26,11,2.4169921875e-06,13,60,116,724149,80160,103002,68030,12427,16760251,14251,15824,Tag0,unknown
200,1611472557099,26,228,5.009765625000001e-05,13,60,116,724149,80160,103002,68030,12427,16760251,14251,15824,Tag0,unknown
201,1611472557115,26,-194,-4.2626953125e-05,13,60,116,724149,80160,103002,68030,12427,16760251,14251,15824,Tag0,unknown
202,1611472557239,26,276,6.064453125e-05,13,60,116,724149,80160,103002,68030,12427,16760251,14251,15824,Tag0,unknown
203,1611472557259,26,-598,-0.000131396484375,13,60,116,724149,80160,103002,68030,12427,16760251,14251,15824,Tag0,unknown
204,1611472557269,26,585,0.0001285400390625,13,60,116,724149,80160,103002,68030,12427,16760251,14251,15824,Tag0,unknown
205,1611472557280,26,125,2.74658203125e-05,13,60,116,724149,80160,103002,68030,12427,16760251,14251,15824,Tag0,unknown
206,1611472557308,26,633,0.00013908691406250002,13,60,116,724149,80160,103002,68030,12427,16760251,14251,15824,Tag0,unknown
207,1611472557332,26,375,8.23974609375e-05,13,60,116,724149,80160,103002,68030,12427,16760251,14251,15824,Tag0,unknown
208,1611472557374,26,-322,-7.0751953125e-05,13,60,116,724149,80160,103002,68030,12427,16760251,14251,15824,Tag0,unknown
209,1611472557384,26,403,8.854980468749999e-05,13,60,116,724149,80160,103002,68030,12427,16760251,14251,15824,Tag0,unknown
210,1611472557445,26,-56,-1.23046875e-05,13,60,116,724149,80160,103002,68030,12427,16760251,14251,15824,Tag0,unknown
211,1611472557470,26,624,0.000137109375,13,60,116,724149,80160,103002,68030,12427,16760251,14251,15824,Tag0,unknown
212,1611472557480,26,555,0.0001219482421875,13,60,116,724149,80160,103002,68030,12427,16760251,14251,15824,Tag0,unknown
213,1611472557490,26,811,0.0001781982421875,13,60,116,1112228,432528,102977,214274,16748524,156082,16775977,16746039,Tag0,unknown
214,1611472557506,26,-309,-6.78955078125e-05,13,60,116,1112228,432528,102977,214274,16748524,156082,16775977,16746039,Tag0,unknown
215,1611472557516,26,45,9.8876953125e-06,13,60,116,1112228,432528,102977,214274,16748524,156082,16775977,16746039,Tag0,unknown
216,1611472557526,26,-116,-2.548828125e-05,13,60,116,1112228,432528,102977,214274,16748524,156082,16775977,16746039,Tag0,unknown
217,1611472557536,26,-539,-0.0001184326171875,13,60,116,1112228,432528,102977,214274,16748524,156082,16775977,16746039,Tag0,unknown
218,1611472557548,26,145,3.18603515625e-05,13,60,116,1112228,432528,102977,214274,16748524,156082,16775977,16746039,Tag0,unknown
219,1611472557563,26,43,9.4482421875e-06,13,60,116,1112228,432528,102977,214274,16748524,156082,16775977,16746039,Tag0,unknown
220,1611472557580,26,-783,-0.0001720458984375,13,60,116,1112228,432528,102977,214274,16748524,156082,16775977,16746039,Tag0,unknown
221,1611472557602,26,107,2.35107421875e-05,13,60,116,1112228,432528,102977,214274,16748524,156082,16775977,16746039,Tag0,unknown
222,1611472557615,26,41,9.0087890625e-06,13,60,116,1112228,432528,102977,214274,16748524,156082,16775977,16746039,Tag0,unknown
223,1611472557636,26,-55,-1.20849609375e-05,13,60,116,1112228,432528,102977,214274,16748524,156082,16775977,16746039,Tag0,unknown
224,1611472557651,26,-451,-9.90966796875e-05,13,60,116,1112228,432528,102977,214274,16748524,156082,16775977,16746039,Tag0,unknown
225,1611472557661,26,-181,-3.97705078125e-05,13,60,116,1112228,432528,102977,214274,16748524,156082,16775977,16746039,Tag0,unknown
226,1611472557677,26,-69,-1.51611328125e-05,13,60,116,1112228,432528,102977,214274,16748524,156082,16775977,16746039,Tag0,unknown
227,1611472557687,26,91,1.99951171875e-05,13,60,116,1112228,432528,102977,214274,16748524,156082,16775977,16746039,Tag0,unknown
228,1611472557714,26,-493,-0.0001083251953125,13,60,116,1112228,432528,102977,214274,16748524,156082,16775977,16746039,Tag0,unknown
229,1611472557731,26,-615,-0.0001351318359375,13,60,116,1112228,432528,102977,214274,16748524,156082,16775977,16746039,Tag0,unknown
230,1611472557741,26,35,7.6904296875e-06,13,60,116,1112228,432528,102977,214274,16748524,156082,16775977,16746039,Tag0,unknown
231,1611472557764,26,-632,-0.00013886718750000002,13,60,116,1112228,432528,102977,214274,16748524,156082,16775977,16746039,Tag0,unknown
232,1611472557784,26,-205,-4.50439453125e-05,13,60,116,1112228,432528,102977,214274,16748524,156082,16775977,16746039,Tag0,unknown
233,1611472557797,26,-149,-3.27392578125e-05,13,60,116,1112228,432528,102977,214274,16748524,156082,16775977,16746039,Tag0,unknown
234,1611472557807,26,-129,-2.83447265625e-05,13,60,116,1112228,432528,102977,214274,16748524,156082,16775977,16746039,Tag0,unknown
235,1611472557827,26,251,5.51513671875e-05,13,60,116,1112228,432528,102977,214274,16748524,156082,16775977,16746039,Tag0,unknown
236,1611472557847,26,-338,-7.426757812499999e-05,13,60,116,1112228,432528,102977,214274,16748524,156082,16775977,16746039,Tag0,unknown
237,1611472557864,26,596,0.00013095703125,13,60,116,1112228,432528,102977,214274,16748524,156082,16775977,16746039,Tag0,unknown
238,1611472557881,26,-302,-6.6357421875e-05,13,60,116,1112228,432528,102977,214274,16748524,156082,16775977,16746039,Tag0,unknown
239,1611472557900,26,-609,-0.0001338134765625,13,60,116,1112228,432528,102977,214274,16748524,156082,16775977,16746039,Tag0,unknown
240,1611472557916,26,-3,-6.591796875e-07,13,60,116,1112228,432528,102977,214274,16748524,156082,16775977,16746039,Tag0,unknown
241,1611472557926,26,72,1.58203125e-05,13,60,116,1112228,432528,102977,214274,16748524,156082,16775977,16746039,Tag0,unknown
242,1611472557942,26,203,4.4604492187500014e-05,13,60,116,1112228,432528,102977,214274,16748524,156082,16775977,16746039,Tag0,unknown
243,1611472557952,26,96,2.109375e-05,13,60,116,1112228,432528,102977,214274,16748524,156082,16775977,16746039,Tag0,unknown
244,1611472557965,26,-231,-5.07568359375e-05,13,60,116,1112228,432528,102977,214274,16748524,156082,16775977,16746039,Tag0,unknown
245,1611472557991,26,315,6.92138671875e-05,13,60,116,1112228,432528,102977,214274,16748524,156082,16775977,16746039,Tag0,unknown
246,1611472558025,26,-19,-4.1748046875e-06,13,60,116,1112228,432528,102977,214274,16748524,156082,16775977,16746039,Tag0,unknown
247,1611472558035,26,35,7.6904296875e-06,13,60,116,1112228,432528,102977,214274,16748524,156082,16775977,16746039,Tag0,unknown
248,1611472558045,26,234,5.1416015625e-05,13,60,116,1112228,432528,102977,214274,16748524,156082,16775977,16746039,Tag0,unknown
249,1611472558055,26,-343,-7.53662109375e-05,13,60,116,1112228,432528,102977,214274,16748524,156082,16775977,16746039,Tag0,unknown
250,1611472558068,26,425,9.33837890625e-05,13,60,116,1112228,432528,102977,214274,16748524,156082,16775977,16746039,Tag0,unknown
251,1611472558083,26,267,5.86669921875e-05,13,60,116,1112228,432528,102977,214274,16748524,156082,16775977,16746039,Tag0,unknown
252,1611472558102,26,-183,-4.02099609375e-05,13,60,116,1112228,432528,102977,214274,16748524,156082,16775977,16746039,Tag0,unknown
253,1611472558117,26,192,4.21875e-05,13,60,116,1112228,432528,102977,214274,16748524,156082,16775977,16746039,Tag0,unknown
254,1611472558127,26,1033,0.0002269775390625,13,60,116,316842,16769814,37896,22045,25917,16760809,4311,1676,Tag0,unknown
255,1611472558143,26,-626,-0.000137548828125,13,60,116,316842,16769814,37896,22045,25917,16760809,4311,1676,Tag0,unknown
256,1611472558153,26,325,7.14111328125e-05,13,60,116,316842,16769814,37896,22045,25917,16760809,4311,1676,Tag0,unknown
257,1611472558164,26,172,3.779296875000001e-05,13,60,116,316842,16769814,37896,22045,25917,16760809,4311,1676,Tag0,unknown
258,1611472558181,26,345,7.58056640625e-05,13,60,116,316842,16769814,37896,22045,25917,16760809,4311,1676,Tag0,unknown
259,1611472558210,26,-785,-0.0001724853515625,13,60,116,316842,16769814,37896,22045,25917,16760809,4311,1676,Tag0,unknown
260,1611472558220,26,-411,-9.03076171875e-05,13,60,116,316842,16769814,37896,22045,25917,16760809,4311,1676,Tag0,unknown
261,1611472558235,26,-909,-0.0001997314453125,13,60,116,316842,16769814,37896,22045,25917,16760809,4311,1676,Tag0,unknown
262,1611472558245,26,-554,-0.000121728515625,13,60,116,316842,16769814,37896,22045,25917,16760809,4311,1676,Tag0,unknown
263,1611472558256,26,-347,-7.62451171875e-05,13,60,116,316842,16769814,37896,22045,25917,16760809,4311,1676,Tag0,unknown
264,1611472558283,26,-100,-2.197265625e-05,13,60,116,316842,16769814,37896,22045,25917,16760809,4311,1676,Tag0,unknown
265,1611472558299,26,296,6.50390625e-05,13,60,116,316842,16769814,37896,22045,25917,16760809,4311,1676,Tag0,unknown
266,1611472558309,26,-1015,-0.0002230224609375,13,60,116,316842,16769814,37896,22045,25917,16760809,4311,1676,Tag0,unknown
267,1611472558325,26,-1060,-0.00023291015625,13,60,116,316842,16769814,37896,22045,25917,16760809,4311,1676,Tag0,unknown
268,1611472558335,26,-360,-7.91015625e-05,13,60,116,316842,16769814,37896,22045,25917,16760809,4311,1676,Tag0,unknown
269,1611472558359,26,229,5.03173828125e-05,13,60,116,316842,16769814,37896,22045,25917,16760809,4311,1676,Tag0,unknown
270,1611472558369,26,-117,-2.57080078125e-05,13,60,116,316842,16769814,37896,22045,25917,16760809,4311,1676,Tag0,unknown
271,1611472558382,26,-379,-8.32763671875e-05,13,60,116,316842,16769814,37896,22045,25917,16760809,4311,1676,Tag0,unknown
272,1611472558398,26,793,0.0001742431640625,13,60,116,316842,16769814,37896,22045,25917,16760809,4311,1676,Tag0,unknown
273,1611472558414,26,-109,-2.39501953125e-05,13,60,116,316842,16769814,37896,22045,25917,16760809,4311,1676,Tag0,unknown
274,1611472558431,26,-235,-5.16357421875e-05,13,60,116,316842,16769814,37896,22045,25917,16760809,4311,1676,Tag0,unknown
275,1611472558449,26,-525,-0.0001153564453125,13,60,116,316842,16769814,37896,22045,25917,16760809,4311,1676,Tag0,unknown
276,1611472558470,26,-372,-8.173828125e-05,13,60,116,316842,16769814,37896,22045,25917,16760809,4311,1676,Tag0,unknown
277,1611472558484,26,-275,-6.04248046875e-05,13,60,116,316842,16769814,37896,22045,25917,16760809,4311,1676,Tag0,unknown
278,1611472558494,26,214,4.7021484375e-05,13,60,116,316842,16769814,37896,22045,25917,16760809,4311,1676,Tag0,unknown
279,1611472558505,26,-233,-5.119628906250001e-05,13,60,116,316842,16769814,37896,22045,25917,16760809,4311,1676,Tag0,unknown
280,1611472558520,26,88,1.93359375e-05,13,60,116,316842,16769814,37896,22045,25917,16760809,4311,1676,Tag0,unknown
281,1611472558530,26,71,1.56005859375e-05,13,60,116,316842,16769814,37896,22045,25917,16760809,4311,1676,Tag0,unknown
282,1611472558548,26,137,3.01025390625e-05,13,60,116,316842,16769814,37896,22045,25917,16760809,4311,1676,Tag0,unknown
283,1611472558577,26,-149,-3.27392578125e-05,13,60,116,316842,16769814,37896,22045,25917,16760809,4311,1676,Tag0,unknown
284,1611472558598,26,261,5.73486328125e-05,13,60,116,316842,16769814,37896,22045,25917,16760809,4311,1676,Tag0,unknown
285,1611472558616,26,384,8.4375e-05,13,60,116,316842,16769814,37896,22045,25917,16760809,4311,1676,Tag0,unknown
286,1611472558634,26,-401,-8.811035156250001e-05,13,60,116,316842,16769814,37896,22045,25917,16760809,4311,1676,Tag0,unknown
287,1611472558653,26,-232,-5.09765625e-05,13,60,116,316842,16769814,37896,22045,25917,16760809,4311,1676,Tag0,unknown
288,1611472558667,26,-777,-0.0001707275390625,13,60,116,316842,16769814,37896,22045,25917,16760809,4311,1676,Tag0,unknown
289,1611472558677,26,-146,-3.2080078125000004e-05,13,60,116,316842,16769814,37896,22045,25917,16760809,4311,1676,Tag0,unknown
290,1611472558688,26,-219,-4.81201171875e-05,13,60,116,316842,16769814,37896,22045,25917,16760809,4311,1676,Tag0,unknown
291,1611472558700,26,321,7.053222656250001e-05,13,60,116,316842,16769814,37896,22045,25917,16760809,4311,1676,Tag0,unknown
292,1611472558721,26,-308,-6.767578125e-05,13,60,116,316842,16769814,37896,22045,25917,16760809,4311,1676,Tag0,unknown
293,1611472558735,26,388,8.525390625e-05,13,60,116,316842,16769814,37896,22045,25917,16760809,4311,1676,Tag0,unknown
294,1611472558745,26,-569,-0.0001250244140625,13,60,116,316842,16769814,37896,22045,25917,16760809,4311,1676,Tag0,unknown
295,1611472558761,26,-380,-8.349609375e-05,13,60,116,316842,16769814,37896,22045,25917,16760809,4311,1676,Tag0,unknown
296,1611472558782,26,582,0.000127880859375,13,60,116,316842,16769814,37896,22045,25917,16760809,4311,1676,Tag0,unknown
297,1611472558799,26,-276,-6.064453125e-05,13,60,116,316842,16769814,37896,22045,25917,16760809,4311,1676,Tag0,unknown
298,1611472558816,26,499,0.0001096435546875,13,60,116,316842,16769814,37896,22045,25917,16760809,4311,1676,Tag0,unknown
299,1611472558834,26,-126,-2.7685546875e-05,13,60,116,316842,16769814,37896,22045,25917,16760809,4311,1676,Tag0,unknown
300,1611472558850,26,304,6.6796875e-05,13,60,116,316842,16769814,37896,22045,25917,16760809,4311,1676,Tag0,unknown
301,1611472558868,26,357,7.844238281250001e-05,13,60,116,316842,16769814,37896,22045,25917,16760809,4311,1676,Tag0,unknown
302,1611472558884,26,217,4.76806640625e-05,13,60,116,316842,16769814,37896,22045,25917,16760809,4311,1676,Tag0,unknown
303,1611472558894,26,-565,-0.0001241455078125,13,60,116,316842,16769814,37896,22045,25917,16760809,4311,1676,Tag0,unknown
304,1611472558905,26,-1745,-0.0003834228515625,13,60,116,316842,16769814,37896,22045,25917,16760809,4311,1676,Tag0,unknown
305,1611472558917,26,-1277,-0.0002805908203125,13,60,116,316842,16769814,37896,22045,25917,16760809,4311,1676,Tag0,unknown
306,1611472558938,26,-985,-0.0002164306640625,13,60,116,316842,16769814,37896,22045,25917,16760809,4311,1676,Tag0,unknown
307,1611472558948,26,-1796,-0.00039462890625,13,60,116,316842,16769814,37896,22045,25917,16760809,4311,1676,Tag0,unknown
308,1611472558967,26,1791,0.0003935302734375,13,60,116,316842,16769814,37896,22045,25917,16760809,4311,1676,Tag0,unknown
309,1611472558984,26,1459,0.00032058105468750004,13,60,116,316842,16769814,37896,22045,25917,16760809,4311,1676,Tag0,unknown
310,1611472558999,26,989,0.0002173095703125,13,60,116,316842,16769814,37896,22045,25917,16760809,4311,1676,Tag0,unknown
311,1611472559024,26,1121,0.0002463134765625,13,60,116,316842,16769814,37896,22045,25917,16760809,4311,1676,Tag0,unknown
312,1611472559034,26,819,0.0001799560546875,13,60,116,316842,16769814,37896,22045,25917,16760809,4311,1676,Tag0,unknown
313,1611472559044,26,389,8.54736328125e-05,13,60,116,316842,16769814,37896,22045,25917,16760809,4311,1676,Tag0,unknown
314,1611472559054,26,512,0.0001125,13,60,116,316842,16769814,37896,22045,25917,16760809,4311,1676,Tag0,unknown
315,1611472559064,26,141,3.09814453125e-05,13,60,116,316842,16769814,37896,22045,25917,16760809,4311,1676,Tag0,unknown
316,1611472559085,26,320,7.03125e-05,13,60,116,316842,16769814,37896,22045,25917,16760809,4311,1676,Tag0,unknown
317,1611472559100,26,310,6.8115234375e-05,13,60,116,316842,16769814,37896,22045,25917,16760809,4311,1676,Tag0,unknown
318,1611472559120,26,-72,-1.58203125e-05,13,60,116,1859052,89685,8551,15979,15730,16768862,31961,14651,Tag0,unknown
319,1611472559131,26,-75,-1.64794921875e-05,13,60,116,1859052,89685,8551,15979,15730,16768862,31961,14651,Tag0,unknown
320,1611472559155,26,-119,-2.6147460937500007e-05,13,60,116,1859052,89685,8551,15979,15730,16768862,31961,14651,Tag0,unknown
321,1611472559167,26,-121,-2.6586914062500006e-05,13,60,116,1859052,89685,8551,15979,15730,16768862,31961,14651,Tag0,unknown
322,1611472559191,26,92,2.021484375e-05,13,60,116,1859052,89685,8551,15979,15730,16768862,31961,14651,Tag0,unknown
323,1611472559201,26,89,1.95556640625e-05,13,60,116,1859052,89685,8551,15979,15730,16768862,31961,14651,Tag0,unknown
324,1611472559225,26,85,1.86767578125e-05,13,60,116,1859052,89685,8551,15979,15730,16768862,31961,14651,Tag0,unknown
325,1611472559235,26,84,1.8457031250000007e-05,13,60,116,1859052,89685,8551,15979,15730,16768862,31961,14651,Tag0,unknown
326,1611472559245,26,-328,-7.207031249999999e-05,13,60,116,1859052,89685,8551,15979,15730,16768862,31961,14651,Tag0,unknown
327,1611472559266,26,-677,-0.00014875488281250002,13,60,116,1859052,89685,8551,15979,15730,16768862,31961,14651,Tag0,unknown
328,1611472559282,26,-809,-0.0001777587890625,13,60,116,1859052,89685,8551,15979,15730,16768862,31961,14651,Tag0,unknown
329,1611472559301,26,-2048,-0.00045,13,60,116,1859052,89685,8551,15979,15730,16768862,31961,14651,Tag0,unknown
330,1611472559317,26,-2048,-0.00045,13,60,116,1859052,89685,8551,15979,15730,16768862,31961,14651,Tag0,unknown
331,1611472559327,26,-2048,-0.00045,13,60,116,1859052,89685,8551,15979,15730,16768862,31961,14651,Tag0,unknown
332,1611472559339,26,-1708,-0.00037529296875,13,60,116,1859052,89685,8551,15979,15730,16768862,31961,14651,Tag0,unknown
333,1611472559353,26,-1837,-0.0004036376953125,13,60,116,1859052,89685,8551,15979,15730,16768862,31961,14651,Tag0,unknown
334,1611472559372,26,-1329,-0.00029201660156250004,13,60,116,1859052,89685,8551,15979,15730,16768862,31961,14651,Tag0,unknown
335,1611472559387,26,-1285,-0.0002823486328125,13,60,116,1859052,89685,8551,15979,15730,16768862,31961,14651,Tag0,unknown
336,1611472559397,26,-865,-0.0001900634765625,13,60,116,1859052,89685,8551,15979,15730,16768862,31961,14651,Tag0,unknown
337,1611472559410,26,-635,-0.0001395263671875,13,60,116,1859052,89685,8551,15979,15730,16768862,31961,14651,Tag0,unknown
338,1611472559420,26,-620,-0.00013623046875,13,60,116,1859052,89685,8551,15979,15730,16768862,31961,14651,Tag0,unknown
339,1611472559444,26,-209,-4.59228515625e-05,13,60,116,1859052,89685,8551,15979,15730,16768862,31961,14651,Tag0,unknown
340,1611472559466,26,-364,-7.998046875e-05,13,60,116,1859052,89685,8551,15979,15730,16768862,31961,14651,Tag0,unknown
341,1611472559489,26,-297,-6.525878906250001e-05,13,60,116,1859052,89685,8551,15979,15730,16768862,31961,14651,Tag0,unknown
342,1611472559507,26,-294,-6.4599609375e-05,13,60,116,1859052,89685,8551,15979,15730,16768862,31961,14651,Tag0,unknown
343,1611472559517,26,-262,-5.7568359375e-05,13,60,116,1859052,89685,8551,15979,15730,16768862,31961,14651,Tag0,unknown
344,1611472559527,26,19,4.1748046875e-06,13,60,116,1859052,89685,8551,15979,15730,16768862,31961,14651,Tag0,unknown
345,1611472559537,26,21,4.614257812500002e-06,13,60,116,1859052,89685,8551,15979,15730,16768862,31961,14651,Tag0,unknown
346,1611472559552,26,35,7.6904296875e-06,13,60,116,1859052,89685,8551,15979,15730,16768862,31961,14651,Tag0,unknown
347,1611472559569,26,37,8.1298828125e-06,13,60,116,1859052,89685,8551,15979,15730,16768862,31961,14651,Tag0,unknown
348,1611472559586,26,43,9.4482421875e-06,13,60,116,1859052,89685,8551,15979,15730,16768862,31961,14651,Tag0,unknown
349,1611472559596,26,53,1.1645507812500003e-05,13,60,116,1859052,89685,8551,15979,15730,16768862,31961,14651,Tag0,unknown
350,1611472559617,26,55,1.20849609375e-05,13,60,116,1859052,89685,8551,15979,15730,16768862,31961,14651,Tag0,unknown
351,1611472559637,26,58,1.2744140625e-05,13,60,116,1859052,89685,8551,15979,15730,16768862,31961,14651,Tag0,unknown
352,1611472559650,26,57,1.25244140625e-05,13,60,116,1859052,89685,8551,15979,15730,16768862,31961,14651,Tag0,unknown
353,1611472559675,26,62,1.3623046875e-05,13,60,116,1859052,89685,8551,15979,15730,16768862,31961,14651,Tag0,unknown
354,1611472559685,26,61,1.34033203125e-05,13,60,116,1859052,89685,8551,15979,15730,16768862,31961,14651,Tag0,unknown
355,1611472559709,26,61,1.34033203125e-05,13,60,116,1859052,89685,8551,15979,15730,16768862,31961,14651,Tag0,unknown
356,1611472559721,26,64,1.40625e-05,13,60,116,1859052,89685,8551,15979,15730,16768862,31961,14651,Tag0,unknown
357,1611472559732,26,65,1.42822265625e-05,13,60,116,1859052,89685,8551,15979,15730,16768862,31961,14651,Tag0,unknown
358,1611472559755,26,65,1.42822265625e-05,13,60,116,1859052,89685,8551,15979,15730,16768862,31961,14651,Tag0,unknown
359,1611472559769,26,65,1.42822265625e-05,13,60,116,1859052,89685,8551,15979,15730,16768862,31961,14651,Tag0,unknown
360,1611472559785,26,65,1.42822265625e-05,13,60,116,1859052,89685,8551,15979,15730,16768862,31961,14651,Tag0,unknown
361,1611472559801,26,65,1.42822265625e-05,13,60,116,1859052,89685,8551,15979,15730,16768862,31961,14651,Tag0,unknown
362,1611472559821,26,66,1.4501953125e-05,13,60,116,1859052,89685,8551,15979,15730,16768862,31961,14651,Tag0,unknown
363,1611472559837,26,66,1.4501953125e-05,13,60,116,1859052,89685,8551,15979,15730,16768862,31961,14651,Tag0,unknown
364,1611472559856,26,65,1.42822265625e-05,13,60,116,1859052,89685,8551,15979,15730,16768862,31961,14651,Tag0,unknown
365,1611472559870,26,66,1.4501953125e-05,13,60,116,1859052,89685,8551,15979,15730,16768862,31961,14651,Tag0,unknown
366,1611472559880,26,65,1.42822265625e-05,13,60,116,1859052,89685,8551,15979,15730,16768862,31961,14651,Tag0,unknown
367,1611472559896,26,65,1.42822265625e-05,13,60,116,1859052,89685,8551,15979,15730,16768862,31961,14651,Tag0,unknown
368,1611472559906,26,66,1.4501953125e-05,13,60,116,1859052,89685,8551,15979,15730,16768862,31961,14651,Tag0,unknown
369,1611472559930,26,65,1.42822265625e-05,13,60,116,1859052,89685,8551,15979,15730,16768862,31961,14651,Tag0,unknown
370,1611472559940,26,65,1.42822265625e-05,13,60,116,1859052,89685,8551,15979,15730,16768862,31961,14651,Tag0,unknown
371,1611472559956,26,65,1.42822265625e-05,13,60,116,1859052,89685,8551,15979,15730,16768862,31961,14651,Tag0,unknown
372,1611472559971,26,66,1.4501953125e-05,13,60,116,1859052,89685,8551,15979,15730,16768862,31961,14651,Tag0,unknown
373,1611472559984,26,64,1.40625e-05,13,60,116,1859052,89685,8551,15979,15730,16768862,31961,14651,Tag0,unknown
374,1611472560002,26,66,1.4501953125e-05,13,60,116,1859052,89685,8551,15979,15730,16768862,31961,14651,Tag0,unknown
375,1611472560024,26,65,1.42822265625e-05,13,60,116,1859052,89685,8551,15979,15730,16768862,31961,14651,Tag0,unknown
376,1611472560044,26,66,1.4501953125e-05,13,60,116,1859052,89685,8551,15979,15730,16768862,31961,14651,Tag0,unknown
377,1611472560054,26,65,1.42822265625e-05,13,60,116,1859052,89685,8551,15979,15730,16768862,31961,14651,Tag0,unknown
378,1611472560076,26,66,1.4501953125e-05,13,60,116,1859052,89685,8551,15979,15730,16768862,31961,14651,Tag0,unknown
379,1611472560086,26,64,1.40625e-05,13,60,116,1859052,89685,8551,15979,15730,16768862,31961,14651,Tag0,unknown
380,1611472560127,25,67,1.4721679687500003e-05,13,60,116,2261570,222141,16775458,28154,11340,13879,3384,888,Tag0,unknown
381,1611472560138,25,66,1.4501953125e-05,13,60,116,2261570,222141,16775458,28154,11340,13879,3384,888,Tag0,unknown
382,1611472560151,25,66,1.4501953125e-05,13,60,116,2261570,222141,16775458,28154,11340,13879,3384,888,Tag0,unknown
383,1611472560167,25,67,1.4721679687500003e-05,13,60,116,2261570,222141,16775458,28154,11340,13879,3384,888,Tag0,unknown
384,1611472560186,25,760,0.0001669921875,13,60,116,2261570,222141,16775458,28154,11340,13879,3384,888,Tag0,unknown
385,1611472560204,25,1447,0.0003179443359375,13,60,116,2261570,222141,16775458,28154,11340,13879,3384,888,Tag0,unknown
386,1611472560220,25,426,9.3603515625e-05,13,60,116,2261570,222141,16775458,28154,11340,13879,3384,888,Tag0,unknown
387,1611472560236,25,653,0.0001434814453125,13,60,116,2261570,222141,16775458,28154,11340,13879,3384,888,Tag0,unknown
388,1611472560263,25,248,5.44921875e-05,13,60,116,2261570,222141,16775458,28154,11340,13879,3384,888,Tag0,unknown
389,1611472560273,25,267,5.86669921875e-05,13,60,116,2261570,222141,16775458,28154,11340,13879,3384,888,Tag0,unknown
390,1611472560287,25,491,0.0001078857421875,13,60,116,2261570,222141,16775458,28154,11340,13879,3384,888,Tag0,unknown
391,1611472560302,25,-569,-0.0001250244140625,13,60,116,2261570,222141,16775458,28154,11340,13879,3384,888,Tag0,unknown
392,1611472560319,25,64,1.40625e-05,13,60,116,2261570,222141,16775458,28154,11340,13879,3384,888,Tag0,unknown
393,1611472560339,25,-128,-2.8125e-05,13,60,116,2261570,222141,16775458,28154,11340,13879,3384,888,Tag0,unknown
394,1611472560355,25,18,3.955078125e-06,13,60,116,2261570,222141,16775458,28154,11340,13879,3384,888,Tag0,unknown
395,1611472560365,25,-295,-6.48193359375e-05,13,60,116,2261570,222141,16775458,28154,11340,13879,3384,888,Tag0,unknown
396,1611472560378,25,772,0.00016962890625000002,13,60,116,2261570,222141,16775458,28154,11340,13879,3384,888,Tag0,unknown
397,1611472560388,25,345,7.58056640625e-05,13,60,116,2261570,222141,16775458,28154,11340,13879,3384,888,Tag0,unknown
398,1611472560411,25,657,0.0001443603515625,13,60,116,2261570,222141,16775458,28154,11340,13879,3384,888,Tag0,unknown
399,1611472560424,25,39,8.5693359375e-06,13,60,116,2261570,222141,16775458,28154,11340,13879,3384,888,Tag0,unknown
400,1611472560434,25,327,7.18505859375e-05,13,60,116,2261570,222141,16775458,28154,11340,13879,3384,888,Tag0,unknown
401,1611472560444,25,-278,-6.108398437500001e-05,13,60,116,2261570,222141,16775458,28154,11340,13879,3384,888,Tag0,unknown
402,1611472560455,25,473,0.0001039306640625,13,60,116,2261570,222141,16775458,28154,11340,13879,3384,888,Tag0,unknown
403,1611472560470,25,-266,-5.8447265625e-05,13,60,116,2261570,222141,16775458,28154,11340,13879,3384,888,Tag0,unknown
404,1611472560491,25,67,1.4721679687500003e-05,13,60,116,2261570,222141,16775458,28154,11340,13879,3384,888,Tag0,unknown
405,1611472560501,25,725,0.0001593017578125,13,60,116,2261570,222141,16775458,28154,11340,13879,3384,888,Tag0,unknown
406,1611472560520,25,1369,0.00030080566406250005,13,60,116,2261570,222141,16775458,28154,11340,13879,3384,888,Tag0,unknown
407,1611472560537,25,386,8.481445312500001e-05,13,60,116,2261570,222141,16775458,28154,11340,13879,3384,888,Tag0,unknown
408,1611472560556,25,-1708,-0.00037529296875,13,60,116,2261570,222141,16775458,28154,11340,13879,3384,888,Tag0,unknown
409,1611472560570,25,-1153,-0.0002533447265625,13,60,116,2261570,222141,16775458,28154,11340,13879,3384,888,Tag0,unknown
410,1611472560590,25,-105,-2.30712890625e-05,13,60,116,2261570,222141,16775458,28154,11340,13879,3384,888,Tag0,unknown
411,1611472560600,25,305,6.70166015625e-05,13,60,116,2261570,222141,16775458,28154,11340,13879,3384,888,Tag0,unknown
412,1611472560610,25,-349,-7.668457031250001e-05,13,60,116,2261570,222141,16775458,28154,11340,13879,3384,888,Tag0,unknown
413,1611472560624,25,-105,-2.30712890625e-05,13,60,116,2261570,222141,16775458,28154,11340,13879,3384,888,Tag0,unknown
414,1611472560637,25,837,0.0001839111328125,13,60,116,2261570,222141,16775458,28154,11340,13879,3384,888,Tag0,unknown
415,1611472560653,25,439,9.64599609375e-05,13,60,116,2261570,222141,16775458,28154,11340,13879,3384,888,Tag0,unknown
416,1611472560669,25,382,8.3935546875e-05,13,60,116,2261570,222141,16775458,28154,11340,13879,3384,888,Tag0,unknown
417,1611472560700,25,-22,-4.833984375e-06,13,60,116,2261570,222141,16775458,28154,11340,13879,3384,888,Tag0,unknown
418,1611472560726,25,843,0.0001852294921875,13,60,116,2261570,222141,16775458,28154,11340,13879,3384,888,Tag0,unknown
419,1611472560736,25,843,0.0001852294921875,13,60,116,2261570,222141,16775458,28154,11340,13879,3384,888,Tag0,unknown
420,1611472560746,25,-22,-4.833984375e-06,13,60,116,2261570,222141,16775458,28154,11340,13879,3384,888,Tag0,unknown
421,1611472560756,25,33,7.2509765625e-06,13,60,116,2261570,222141,16775458,28154,11340,13879,3384,888,Tag0,unknown
422,1611472560771,25,839,0.0001843505859375,13,60,116,2261570,222141,16775458,28154,11340,13879,3384,888,Tag0,unknown
423,1611472560787,25,-116,-2.548828125e-05,13,60,116,2261570,222141,16775458,28154,11340,13879,3384,888,Tag0,unknown
424,1611472560797,25,-344,-7.558593750000001e-05,13,60,116,2261570,222141,16775458,28154,11340,13879,3384,888,Tag0,unknown
425,1611472560811,25,297,6.525878906250001e-05,13,60,116,2261570,222141,16775458,28154,11340,13879,3384,888,Tag0,unknown
426,1611472560821,25,-380,-8.349609375e-05,13,60,116,2261570,222141,16775458,28154,11340,13879,3384,888,Tag0,unknown
427,1611472560844,25,327,7.18505859375e-05,13,60,116,2261570,222141,16775458,28154,11340,13879,3384,888,Tag0,unknown
428,1611472560854,25,199,4.37255859375e-05,13,60,116,2261570,222141,16775458,28154,11340,13879,3384,888,Tag0,unknown
429,1611472560868,25,-349,-7.668457031250001e-05,13,60,116,2261570,222141,16775458,28154,11340,13879,3384,888,Tag0,unknown
430,1611472560890,25,9,1.9775390625e-06,13,60,116,2261570,222141,16775458,28154,11340,13879,3384,888,Tag0,unknown
431,1611472560906,25,219,4.81201171875e-05,13,60,116,2261570,222141,16775458,28154,11340,13879,3384,888,Tag0,unknown
432,1611472560916,25,442,9.7119140625e-05,13,60,116,2261570,222141,16775458,28154,11340,13879,3384,888,Tag0,unknown
433,1611472560932,25,-161,-3.53759765625e-05,13,60,116,2261570,222141,16775458,28154,11340,13879,3384,888,Tag0,unknown
434,1611472560942,25,636,0.00013974609375,13,60,116,2261570,222141,16775458,28154,11340,13879,3384,888,Tag0,unknown
435,1611472560954,25,635,0.0001395263671875,13,60,116,2261570,222141,16775458,28154,11340,13879,3384,888,Tag0,unknown
436,1611472560970,25,988,0.00021708984375,13,60,116,2261570,222141,16775458,28154,11340,13879,3384,888,Tag0,unknown
437,1611472560995,25,641,0.0001408447265625,13,60,116,2261570,222141,16775458,28154,11340,13879,3384,888,Tag0,unknown
438,1611472561005,25,1315,0.0002889404296875,13,60,116,2261570,222141,16775458,28154,11340,13879,3384,888,Tag0,unknown
439,1611472561019,25,637,0.0001399658203125,13,60,116,2261570,222141,16775458,28154,11340,13879,3384,888,Tag0,unknown
440,1611472561036,25,455,9.99755859375e-05,13,60,116,2261570,222141,16775458,28154,11340,13879,3384,888,Tag0,unknown
441,1611472561054,25,-746,-0.000163916015625,13,60,116,2261570,222141,16775458,28154,11340,13879,3384,888,Tag0,unknown
442,1611472561073,25,-1653,-0.0003632080078125,13,60,116,2261570,222141,16775458,28154,11340,13879,3384,888,Tag0,unknown
443,1611472561092,25,-679,-0.0001491943359375,13,60,116,2261570,222141,16775458,28154,11340,13879,3384,888,Tag0,unknown
444,1611472561102,25,-449,-9.86572265625e-05,13,60,116,2261570,222141,16775458,28154,11340,13879,3384,888,Tag0,unknown
445,1611472561112,26,-186,-4.0869140625e-05,13,60,116,835929,1061532,121698,21947,16755790,32651,44412,32599,Tag0,unknown
446,1611472561126,26,-116,-2.548828125e-05,13,60,116,835929,1061532,121698,21947,16755790,32651,44412,32599,Tag0,unknown
447,1611472561142,26,626,0.000137548828125,13,60,116,835929,1061532,121698,21947,16755790,32651,44412,32599,Tag0,unknown
448,1611472561154,26,825,0.0001812744140625,13,60,116,835929,1061532,121698,21947,16755790,32651,44412,32599,Tag0,unknown
449,1611472561176,26,853,0.0001874267578125,13,60,116,835929,1061532,121698,21947,16755790,32651,44412,32599,Tag0,unknown
450,1611472561186,26,452,9.931640625e-05,13,60,116,835929,1061532,121698,21947,16755790,32651,44412,32599,Tag0,unknown
451,1611472561215,26,-485,-0.0001065673828125,13,60,116,835929,1061532,121698,21947,16755790,32651,44412,32599,Tag0,unknown
452,1611472561225,26,-411,-9.03076171875e-05,13,60,116,835929,1061532,121698,21947,16755790,32651,44412,32599,Tag0,unknown
453,1611472561249,26,329,7.229003906250001e-05,13,60,116,835929,1061532,121698,21947,16755790,32651,44412,32599,Tag0,unknown
454,1611472561259,26,347,7.62451171875e-05,13,60,116,835929,1061532,121698,21947,16755790,32651,44412,32599,Tag0,unknown
455,1611472561275,26,371,8.151855468750001e-05,13,60,116,835929,1061532,121698,21947,16755790,32651,44412,32599,Tag0,unknown
456,1611472561290,26,-615,-0.0001351318359375,13,60,116,835929,1061532,121698,21947,16755790,32651,44412,32599,Tag0,unknown
457,1611472561303,26,346,7.6025390625e-05,13,60,116,835929,1061532,121698,21947,16755790,32651,44412,32599,Tag0,unknown
458,1611472561324,26,-92,-2.021484375e-05,13,60,116,835929,1061532,121698,21947,16755790,32651,44412,32599,Tag0,unknown
459,1611472561337,26,-886,-0.000194677734375,13,60,116,835929,1061532,121698,21947,16755790,32651,44412,32599,Tag0,unknown
460,1611472561366,26,129,2.83447265625e-05,13,60,116,835929,1061532,121698,21947,16755790,32651,44412,32599,Tag0,unknown
461,1611472561393,26,-547,-0.0001201904296875,13,60,116,835929,1061532,121698,21947,16755790,32651,44412,32599,Tag0,unknown
462,1611472561403,26,-259,-5.69091796875e-05,13,60,116,835929,1061532,121698,21947,16755790,32651,44412,32599,Tag0,unknown
463,1611472561414,26,42,9.228515625000003e-06,13,60,116,835929,1061532,121698,21947,16755790,32651,44412,32599,Tag0,unknown
464,1611472561424,26,89,1.95556640625e-05,13,60,116,835929,1061532,121698,21947,16755790,32651,44412,32599,Tag0,unknown
465,1611472561446,26,57,1.25244140625e-05,13,60,116,835929,1061532,121698,21947,16755790,32651,44412,32599,Tag0,unknown
466,1611472561457,26,-372,-8.173828125e-05,13,60,116,835929,1061532,121698,21947,16755790,32651,44412,32599,Tag0,unknown
467,1611472561473,26,102,2.2412109375e-05,13,60,116,835929,1061532,121698,21947,16755790,32651,44412,32599,Tag0,unknown
468,1611472561490,26,-245,-5.38330078125e-05,13,60,116,835929,1061532,121698,21947,16755790,32651,44412,32599,Tag0,unknown
469,1611472561506,26,-194,-4.2626953125e-05,13,60,116,835929,1061532,121698,21947,16755790,32651,44412,32599,Tag0,unknown
470,1611472561526,26,-59,-1.29638671875e-05,13,60,116,835929,1061532,121698,21947,16755790,32651,44412,32599,Tag0,unknown
471,1611472561539,26,-535,-0.0001175537109375,13,60,116,835929,1061532,121698,21947,16755790,32651,44412,32599,Tag0,unknown
472,1611472561558,26,-260,-5.712890625e-05,13,60,116,835929,1061532,121698,21947,16755790,32651,44412,32599,Tag0,unknown
473,1611472561570,26,-821,-0.0001803955078125,13,60,116,835929,1061532,121698,21947,16755790,32651,44412,32599,Tag0,unknown
474,1611472561591,26,480,0.00010546875,13,60,116,835929,1061532,121698,21947,16755790,32651,44412,32599,Tag0,unknown
475,1611472561609,26,-243,-5.33935546875e-05,13,60,116,835929,1061532,121698,21947,16755790,32651,44412,32599,Tag0,unknown
476,1611472561621,26,-236,-5.185546875e-05,13,60,116,835929,1061532,121698,21947,16755790,32651,44412,32599,Tag0,unknown
477,1611472561631,26,573,0.0001259033203125,13,60,116,835929,1061532,121698,21947,16755790,32651,44412,32599,Tag0,unknown
478,1611472561641,26,-27,-5.932617187500001e-06,13,60,116,835929,1061532,121698,21947,16755790,32651,44412,32599,Tag0,unknown
479,1611472561653,26,988,0.00021708984375,13,60,116,835929,1061532,121698,21947,16755790,32651,44412,32599,Tag0,unknown
480,1611472561664,26,-701,-0.0001540283203125,13,60,116,835929,1061532,121698,21947,16755790,32651,44412,32599,Tag0,unknown
481,1611472561674,26,107,2.35107421875e-05,13,60,116,835929,1061532,121698,21947,16755790,32651,44412,32599,Tag0,unknown
482,1611472561687,26,-251,-5.51513671875e-05,13,60,116,835929,1061532,121698,21947,16755790,32651,44412,32599,Tag0,unknown
483,1611472561704,26,-557,-0.0001223876953125,13,60,116,835929,1061532,121698,21947,16755790,32651,44412,32599,Tag0,unknown
484,1611472561721,26,-11,-2.4169921875e-06,13,60,116,835929,1061532,121698,21947,16755790,32651,44412,32599,Tag0,unknown
485,1611472561738,26,-939,-0.0002063232421875,13,60,116,835929,1061532,121698,21947,16755790,32651,44412,32599,Tag0,unknown
486,1611472561760,26,-369,-8.10791015625e-05,13,60,116,835929,1061532,121698,21947,16755790,32651,44412,32599,Tag0,unknown
487,1611472561770,26,-71,-1.56005859375e-05,13,60,116,835929,1061532,121698,21947,16755790,32651,44412,32599,Tag0,unknown
488,1611472561780,26,-566,-0.00012436523437500002,13,60,116,835929,1061532,121698,21947,16755790,32651,44412,32599,Tag0,unknown
489,1611472561794,26,-6,-1.318359375e-06,13,60,116,835929,1061532,121698,21947,16755790,32651,44412,32599,Tag0,unknown
490,1611472561810,26,-245,-5.38330078125e-05,13,60,116,835929,1061532,121698,21947,16755790,32651,44412,32599,Tag0,unknown
491,1611472561823,26,-318,-6.9873046875e-05,13,60,116,835929,1061532,121698,21947,16755790,32651,44412,32599,Tag0,unknown
492,1611472561833,26,87,1.91162109375e-05,13,60,116,835929,1061532,121698,21947,16755790,32651,44412,32599,Tag0,unknown
493,1611472561861,26,-458,-0.000100634765625,13,60,116,835929,1061532,121698,21947,16755790,32651,44412,32599,Tag0,unknown
494,1611472561871,26,-80,-1.7578125e-05,13,60,116,835929,1061532,121698,21947,16755790,32651,44412,32599,Tag0,unknown
495,1611472561939,26,-103,-2.26318359375e-05,13,60,116,835929,1061532,121698,21947,16755790,32651,44412,32599,Tag0,unknown
496,1611472561960,26,-195,-4.28466796875e-05,13,60,116,835929,1061532,121698,21947,16755790,32651,44412,32599,Tag0,unknown
497,1611472561970,26,72,1.58203125e-05,13,60,116,835929,1061532,121698,21947,16755790,32651,44412,32599,Tag0,unknown
498,1611472562079,26,-698,-0.00015336914062500002,13,60,116,835929,1061532,121698,21947,16755790,32651,44412,32599,Tag0,unknown
499,1611472562101,26,-377,-8.28369140625e-05,13,60,116,835929,1061532,121698,21947,16755790,32651,44412,32599,Tag0,unknown
500,1611472562111,26,-7,-1.5380859375e-06,13,60,116,835929,1061532,121698,21947,16755790,32651,44412,32599,Tag0,unknown
501,1611472562121,26,320,7.03125e-05,13,60,116,835929,1061532,121698,21947,16755790,32651,44412,32599,Tag0,unknown
502,1611472562148,26,376,8.261718750000001e-05,13,60,116,835929,1061532,121698,21947,16755790,32651,44412,32599,Tag0,unknown
503,1611472562158,26,613,0.00013469238281250002,13,60,116,835929,1061532,121698,21947,16755790,32651,44412,32599,Tag0,unknown
504,1611472562175,26,1650,0.000362548828125,13,60,116,835929,1061532,121698,21947,16755790,32651,44412,32599,Tag0,unknown
505,1611472562216,26,1745,0.0003834228515625,13,60,116,835929,1061532,121698,21947,16755790,32651,44412,32599,Tag0,unknown
506,1611472562226,26,1803,0.0003961669921875,13,60,116,835929,1061532,121698,21947,16755790,32651,44412,32599,Tag0,unknown
507,1611472562283,26,-605,-0.0001329345703125,13,60,116,835929,1061532,121698,21947,16755790,32651,44412,32599,Tag0,unknown
508,1611472562293,26,-738,-0.000162158203125,13,60,116,835929,1061532,121698,21947,16755790,32651,44412,32599,Tag0,unknown
509,1611472562353,26,-1027,-0.00022565917968750006,13,60,116,835929,1061532,121698,21947,16755790,32651,44412,32599,Tag0,unknown
510,1611472562386,26,60,1.318359375e-05,13,60,116,835929,1061532,121698,21947,16755790,32651,44412,32599,Tag0,unknown
511,1611472562396,26,673,0.0001478759765625,13,60,116,835929,1061532,121698,21947,16755790,32651,44412,32599,Tag0,unknown
512,1611472562421,26,-1399,-0.0003073974609375,13,60,116,835929,1061532,121698,21947,16755790,32651,44412,32599,Tag0,unknown
513,1611472562441,26,-1861,-0.0004089111328125,13,60,116,835929,1061532,121698,21947,16755790,32651,44412,32599,Tag0,unknown
514,1611472562458,26,617,0.0001355712890625,13,60,116,835929,1061532,121698,21947,16755790,32651,44412,32599,Tag0,unknown
515,1611472562479,26,663,0.0001456787109375,13,60,116,1007575,101319,89543,111958,23640,16766863,31456,23826,Tag0,unknown
516,1611472562489,26,-1700,-0.00037353515625,13,60,116,1007575,101319,89543,111958,23640,16766863,31456,23826,Tag0,unknown
517,1611472562506,26,1132,0.00024873046875000004,13,60,116,1007575,101319,89543,111958,23640,16766863,31456,23826,Tag0,unknown
518,1611472562516,26,-221,-4.85595703125e-05,13,60,116,1007575,101319,89543,111958,23640,16766863,31456,23826,Tag0,unknown
519,1611472562526,26,-79,-1.7358398437500006e-05,13,60,116,1007575,101319,89543,111958,23640,16766863,31456,23826,Tag0,unknown
520,1611472562549,26,-569,-0.0001250244140625,13,60,116,1007575,101319,89543,111958,23640,16766863,31456,23826,Tag0,unknown
521,1611472562584,26,-403,-8.854980468749999e-05,13,60,116,1007575,101319,89543,111958,23640,16766863,31456,23826,Tag0,unknown
522,1611472562594,26,-502,-0.000110302734375,13,60,116,1007575,101319,89543,111958,23640,16766863,31456,23826,Tag0,unknown
523,1611472562610,26,-641,-0.0001408447265625,13,60,116,1007575,101319,89543,111958,23640,16766863,31456,23826,Tag0,unknown
524,1611472562626,26,119,2.6147460937500007e-05,13,60,116,1007575,101319,89543,111958,23640,16766863,31456,23826,Tag0,unknown
525,1611472562641,26,450,9.8876953125e-05,13,60,116,1007575,101319,89543,111958,23640,16766863,31456,23826,Tag0,unknown
526,1611472562662,26,-242,-5.317382812500001e-05,13,60,116,1007575,101319,89543,111958,23640,16766863,31456,23826,Tag0,unknown
527,1611472562675,26,842,0.000185009765625,13,60,116,1007575,101319,89543,111958,23640,16766863,31456,23826,Tag0,unknown
528,1611472562696,26,-76,-1.669921875e-05,13,60,116,1007575,101319,89543,111958,23640,16766863,31456,23826,Tag0,unknown
529,1611472562707,26,-6,-1.318359375e-06,13,60,116,1007575,101319,89543,111958,23640,16766863,31456,23826,Tag0,unknown
530,1611472562754,26,-100,-2.197265625e-05,13,60,116,1007575,101319,89543,111958,23640,16766863,31456,23826,Tag0,unknown
531,1611472562774,26,1302,0.000286083984375,13,60,116,1007575,101319,89543,111958,23640,16766863,31456,23826,Tag0,unknown
532,1611472562784,26,-404,-8.876953125000001e-05,13,60,116,1007575,101319,89543,111958,23640,16766863,31456,23826,Tag0,unknown
533,1611472562794,26,-401,-8.811035156250001e-05,13,60,116,1007575,101319,89543,111958,23640,16766863,31456,23826,Tag0,unknown
534,1611472562816,26,1024,0.000225,13,60,116,1007575,101319,89543,111958,23640,16766863,31456,23826,Tag0,unknown
535,1611472562826,26,169,3.71337890625e-05,13,60,116,1007575,101319,89543,111958,23640,16766863,31456,23826,Tag0,unknown
536,1611472562836,26,1243,0.0002731201171875,13,60,116,1007575,101319,89543,111958,23640,16766863,31456,23826,Tag0,unknown
537,1611472562846,26,1373,0.0003016845703125,13,60,116,1007575,101319,89543,111958,23640,16766863,31456,23826,Tag0,unknown
538,1611472562873,26,1324,0.00029091796875000005,13,60,116,1007575,101319,89543,111958,23640,16766863,31456,23826,Tag0,unknown
539,1611472562891,26,1021,0.0002243408203125,13,60,116,1007575,101319,89543,111958,23640,16766863,31456,23826,Tag0,unknown
540,1611472562901,26,428,9.404296875e-05,13,60,116,1007575,101319,89543,111958,23640,16766863,31456,23826,Tag0,unknown
541,1611472562933,26,381,8.371582031250001e-05,13,60,116,1007575,101319,89543,111958,23640,16766863,31456,23826,Tag0,unknown
542,1611472562943,26,327,7.18505859375e-05,13,60,116,1007575,101319,89543,111958,23640,16766863,31456,23826,Tag0,unknown
543,1611472562990,26,-69,-1.51611328125e-05,13,60,116,1007575,101319,89543,111958,23640,16766863,31456,23826,Tag0,unknown
544,1611472563008,26,-72,-1.58203125e-05,13,60,116,1007575,101319,89543,111958,23640,16766863,31456,23826,Tag0,unknown
545,1611472563018,26,-119,-2.6147460937500007e-05,13,60,116,1007575,101319,89543,111958,23640,16766863,31456,23826,Tag0,unknown
546,1611472563030,26,113,2.48291015625e-05,13,60,116,1007575,101319,89543,111958,23640,16766863,31456,23826,Tag0,unknown
547,1611472563044,26,103,2.26318359375e-05,13,60,116,1007575,101319,89543,111958,23640,16766863,31456,23826,Tag0,unknown
548,1611472563060,26,89,1.95556640625e-05,13,60,116,1007575,101319,89543,111958,23640,16766863,31456,23826,Tag0,unknown
549,1611472563079,26,83,1.82373046875e-05,13,60,116,1007575,101319,89543,111958,23640,16766863,31456,23826,Tag0,unknown
550,1611472563094,26,82,1.8017578125e-05,13,60,116,1007575,101319,89543,111958,23640,16766863,31456,23826,Tag0,unknown
551,1611472563106,26,75,1.64794921875e-05,13,60,116,392813,37466,16775185,16772184,16758972,16755802,82506,16754806,Tag0,unknown
552,1611472563141,26,74,1.6259765625e-05,13,60,116,392813,37466,16775185,16772184,16758972,16755802,82506,16754806,Tag0,unknown
553,1611472563159,26,53,1.1645507812500003e-05,13,60,116,392813,37466,16775185,16772184,16758972,16755802,82506,16754806,Tag0,unknown
554,1611472563169,26,-166,-3.6474609375e-05,13,60,116,392813,37466,16775185,16772184,16758972,16755802,82506,16754806,Tag0,unknown
555,1611472563179,26,-1991,-0.0004374755859375,13,60,116,392813,37466,16775185,16772184,16758972,16755802,82506,16754806,Tag0,unknown
556,1611472563189,26,-2048,-0.00045,13,60,116,392813,37466,16775185,16772184,16758972,16755802,82506,16754806,Tag0,unknown
557,1611472563199,26,-2048,-0.00045,13,60,116,392813,37466,16775185,16772184,16758972,16755802,82506,16754806,Tag0,unknown
558,1611472563224,26,-1859,-0.0004084716796875,13,60,116,392813,37466,16775185,16772184,16758972,16755802,82506,16754806,Tag0,unknown
559,1611472563241,26,-1656,-0.0003638671875,13,60,116,392813,37466,16775185,16772184,16758972,16755802,82506,16754806,Tag0,unknown
560,1611472563257,26,-1345,-0.0002955322265625,13,60,116,392813,37466,16775185,16772184,16758972,16755802,82506,16754806,Tag0,unknown
561,1611472563275,26,-989,-0.0002173095703125,13,60,116,392813,37466,16775185,16772184,16758972,16755802,82506,16754806,Tag0,unknown
562,1611472563285,26,-841,-0.0001847900390625,13,60,116,392813,37466,16775185,16772184,16758972,16755802,82506,16754806,Tag0,unknown
563,1611472563296,26,-395,-8.67919921875e-05,13,60,116,392813,37466,16775185,16772184,16758972,16755802,82506,16754806,Tag0,unknown
564,1611472563311,26,-615,-0.0001351318359375,13,60,116,392813,37466,16775185,16772184,16758972,16755802,82506,16754806,Tag0,unknown
565,1611472563329,26,-229,-5.03173828125e-05,13,60,116,392813,37466,16775185,16772184,16758972,16755802,82506,16754806,Tag0,unknown
566,1611472563343,26,-216,-4.74609375e-05,13,60,116,392813,37466,16775185,16772184,16758972,16755802,82506,16754806,Tag0,unknown
567,1611472563353,26,-333,-7.316894531249999e-05,13,60,116,392813,37466,16775185,16772184,16758972,16755802,82506,16754806,Tag0,unknown
568,1611472563363,26,-309,-6.78955078125e-05,13,60,116,392813,37466,16775185,16772184,16758972,16755802,82506,16754806,Tag0,unknown
569,1611472563378,26,-306,-6.723632812500001e-05,13,60,116,392813,37466,16775185,16772184,16758972,16755802,82506,16754806,Tag0,unknown
570,1611472563407,26,-260,-5.712890625e-05,13,60,116,392813,37466,16775185,16772184,16758972,16755802,82506,16754806,Tag0,unknown
571,1611472563417,26,10,2.197265625e-06,13,60,116,392813,37466,16775185,16772184,16758972,16755802,82506,16754806,Tag0,unknown
572,1611472563427,26,25,5.4931640625e-06,13,60,116,392813,37466,16775185,16772184,16758972,16755802,82506,16754806,Tag0,unknown
573,1611472563442,26,38,8.349609375e-06,13,60,116,392813,37466,16775185,16772184,16758972,16755802,82506,16754806,Tag0,unknown
574,1611472563458,26,49,1.07666015625e-05,13,60,116,392813,37466,16775185,16772184,16758972,16755802,82506,16754806,Tag0,unknown
575,1611472563476,26,50,1.0986328125e-05,13,60,116,392813,37466,16775185,16772184,16758972,16755802,82506,16754806,Tag0,unknown
576,1611472563494,26,54,1.1865234375e-05,13,60,116,392813,37466,16775185,16772184,16758972,16755802,82506,16754806,Tag0,unknown
577,1611472563504,26,41,9.0087890625e-06,13,60,116,392813,37466,16775185,16772184,16758972,16755802,82506,16754806,Tag0,unknown
578,1611472563515,26,-15,-3.2958984375e-06,13,60,116,392813,37466,16775185,16772184,16758972,16755802,82506,16754806,Tag0,unknown
579,1611472563528,26,23,5.0537109375e-06,13,60,116,392813,37466,16775185,16772184,16758972,16755802,82506,16754806,Tag0,unknown
580,1611472563551,26,99,2.1752929687500006e-05,13,60,116,392813,37466,16775185,16772184,16758972,16755802,82506,16754806,Tag0,unknown
581,1611472563561,26,88,1.93359375e-05,13,60,116,392813,37466,16775185,16772184,16758972,16755802,82506,16754806,Tag0,unknown
582,1611472563577,26,29,6.3720703125e-06,13,60,116,392813,37466,16775185,16772184,16758972,16755802,82506,16754806,Tag0,unknown
583,1611472563594,26,57,1.25244140625e-05,13,60,116,392813,37466,16775185,16772184,16758972,16755802,82506,16754806,Tag0,unknown
584,1611472563621,26,97,2.13134765625e-05,13,60,116,392813,37466,16775185,16772184,16758972,16755802,82506,16754806,Tag0,unknown
585,1611472563641,26,40,8.7890625e-06,13,60,116,392813,37466,16775185,16772184,16758972,16755802,82506,16754806,Tag0,unknown
586,1611472563669,26,-123,-2.70263671875e-05,13,60,116,392813,37466,16775185,16772184,16758972,16755802,82506,16754806,Tag0,unknown
587,1611472563679,26,-105,-2.30712890625e-05,13,60,116,392813,37466,16775185,16772184,16758972,16755802,82506,16754806,Tag0,unknown
588,1611472563696,26,108,2.373046875e-05,13,60,116,392813,37466,16775185,16772184,16758972,16755802,82506,16754806,Tag0,unknown
589,1611472563710,26,-121,-2.6586914062500006e-05,13,60,116,392813,37466,16775185,16772184,16758972,16755802,82506,16754806,Tag0,unknown
590,1611472563726,26,614,0.000134912109375,13,60,116,392813,37466,16775185,16772184,16758972,16755802,82506,16754806,Tag0,unknown
591,1611472563744,26,410,9.0087890625e-05,13,60,116,392813,37466,16775185,16772184,16758972,16755802,82506,16754806,Tag0,unknown
592,1611472563761,26,-77,-1.69189453125e-05,13,60,116,392813,37466,16775185,16772184,16758972,16755802,82506,16754806,Tag0,unknown
593,1611472563771,26,6,1.318359375e-06,13,60,116,392813,37466,16775185,16772184,16758972,16755802,82506,16754806,Tag0,unknown
594,1611472563785,26,450,9.8876953125e-05,13,60,116,392813,37466,16775185,16772184,16758972,16755802,82506,16754806,Tag0,unknown
595,1611472563818,26,545,0.0001197509765625,13,60,116,392813,37466,16775185,16772184,16758972,16755802,82506,16754806,Tag0,unknown
596,1611472563828,26,779,0.0001711669921875,13,60,116,392813,37466,16775185,16772184,16758972,16755802,82506,16754806,Tag0,unknown
597,1611472563843,26,316,6.943359375000001e-05,13,60,116,392813,37466,16775185,16772184,16758972,16755802,82506,16754806,Tag0,unknown
598,1611472563861,26,567,0.0001245849609375,13,60,116,392813,37466,16775185,16772184,16758972,16755802,82506,16754806,Tag0,unknown
599,1611472563878,26,374,8.2177734375e-05,13,60,116,392813,37466,16775185,16772184,16758972,16755802,82506,16754806,Tag0,unknown
600,1611472563896,26,-541,-0.0001188720703125,13,60,116,392813,37466,16775185,16772184,16758972,16755802,82506,16754806,Tag0,unknown
601,1611472563912,26,-363,-7.97607421875e-05,13,60,116,392813,37466,16775185,16772184,16758972,16755802,82506,16754806,Tag0,unknown
602,1611472563922,26,-105,-2.30712890625e-05,13,60,116,392813,37466,16775185,16772184,16758972,16755802,82506,16754806,Tag0,unknown
603,1611472563944,26,-123,-2.70263671875e-05,13,60,116,392813,37466,16775185,16772184,16758972,16755802,82506,16754806,Tag0,unknown
604,1611472563959,26,-724,-0.00015908203125000002,13,60,116,392813,37466,16775185,16772184,16758972,16755802,82506,16754806,Tag0,unknown
605,1611472563969,26,-505,-0.0001109619140625,13,60,116,392813,37466,16775185,16772184,16758972,16755802,82506,16754806,Tag0,unknown
606,1611472563980,26,-483,-0.0001061279296875,13,60,116,392813,37466,16775185,16772184,16758972,16755802,82506,16754806,Tag0,unknown
607,1611472563992,26,-467,-0.0001026123046875,13,60,116,392813,37466,16775185,16772184,16758972,16755802,82506,16754806,Tag0,unknown
608,1611472564014,26,-539,-0.0001184326171875,13,60,116,392813,37466,16775185,16772184,16758972,16755802,82506,16754806,Tag0,unknown
609,1611472564026,26,-530,-0.000116455078125,13,60,116,392813,37466,16775185,16772184,16758972,16755802,82506,16754806,Tag0,unknown
610,1611472564036,26,-158,-3.4716796875000005e-05,13,60,116,392813,37466,16775185,16772184,16758972,16755802,82506,16754806,Tag0,unknown
611,1611472564046,26,-337,-7.40478515625e-05,13,60,116,392813,37466,16775185,16772184,16758972,16755802,82506,16754806,Tag0,unknown
612,1611472564062,26,-325,-7.14111328125e-05,13,60,116,392813,37466,16775185,16772184,16758972,16755802,82506,16754806,Tag0,unknown
613,1611472564085,26,-277,-6.086425781250001e-05,13,60,116,392813,37466,16775185,16772184,16758972,16755802,82506,16754806,Tag0,unknown
614,1611472564095,26,-259,-5.69091796875e-05,13,60,116,392813,37466,16775185,16772184,16758972,16755802,82506,16754806,Tag0,unknown
615,1611472564112,25,11,2.4169921875e-06,13,60,116,627164,182713,16765066,9868,2749,16744811,23082,572,Tag0,unknown
616,1611472564127,25,9,1.9775390625e-06,13,60,116,627164,182713,16765066,9868,2749,16744811,23082,572,Tag0,unknown
617,1611472564145,25,-72,-1.58203125e-05,13,60,116,627164,182713,16765066,9868,2749,16744811,23082,572,Tag0,unknown
618,1611472564166,25,117,2.57080078125e-05,13,60,116,627164,182713,16765066,9868,2749,16744811,23082,572,Tag0,unknown
619,1611472564176,25,88,1.93359375e-05,13,60,116,627164,182713,16765066,9868,2749,16744811,23082,572,Tag0,unknown
620,1611472564186,25,23,5.0537109375e-06,13,60,116,627164,182713,16765066,9868,2749,16744811,23082,572,Tag0,unknown
621,1611472564198,25,38,8.349609375e-06,13,60,116,627164,182713,16765066,9868,2749,16744811,23082,572,Tag0,unknown
622,1611472564211,25,49,1.07666015625e-05,13,60,116,627164,182713,16765066,9868,2749,16744811,23082,572,Tag0,unknown
623,1611472564237,25,51,1.12060546875e-05,13,60,116,627164,182713,16765066,9868,2749,16744811,23082,572,Tag0,unknown
624,1611472564271,25,-100,-2.197265625e-05,13,60,116,627164,182713,16765066,9868,2749,16744811,23082,572,Tag0,unknown
625,1611472564283,25,-18,-3.955078125e-06,13,60,116,627164,182713,16765066,9868,2749,16744811,23082,572,Tag0,unknown
626,1611472564294,25,281,6.17431640625e-05,13,60,116,627164,182713,16765066,9868,2749,16744811,23082,572,Tag0,unknown
627,1611472564305,25,707,0.00015534667968750002,13,60,116,627164,182713,16765066,9868,2749,16744811,23082,572,Tag0,unknown
628,1611472564320,25,242,5.317382812500001e-05,13,60,116,627164,182713,16765066,9868,2749,16744811,23082,572,Tag0,unknown
629,1611472564344,25,537,0.0001179931640625,13,60,116,627164,182713,16765066,9868,2749,16744811,23082,572,Tag0,unknown
630,1611472564360,25,-323,-7.09716796875e-05,13,60,116,627164,182713,16765066,9868,2749,16744811,23082,572,Tag0,unknown
631,1611472564370,25,-226,-4.9658203125e-05,13,60,116,627164,182713,16765066,9868,2749,16744811,23082,572,Tag0,unknown
632,1611472564382,25,-77,-1.69189453125e-05,13,60,116,627164,182713,16765066,9868,2749,16744811,23082,572,Tag0,unknown
633,1611472564394,25,280,6.15234375e-05,13,60,116,627164,182713,16765066,9868,2749,16744811,23082,572,Tag0,unknown
634,1611472564421,25,427,9.38232421875e-05,13,60,116,627164,182713,16765066,9868,2749,16744811,23082,572,Tag0,unknown
635,1611472564431,25,25,5.4931640625e-06,13,60,116,627164,182713,16765066,9868,2749,16744811,23082,572,Tag0,unknown
636,1611472564441,25,429,9.42626953125e-05,13,60,116,627164,182713,16765066,9868,2749,16744811,23082,572,Tag0,unknown
637,1611472564451,25,-19,-4.1748046875e-06,13,60,116,627164,182713,16765066,9868,2749,16744811,23082,572,Tag0,unknown
638,1611472564476,25,1048,0.0002302734375,13,60,116,627164,182713,16765066,9868,2749,16744811,23082,572,Tag0,unknown
639,1611472564493,25,565,0.0001241455078125,13,60,116,627164,182713,16765066,9868,2749,16744811,23082,572,Tag0,unknown
640,1611472564509,25,347,7.62451171875e-05,13,60,116,627164,182713,16765066,9868,2749,16744811,23082,572,Tag0,unknown
641,1611472564528,25,645,0.0001417236328125,13,60,116,627164,182713,16765066,9868,2749,16744811,23082,572,Tag0,unknown
642,1611472564546,25,-361,-7.93212890625e-05,13,60,116,627164,182713,16765066,9868,2749,16744811,23082,572,Tag0,unknown
643,1611472564562,25,300,6.591796875e-05,13,60,116,627164,182713,16765066,9868,2749,16744811,23082,572,Tag0,unknown
644,1611472564579,25,-85,-1.86767578125e-05,13,60,116,627164,182713,16765066,9868,2749,16744811,23082,572,Tag0,unknown
645,1611472564589,25,443,9.73388671875e-05,13,60,116,627164,182713,16765066,9868,2749,16744811,23082,572,Tag0,unknown
646,1611472564603,25,462,0.000101513671875,13,60,116,627164,182713,16765066,9868,2749,16744811,23082,572,Tag0,unknown
647,1611472564613,25,513,0.0001127197265625,13,60,116,627164,182713,16765066,9868,2749,16744811,23082,572,Tag0,unknown
648,1611472564637,25,-214,-4.7021484375e-05,13,60,116,627164,182713,16765066,9868,2749,16744811,23082,572,Tag0,unknown
649,1611472564647,25,-281,-6.17431640625e-05,13,60,116,627164,182713,16765066,9868,2749,16744811,23082,572,Tag0,unknown
650,1611472564661,25,475,0.0001043701171875,13,60,116,627164,182713,16765066,9868,2749,16744811,23082,572,Tag0,unknown
651,1611472564677,25,102,2.2412109375e-05,13,60,116,627164,182713,16765066,9868,2749,16744811,23082,572,Tag0,unknown
652,1611472564693,25,1138,0.000250048828125,13,60,116,627164,182713,16765066,9868,2749,16744811,23082,572,Tag0,unknown
653,1611472564710,25,-554,-0.000121728515625,13,60,116,627164,182713,16765066,9868,2749,16744811,23082,572,Tag0,unknown
654,1611472564727,25,368,8.0859375e-05,13,60,116,627164,182713,16765066,9868,2749,16744811,23082,572,Tag0,unknown
655,1611472564750,25,-813,-0.0001786376953125,13,60,116,627164,182713,16765066,9868,2749,16744811,23082,572,Tag0,unknown
656,1611472564762,25,-651,-0.0001430419921875,13,60,116,627164,182713,16765066,9868,2749,16744811,23082,572,Tag0,unknown
657,1611472564785,25,69,1.51611328125e-05,13,60,116,627164,182713,16765066,9868,2749,16744811,23082,572,Tag0,unknown
658,1611472564797,25,-550,-0.000120849609375,13,60,116,627164,182713,16765066,9868,2749,16744811,23082,572,Tag0,unknown
659,1611472564808,25,359,7.88818359375e-05,13,60,116,627164,182713,16765066,9868,2749,16744811,23082,572,Tag0,unknown
660,1611472564827,25,-64,-1.40625e-05,13,60,116,627164,182713,16765066,9868,2749,16744811,23082,572,Tag0,unknown
661,1611472564855,25,1123,0.00024675292968750004,13,60,116,627164,182713,16765066,9868,2749,16744811,23082,572,Tag0,unknown
662,1611472564865,25,125,2.74658203125e-05,13,60,116,627164,182713,16765066,9868,2749,16744811,23082,572,Tag0,unknown
663,1611472564881,25,730,0.000160400390625,13,60,116,627164,182713,16765066,9868,2749,16744811,23082,572,Tag0,unknown
664,1611472564896,25,821,0.0001803955078125,13,60,116,627164,182713,16765066,9868,2749,16744811,23082,572,Tag0,unknown
665,1611472564910,25,759,0.0001667724609375,13,60,116,627164,182713,16765066,9868,2749,16744811,23082,572,Tag0,unknown
666,1611472564927,25,1281,0.0002814697265625,13,60,116,627164,182713,16765066,9868,2749,16744811,23082,572,Tag0,unknown
667,1611472564944,25,1348,0.00029619140625,13,60,116,627164,182713,16765066,9868,2749,16744811,23082,572,Tag0,unknown
668,1611472564968,25,421,9.25048828125e-05,13,60,116,627164,182713,16765066,9868,2749,16744811,23082,572,Tag0,unknown
669,1611472564979,25,391,8.591308593750001e-05,13,60,116,627164,182713,16765066,9868,2749,16744811,23082,572,Tag0,unknown
670,1611472565001,25,177,3.889160156250001e-05,13,60,116,627164,182713,16765066,9868,2749,16744811,23082,572,Tag0,unknown
671,1611472565013,25,353,7.75634765625e-05,13,60,116,627164,182713,16765066,9868,2749,16744811,23082,572,Tag0,unknown
672,1611472565023,25,109,2.39501953125e-05,13,60,116,627164,182713,16765066,9868,2749,16744811,23082,572,Tag0,unknown
673,1611472565033,25,-1335,-0.0002933349609375,13,60,116,627164,182713,16765066,9868,2749,16744811,23082,572,Tag0,unknown
674,1611472565046,25,-855,-0.0001878662109375,13,60,116,627164,182713,16765066,9868,2749,16744811,23082,572,Tag0,unknown
675,1611472565078,25,-1180,-0.00025927734375,13,60,116,627164,182713,16765066,9868,2749,16744811,23082,572,Tag0,unknown
676,1611472565096,25,-677,-0.00014875488281250002,13,60,116,627164,182713,16765066,9868,2749,16744811,23082,572,Tag0,unknown
677,1611472565106,26,567,0.0001245849609375,13,60,116,226529,22606,16763060,16746111,8564,11797,6387,1050,Tag0,unknown
678,1611472565122,26,90,1.9775390625e-05,13,60,116,226529,22606,16763060,16746111,8564,11797,6387,1050,Tag0,unknown
679,1611472565136,26,386,8.481445312500001e-05,13,60,116,226529,22606,16763060,16746111,8564,11797,6387,1050,Tag0,unknown
680,1611472565150,26,-441,-9.68994140625e-05,13,60,116,226529,22606,16763060,16746111,8564,11797,6387,1050,Tag0,unknown
681,1611472565161,26,-1079,-0.0002370849609375,13,60,116,226529,22606,16763060,16746111,8564,11797,6387,1050,Tag0,unknown
682,1611472565184,26,-577,-0.00012678222656250002,13,60,116,226529,22606,16763060,16746111,8564,11797,6387,1050,Tag0,unknown
683,1611472565196,26,-355,-7.80029296875e-05,13,60,116,226529,22606,16763060,16746111,8564,11797,6387,1050,Tag0,unknown
684,1611472565215,26,96,2.109375e-05,13,60,116,226529,22606,16763060,16746111,8564,11797,6387,1050,Tag0,unknown
685,1611472565232,26,122,2.6806640625e-05,13,60,116,226529,22606,16763060,16746111,8564,11797,6387,1050,Tag0,unknown
686,1611472565247,26,705,0.0001549072265625,13,60,116,226529,22606,16763060,16746111,8564,11797,6387,1050,Tag0,unknown
687,1611472565265,26,154,3.3837890625e-05,13,60,116,226529,22606,16763060,16746111,8564,11797,6387,1050,Tag0,unknown
688,1611472565281,26,529,0.0001162353515625,13,60,116,226529,22606,16763060,16746111,8564,11797,6387,1050,Tag0,unknown
689,1611472565291,26,-349,-7.668457031250001e-05,13,60,116,226529,22606,16763060,16746111,8564,11797,6387,1050,Tag0,unknown
690,1611472565314,26,-610,-0.000134033203125,13,60,116,226529,22606,16763060,16746111,8564,11797,6387,1050,Tag0,unknown
691,1611472565334,26,-327,-7.18505859375e-05,13,60,116,226529,22606,16763060,16746111,8564,11797,6387,1050,Tag0,unknown
692,1611472565355,26,-1058,-0.000232470703125,13,60,116,226529,22606,16763060,16746111,8564,11797,6387,1050,Tag0,unknown
693,1611472565365,26,-133,-2.92236328125e-05,13,60,116,226529,22606,16763060,16746111,8564,11797,6387,1050,Tag0,unknown
694,1611472565375,26,357,7.844238281250001e-05,13,60,116,226529,22606,16763060,16746111,8564,11797,6387,1050,Tag0,unknown
695,1611472565403,26,616,0.0001353515625,13,60,116,226529,22606,16763060,16746111,8564,11797,6387,1050,Tag0,unknown
696,1611472565415,26,-561,-0.0001232666015625,13,60,116,226529,22606,16763060,16746111,8564,11797,6387,1050,Tag0,unknown
697,1611472565429,26,-30,-6.591796875e-06,13,60,116,226529,22606,16763060,16746111,8564,11797,6387,1050,Tag0,unknown
698,1611472565447,26,580,0.00012744140625,13,60,116,226529,22606,16763060,16746111,8564,11797,6387,1050,Tag0,unknown
699,1611472565465,26,-299,-6.56982421875e-05,13,60,116,226529,22606,16763060,16746111,8564,11797,6387,1050,Tag0,unknown
700,1611472565482,26,-539,-0.0001184326171875,13,60,116,226529,22606,16763060,16746111,8564,11797,6387,1050,Tag0,unknown
701,1611472565498,26,104,2.28515625e-05,13,60,116,226529,22606,16763060,16746111,8564,11797,6387,1050,Tag0,unknown
702,1611472565508,26,-217,-4.76806640625e-05,13,60,116,226529,22606,16763060,16746111,8564,11797,6387,1050,Tag0,unknown
703,1611472565518,26,279,6.13037109375e-05,13,60,116,226529,22606,16763060,16746111,8564,11797,6387,1050,Tag0,unknown
704,1611472565530,26,347,7.62451171875e-05,13,60,116,226529,22606,16763060,16746111,8564,11797,6387,1050,Tag0,unknown
705,1611472565549,26,-393,-8.63525390625e-05,13,60,116,226529,22606,16763060,16746111,8564,11797,6387,1050,Tag0,unknown
706,1611472565562,26,-226,-4.9658203125e-05,13,60,116,226529,22606,16763060,16746111,8564,11797,6387,1050,Tag0,unknown
707,1611472565591,26,272,5.9765625e-05,13,60,116,226529,22606,16763060,16746111,8564,11797,6387,1050,Tag0,unknown
708,1611472565613,26,-392,-8.61328125e-05,13,60,116,226529,22606,16763060,16746111,8564,11797,6387,1050,Tag0,unknown
709,1611472565624,26,345,7.58056640625e-05,13,60,116,226529,22606,16763060,16746111,8564,11797,6387,1050,Tag0,unknown
710,1611472565638,26,-805,-0.0001768798828125,13,60,116,226529,22606,16763060,16746111,8564,11797,6387,1050,Tag0,unknown
711,1611472565648,26,-429,-9.42626953125e-05,13,60,116,226529,22606,16763060,16746111,8564,11797,6387,1050,Tag0,unknown
712,1611472565658,26,211,4.63623046875e-05,13,60,116,226529,22606,16763060,16746111,8564,11797,6387,1050,Tag0,unknown
713,1611472565669,26,30,6.591796875e-06,13,60,116,226529,22606,16763060,16746111,8564,11797,6387,1050,Tag0,unknown
714,1611472565681,26,-77,-1.69189453125e-05,13,60,116,226529,22606,16763060,16746111,8564,11797,6387,1050,Tag0,unknown
715,1611472565697,26,-660,-0.00014501953125,13,60,116,226529,22606,16763060,16746111,8564,11797,6387,1050,Tag0,unknown
716,1611472565712,26,-37,-8.1298828125e-06,13,60,116,226529,22606,16763060,16746111,8564,11797,6387,1050,Tag0,unknown
717,1611472565736,26,-404,-8.876953125000001e-05,13,60,116,226529,22606,16763060,16746111,8564,11797,6387,1050,Tag0,unknown
718,1611472565746,26,285,6.26220703125e-05,13,60,116,226529,22606,16763060,16746111,8564,11797,6387,1050,Tag0,unknown
719,1611472565770,26,352,7.734375e-05,13,60,116,226529,22606,16763060,16746111,8564,11797,6387,1050,Tag0,unknown
720,1611472565784,26,-164,-3.603515625e-05,13,60,116,226529,22606,16763060,16746111,8564,11797,6387,1050,Tag0,unknown
721,1611472565795,26,32,7.03125e-06,13,60,116,226529,22606,16763060,16746111,8564,11797,6387,1050,Tag0,unknown
722,1611472565805,26,104,2.28515625e-05,13,60,116,226529,22606,16763060,16746111,8564,11797,6387,1050,Tag0,unknown
723,1611472565816,26,-283,-6.218261718750001e-05,13,60,116,226529,22606,16763060,16746111,8564,11797,6387,1050,Tag0,unknown
724,1611472565830,26,-171,-3.75732421875e-05,13,60,116,226529,22606,16763060,16746111,8564,11797,6387,1050,Tag0,unknown
725,1611472565849,26,-121,-2.6586914062500006e-05,13,60,116,226529,22606,16763060,16746111,8564,11797,6387,1050,Tag0,unknown
726,1611472565865,26,-227,-4.98779296875e-05,13,60,116,226529,22606,16763060,16746111,8564,11797,6387,1050,Tag0,unknown
727,1611472565883,26,-535,-0.0001175537109375,13,60,116,226529,22606,16763060,16746111,8564,11797,6387,1050,Tag0,unknown
728,1611472565896,26,171,3.75732421875e-05,13,60,116,226529,22606,16763060,16746111,8564,11797,6387,1050,Tag0,unknown
729,1611472565916,26,201,4.41650390625e-05,13,60,116,226529,22606,16763060,16746111,8564,11797,6387,1050,Tag0,unknown
730,1611472565929,26,120,2.63671875e-05,13,60,116,226529,22606,16763060,16746111,8564,11797,6387,1050,Tag0,unknown
731,1611472565955,26,549,0.0001206298828125,13,60,116,226529,22606,16763060,16746111,8564,11797,6387,1050,Tag0,unknown
732,1611472565965,26,-295,-6.48193359375e-05,13,60,116,226529,22606,16763060,16746111,8564,11797,6387,1050,Tag0,unknown
733,1611472565990,26,122,2.6806640625e-05,13,60,116,226529,22606,16763060,16746111,8564,11797,6387,1050,Tag0,unknown
734,1611472566000,26,-152,-3.33984375e-05,13,60,116,226529,22606,16763060,16746111,8564,11797,6387,1050,Tag0,unknown
735,1611472566015,26,-427,-9.38232421875e-05,13,60,116,226529,22606,16763060,16746111,8564,11797,6387,1050,Tag0,unknown
736,1611472566031,26,216,4.74609375e-05,13,60,116,226529,22606,16763060,16746111,8564,11797,6387,1050,Tag0,unknown
737,1611472566047,26,187,4.10888671875e-05,13,60,116,226529,22606,16763060,16746111,8564,11797,6387,1050,Tag0,unknown
738,1611472566065,26,-747,-0.00016413574218750006,13,60,116,226529,22606,16763060,16746111,8564,11797,6387,1050,Tag0,unknown
739,1611472566081,26,-341,-7.492675781250003e-05,13,60,116,226529,22606,16763060,16746111,8564,11797,6387,1050,Tag0,unknown
740,1611472566099,26,-759,-0.0001667724609375,13,60,116,646110,29842,16762463,14418,11703,16765907,7505,916,Tag0,unknown
741,1611472566113,26,49,1.07666015625e-05,13,60,116,646110,29842,16762463,14418,11703,16765907,7505,916,Tag0,unknown
742,1611472566138,26,-119,-2.6147460937500007e-05,13,60,116,646110,29842,16762463,14418,11703,16765907,7505,916,Tag0,unknown
743,1611472566148,26,-46,-1.0107421875e-05,13,60,116,646110,29842,16762463,14418,11703,16765907,7505,916,Tag0,unknown
744,1611472566174,26,-20,-4.39453125e-06,13,60,116,646110,29842,16762463,14418,11703,16765907,7505,916,Tag0,unknown
745,1611472566184,26,-167,-3.66943359375e-05,13,60,116,646110,29842,16762463,14418,11703,16765907,7505,916,Tag0,unknown
746,1611472566199,26,213,4.68017578125e-05,13,60,116,646110,29842,16762463,14418,11703,16765907,7505,916,Tag0,unknown
747,1611472566220,26,-277,-6.086425781250001e-05,13,60,116,646110,29842,16762463,14418,11703,16765907,7505,916,Tag0,unknown
748,1611472566234,26,-124,-2.724609375e-05,13,60,116,646110,29842,16762463,14418,11703,16765907,7505,916,Tag0,unknown
749,1611472566254,26,-29,-6.3720703125e-06,13,60,116,646110,29842,16762463,14418,11703,16765907,7505,916,Tag0,unknown
750,1611472566265,26,158,3.4716796875000005e-05,13,60,116,646110,29842,16762463,14418,11703,16765907,7505,916,Tag0,unknown
751,1611472566275,26,-579,-0.0001272216796875,13,60,116,646110,29842,16762463,14418,11703,16765907,7505,916,Tag0,unknown
752,1611472566290,26,-441,-9.68994140625e-05,13,60,116,646110,29842,16762463,14418,11703,16765907,7505,916,Tag0,unknown
753,1611472566324,26,631,0.0001386474609375,13,60,116,646110,29842,16762463,14418,11703,16765907,7505,916,Tag0,unknown
754,1611472566334,26,457,0.0001004150390625,13,60,116,646110,29842,16762463,14418,11703,16765907,7505,916,Tag0,unknown
755,1611472566348,26,93,2.04345703125e-05,13,60,116,646110,29842,16762463,14418,11703,16765907,7505,916,Tag0,unknown
756,1611472566367,26,503,0.0001105224609375,13,60,116,646110,29842,16762463,14418,11703,16765907,7505,916,Tag0,unknown
757,1611472566383,26,87,1.91162109375e-05,13,60,116,646110,29842,16762463,14418,11703,16765907,7505,916,Tag0,unknown
758,1611472566401,26,248,5.44921875e-05,13,60,116,646110,29842,16762463,14418,11703,16765907,7505,916,Tag0,unknown
759,1611472566418,26,387,8.50341796875e-05,13,60,116,646110,29842,16762463,14418,11703,16765907,7505,916,Tag0,unknown
760,1611472566428,26,-587,-0.00012897949218750005,13,60,116,646110,29842,16762463,14418,11703,16765907,7505,916,Tag0,unknown
761,1611472566447,26,-204,-4.482421875e-05,13,60,116,646110,29842,16762463,14418,11703,16765907,7505,916,Tag0,unknown
762,1611472566466,26,-469,-0.0001030517578125,13,60,116,646110,29842,16762463,14418,11703,16765907,7505,916,Tag0,unknown
763,1611472566480,26,-360,-7.91015625e-05,13,60,116,646110,29842,16762463,14418,11703,16765907,7505,916,Tag0,unknown
764,1611472566505,26,317,6.96533203125e-05,13,60,116,646110,29842,16762463,14418,11703,16765907,7505,916,Tag0,unknown
765,1611472566519,26,-241,-5.29541015625e-05,13,60,116,646110,29842,16762463,14418,11703,16765907,7505,916,Tag0,unknown
766,1611472566530,26,281,6.17431640625e-05,13,60,116,646110,29842,16762463,14418,11703,16765907,7505,916,Tag0,unknown
767,1611472566543,26,118,2.5927734375e-05,13,60,116,646110,29842,16762463,14418,11703,16765907,7505,916,Tag0,unknown
768,1611472566557,26,-83,-1.82373046875e-05,13,60,116,646110,29842,16762463,14418,11703,16765907,7505,916,Tag0,unknown
769,1611472566567,26,-57,-1.25244140625e-05,13,60,116,646110,29842,16762463,14418,11703,16765907,7505,916,Tag0,unknown
770,1611472566580,26,857,0.0001883056640625,13,60,116,646110,29842,16762463,14418,11703,16765907,7505,916,Tag0,unknown
771,1611472566597,26,114,2.5048828125000006e-05,13,60,116,646110,29842,16762463,14418,11703,16765907,7505,916,Tag0,unknown
772,1611472566614,26,-251,-5.51513671875e-05,13,60,116,646110,29842,16762463,14418,11703,16765907,7505,916,Tag0,unknown
773,1611472566630,26,-427,-9.38232421875e-05,13,60,116,646110,29842,16762463,14418,11703,16765907,7505,916,Tag0,unknown
774,1611472566651,26,-531,-0.0001166748046875,13,60,116,646110,29842,16762463,14418,11703,16765907,7505,916,Tag0,unknown
775,1611472566666,26,-26,-5.712890625e-06,13,60,116,646110,29842,16762463,14418,11703,16765907,7505,916,Tag0,unknown
776,1611472566684,26,36,7.91015625e-06,13,60,116,646110,29842,16762463,14418,11703,16765907,7505,916,Tag0,unknown
777,1611472566701,26,405,8.89892578125e-05,13,60,116,646110,29842,16762463,14418,11703,16765907,7505,916,Tag0,unknown
778,1611472566712,26,178,3.9111328125e-05,13,60,116,646110,29842,16762463,14418,11703,16765907,7505,916,Tag0,unknown
779,1611472566728,26,228,5.009765625000001e-05,13,60,116,646110,29842,16762463,14418,11703,16765907,7505,916,Tag0,unknown
780,1611472566749,26,424,9.31640625e-05,13,60,116,646110,29842,16762463,14418,11703,16765907,7505,916,Tag0,unknown
781,1611472566759,26,325,7.14111328125e-05,13,60,116,646110,29842,16762463,14418,11703,16765907,7505,916,Tag0,unknown
782,1611472566772,26,-59,-1.29638671875e-05,13,60,116,646110,29842,16762463,14418,11703,16765907,7505,916,Tag0,unknown
783,1611472566784,26,-339,-7.448730468750001e-05,13,60,116,646110,29842,16762463,14418,11703,16765907,7505,916,Tag0,unknown
784,1611472566805,26,-364,-7.998046875e-05,13,60,116,646110,29842,16762463,14418,11703,16765907,7505,916,Tag0,unknown
785,1611472566816,26,-74,-1.6259765625e-05,13,60,116,646110,29842,16762463,14418,11703,16765907,7505,916,Tag0,unknown
786,1611472566826,26,81,1.77978515625e-05,13,60,116,646110,29842,16762463,14418,11703,16765907,7505,916,Tag0,unknown
787,1611472566847,26,-520,-0.0001142578125,13,60,116,646110,29842,16762463,14418,11703,16765907,7505,916,Tag0,unknown
788,1611472566864,26,-359,-7.88818359375e-05,13,60,116,646110,29842,16762463,14418,11703,16765907,7505,916,Tag0,unknown
789,1611472566880,26,-379,-8.32763671875e-05,13,60,116,646110,29842,16762463,14418,11703,16765907,7505,916,Tag0,unknown
790,1611472566899,26,-772,-0.00016962890625000002,13,60,116,646110,29842,16762463,14418,11703,16765907,7505,916,Tag0,unknown
791,1611472566909,26,-547,-0.0001201904296875,13,60,116,646110,29842,16762463,14418,11703,16765907,7505,916,Tag0,unknown
792,1611472566959,26,-1287,-0.0002827880859375,13,60,116,646110,29842,16762463,14418,11703,16765907,7505,916,Tag0,unknown
793,1611472566969,26,-1373,-0.0003016845703125,13,60,116,646110,29842,16762463,14418,11703,16765907,7505,916,Tag0,unknown
794,1611472567027,26,-801,-0.0001760009765625,13,60,116,646110,29842,16762463,14418,11703,16765907,7505,916,Tag0,unknown
795,1611472567041,26,-1548,-0.00034013671875,13,60,116,646110,29842,16762463,14418,11703,16765907,7505,916,Tag0,unknown
796,1611472567052,26,-1133,-0.0002489501953125,13,60,116,646110,29842,16762463,14418,11703,16765907,7505,916,Tag0,unknown
797,1611472567094,26,-1559,-0.0003425537109375001,13,60,116,646110,29842,16762463,14418,11703,16765907,7505,916,Tag0,unknown
798,1611472567124,26,-1786,-0.000392431640625,13,60,116,646110,29842,16762463,14418,11703,16765907,7505,916,Tag0,unknown
799,1611472567134,26,-1106,-0.000243017578125,13,60,116,646110,29842,16762463,14418,11703,16765907,7505,916,Tag0,unknown
800,1611472567236,26,-1573,-0.0003456298828125,13,60,116,646110,29842,16762463,14418,11703,16765907,7505,916,Tag0,unknown
801,1611472567261,26,-1081,-0.0002375244140625,13,60,116,646110,29842,16762463,14418,11703,16765907,7505,916,Tag0,unknown
802,1611472567271,26,-1686,-0.000370458984375,13,60,116,646110,29842,16762463,14418,11703,16765907,7505,916,Tag0,unknown
803,1611472567301,26,-1067,-0.0002344482421875,13,60,116,646110,29842,16762463,14418,11703,16765907,7505,916,Tag0,unknown
804,1611472567317,26,-1573,-0.0003456298828125,13,60,116,646110,29842,16762463,14418,11703,16765907,7505,916,Tag0,unknown
805,1611472567327,26,805,0.0001768798828125,13,60,116,646110,29842,16762463,14418,11703,16765907,7505,916,Tag0,unknown
806,1611472567369,26,-86,-1.8896484375000006e-05,13,60,116,646110,29842,16762463,14418,11703,16765907,7505,916,Tag0,unknown
807,1611472567384,26,246,5.4052734375e-05,13,60,116,646110,29842,16762463,14418,11703,16765907,7505,916,Tag0,unknown
808,1611472567459,26,233,5.119628906250001e-05,13,60,116,2182858,79536,203949,90727,14816,81663,16756800,10538,Tag0,unknown
809,1611472567470,26,-514,-0.000112939453125,13,60,116,2182858,79536,203949,90727,14816,81663,16756800,10538,Tag0,unknown
810,1611472567489,26,121,2.6586914062500006e-05,13,60,116,2182858,79536,203949,90727,14816,81663,16756800,10538,Tag0,unknown
811,1611472567502,26,-679,-0.0001491943359375,13,60,116,2182858,79536,203949,90727,14816,81663,16756800,10538,Tag0,unknown
812,1611472567512,26,-203,-4.4604492187500014e-05,13,60,116,2182858,79536,203949,90727,14816,81663,16756800,10538,Tag0,unknown
813,1611472567522,26,-650,-0.000142822265625,13,60,116,2182858,79536,203949,90727,14816,81663,16756800,10538,Tag0,unknown
814,1611472567532,26,-112,-2.4609375e-05,13,60,116,2182858,79536,203949,90727,14816,81663,16756800,10538,Tag0,unknown
815,1611472567542,26,348,7.646484375e-05,13,60,116,2182858,79536,203949,90727,14816,81663,16756800,10538,Tag0,unknown
816,1611472567552,26,-202,-4.4384765625e-05,13,60,116,2182858,79536,203949,90727,14816,81663,16756800,10538,Tag0,unknown
817,1611472567572,26,331,7.272949218750001e-05,13,60,116,2182858,79536,203949,90727,14816,81663,16756800,10538,Tag0,unknown
818,1611472567582,26,-180,-3.955078125e-05,13,60,116,2182858,79536,203949,90727,14816,81663,16756800,10538,Tag0,unknown
819,1611472567607,26,-601,-0.00013205566406249998,13,60,116,2182858,79536,203949,90727,14816,81663,16756800,10538,Tag0,unknown
820,1611472567618,26,103,2.26318359375e-05,13,60,116,2182858,79536,203949,90727,14816,81663,16756800,10538,Tag0,unknown
821,1611472567634,26,451,9.90966796875e-05,13,60,116,2182858,79536,203949,90727,14816,81663,16756800,10538,Tag0,unknown
822,1611472567652,26,-678,-0.00014897460937500002,13,60,116,2182858,79536,203949,90727,14816,81663,16756800,10538,Tag0,unknown
823,1611472567669,26,-147,-3.22998046875e-05,13,60,116,2182858,79536,203949,90727,14816,81663,16756800,10538,Tag0,unknown
824,1611472567679,26,-245,-5.38330078125e-05,13,60,116,2182858,79536,203949,90727,14816,81663,16756800,10538,Tag0,unknown
825,1611472567694,26,-78,-1.7138671875e-05,13,60,116,2182858,79536,203949,90727,14816,81663,16756800,10538,Tag0,unknown
826,1611472567704,26,-203,-4.4604492187500014e-05,13,60,116,2182858,79536,203949,90727,14816,81663,16756800,10538,Tag0,unknown
827,1611472567720,26,-819,-0.0001799560546875,13,60,116,2182858,79536,203949,90727,14816,81663,16756800,10538,Tag0,unknown
828,1611472567730,26,-539,-0.0001184326171875,13,60,116,2182858,79536,203949,90727,14816,81663,16756800,10538,Tag0,unknown
829,1611472567745,26,179,3.93310546875e-05,13,60,116,2182858,79536,203949,90727,14816,81663,16756800,10538,Tag0,unknown
830,1611472567768,26,-285,-6.26220703125e-05,13,60,116,2182858,79536,203949,90727,14816,81663,16756800,10538,Tag0,unknown
831,1611472567785,26,-343,-7.53662109375e-05,13,60,116,2182858,79536,203949,90727,14816,81663,16756800,10538,Tag0,unknown
832,1611472567800,26,-61,-1.34033203125e-05,13,60,116,2182858,79536,203949,90727,14816,81663,16756800,10538,Tag0,unknown
833,1611472567810,26,-397,-8.72314453125e-05,13,60,116,2182858,79536,203949,90727,14816,81663,16756800,10538,Tag0,unknown
834,1611472567835,26,-243,-5.33935546875e-05,13,60,116,2182858,79536,203949,90727,14816,81663,16756800,10538,Tag0,unknown
835,1611472567856,26,-587,-0.00012897949218750005,13,60,116,2182858,79536,203949,90727,14816,81663,16756800,10538,Tag0,unknown
836,1611472567868,26,230,5.0537109375e-05,13,60,116,2182858,79536,203949,90727,14816,81663,16756800,10538,Tag0,unknown
837,1611472567878,26,304,6.6796875e-05,13,60,116,2182858,79536,203949,90727,14816,81663,16756800,10538,Tag0,unknown
838,1611472567888,26,342,7.5146484375e-05,13,60,116,2182858,79536,203949,90727,14816,81663,16756800,10538,Tag0,unknown
839,1611472567902,26,-322,-7.0751953125e-05,13,60,116,2182858,79536,203949,90727,14816,81663,16756800,10538,Tag0,unknown
840,1611472567937,26,-407,-8.94287109375e-05,13,60,116,2182858,79536,203949,90727,14816,81663,16756800,10538,Tag0,unknown
841,1611472567950,26,66,1.4501953125e-05,13,60,116,2182858,79536,203949,90727,14816,81663,16756800,10538,Tag0,unknown
842,1611472567974,26,263,5.778808593750001e-05,13,60,116,2182858,79536,203949,90727,14816,81663,16756800,10538,Tag0,unknown
843,1611472567986,26,-584,-0.00012832031250000002,13,60,116,2182858,79536,203949,90727,14816,81663,16756800,10538,Tag0,unknown
844,1611472567996,26,140,3.076171875e-05,13,60,116,2182858,79536,203949,90727,14816,81663,16756800,10538,Tag0,unknown
845,1611472568006,26,-569,-0.0001250244140625,13,60,116,2182858,79536,203949,90727,14816,81663,16756800,10538,Tag0,unknown
846,1611472568022,26,403,8.854980468749999e-05,13,60,116,2182858,79536,203949,90727,14816,81663,16756800,10538,Tag0,unknown
847,1611472568046,26,-390,-8.5693359375e-05,13,60,116,2182858,79536,203949,90727,14816,81663,16756800,10538,Tag0,unknown
848,1611472568056,26,-571,-0.0001254638671875,13,60,116,2182858,79536,203949,90727,14816,81663,16756800,10538,Tag0,unknown
849,1611472568069,26,-289,-6.35009765625e-05,13,60,116,2182858,79536,203949,90727,14816,81663,16756800,10538,Tag0,unknown
850,1611472568088,26,53,1.1645507812500003e-05,13,60,116,2162741,233584,218177,67986,16770985,89145,16744995,6059,Tag0,unknown
851,1611472568106,26,-172,-3.779296875000001e-05,13,60,116,2162741,233584,218177,67986,16770985,89145,16744995,6059,Tag0,unknown
852,1611472568117,26,-146,-3.2080078125000004e-05,13,60,116,2162741,233584,218177,67986,16770985,89145,16744995,6059,Tag0,unknown
853,1611472568133,26,266,5.8447265625e-05,13,60,116,2162741,233584,218177,67986,16770985,89145,16744995,6059,Tag0,unknown
854,1611472568150,26,125,2.74658203125e-05,13,60,116,2162741,233584,218177,67986,16770985,89145,16744995,6059,Tag0,unknown
855,1611472568167,26,-323,-7.09716796875e-05,13,60,116,2162741,233584,218177,67986,16770985,89145,16744995,6059,Tag0,unknown
856,1611472568186,26,379,8.32763671875e-05,13,60,116,2162741,233584,218177,67986,16770985,89145,16744995,6059,Tag0,unknown
857,1611472568205,26,167,3.66943359375e-05,13,60,116,2162741,233584,218177,67986,16770985,89145,16744995,6059,Tag0,unknown
858,1611472568217,26,-358,-7.8662109375e-05,13,60,116,2162741,233584,218177,67986,16770985,89145,16744995,6059,Tag0,unknown
859,1611472568227,26,-467,-0.0001026123046875,13,60,116,2162741,233584,218177,67986,16770985,89145,16744995,6059,Tag0,unknown
860,1611472568237,26,-549,-0.0001206298828125,13,60,116,2162741,233584,218177,67986,16770985,89145,16744995,6059,Tag0,unknown
861,1611472568261,26,-421,-9.25048828125e-05,13,60,116,2162741,233584,218177,67986,16770985,89145,16744995,6059,Tag0,unknown
862,1611472568271,26,67,1.4721679687500003e-05,13,60,116,2162741,233584,218177,67986,16770985,89145,16744995,6059,Tag0,unknown
863,1611472568283,26,468,0.00010283203125,13,60,116,2162741,233584,218177,67986,16770985,89145,16744995,6059,Tag0,unknown
864,1611472568300,26,368,8.0859375e-05,13,60,116,2162741,233584,218177,67986,16770985,89145,16744995,6059,Tag0,unknown
865,1611472568318,26,116,2.548828125e-05,13,60,116,2162741,233584,218177,67986,16770985,89145,16744995,6059,Tag0,unknown
866,1611472568337,26,-213,-4.68017578125e-05,13,60,116,2162741,233584,218177,67986,16770985,89145,16744995,6059,Tag0,unknown
867,1611472568354,26,-406,-8.920898437500001e-05,13,60,116,2162741,233584,218177,67986,16770985,89145,16744995,6059,Tag0,unknown
868,1611472568364,26,-66,-1.4501953125e-05,13,60,116,2162741,233584,218177,67986,16770985,89145,16744995,6059,Tag0,unknown
869,1611472568379,26,-13,-2.8564453125e-06,13,60,116,2162741,233584,218177,67986,16770985,89145,16744995,6059,Tag0,unknown
870,1611472568389,26,-238,-5.2294921875000014e-05,13,60,116,2162741,233584,218177,67986,16770985,89145,16744995,6059,Tag0,unknown
871,1611472568403,26,-357,-7.844238281250001e-05,13,60,116,2162741,233584,218177,67986,16770985,89145,16744995,6059,Tag0,unknown
872,1611472568413,26,-396,-8.701171875000001e-05,13,60,116,2162741,233584,218177,67986,16770985,89145,16744995,6059,Tag0,unknown
873,1611472568423,26,631,0.0001386474609375,13,60,116,2162741,233584,218177,67986,16770985,89145,16744995,6059,Tag0,unknown
874,1611472568434,26,-321,-7.053222656250001e-05,13,60,116,2162741,233584,218177,67986,16770985,89145,16744995,6059,Tag0,unknown
875,1611472568451,26,-581,-0.0001276611328125,13,60,116,2162741,233584,218177,67986,16770985,89145,16744995,6059,Tag0,unknown
876,1611472568468,26,327,7.18505859375e-05,13,60,116,2162741,233584,218177,67986,16770985,89145,16744995,6059,Tag0,unknown
877,1611472568488,26,18,3.955078125e-06,13,60,116,2162741,233584,218177,67986,16770985,89145,16744995,6059,Tag0,unknown
878,1611472568501,26,-539,-0.0001184326171875,13,60,116,2162741,233584,218177,67986,16770985,89145,16744995,6059,Tag0,unknown
879,1611472568524,26,-391,-8.591308593750001e-05,13,60,116,2162741,233584,218177,67986,16770985,89145,16744995,6059,Tag0,unknown
880,1611472568536,26,-131,-2.87841796875e-05,13,60,116,2162741,233584,218177,67986,16770985,89145,16744995,6059,Tag0,unknown
881,1611472568546,26,-517,-0.0001135986328125,13,60,116,2162741,233584,218177,67986,16770985,89145,16744995,6059,Tag0,unknown
882,1611472568563,26,360,7.91015625e-05,13,60,116,2162741,233584,218177,67986,16770985,89145,16744995,6059,Tag0,unknown
883,1611472568573,26,60,1.318359375e-05,13,60,116,2162741,233584,218177,67986,16770985,89145,16744995,6059,Tag0,unknown
884,1611472568587,26,-13,-2.8564453125e-06,13,60,116,2162741,233584,218177,67986,16770985,89145,16744995,6059,Tag0,unknown
885,1611472568604,26,-325,-7.14111328125e-05,13,60,116,2162741,233584,218177,67986,16770985,89145,16744995,6059,Tag0,unknown
886,1611472568620,26,364,7.998046875e-05,13,60,116,2162741,233584,218177,67986,16770985,89145,16744995,6059,Tag0,unknown
887,1611472568638,26,-417,-9.16259765625e-05,13,60,116,2162741,233584,218177,67986,16770985,89145,16744995,6059,Tag0,unknown
888,1611472568653,26,269,5.91064453125e-05,13,60,116,2162741,233584,218177,67986,16770985,89145,16744995,6059,Tag0,unknown
889,1611472568670,26,-281,-6.17431640625e-05,13,60,116,2162741,233584,218177,67986,16770985,89145,16744995,6059,Tag0,unknown
890,1611472568691,26,-269,-5.91064453125e-05,13,60,116,2162741,233584,218177,67986,16770985,89145,16744995,6059,Tag0,unknown
891,1611472568704,26,-570,-0.000125244140625,13,60,116,2162741,233584,218177,67986,16770985,89145,16744995,6059,Tag0,unknown
892,1611472568714,26,213,4.68017578125e-05,13,60,116,2162741,233584,218177,67986,16770985,89145,16744995,6059,Tag0,unknown
893,1611472568724,26,772,0.00016962890625000002,13,60,116,2162741,233584,218177,67986,16770985,89145,16744995,6059,Tag0,unknown
894,1611472568734,26,148,3.251953125e-05,13,60,116,2162741,233584,218177,67986,16770985,89145,16744995,6059,Tag0,unknown
895,1611472568764,26,-299,-6.56982421875e-05,13,60,116,2162741,233584,218177,67986,16770985,89145,16744995,6059,Tag0,unknown
896,1611472568785,26,-569,-0.0001250244140625,13,60,116,2162741,233584,218177,67986,16770985,89145,16744995,6059,Tag0,unknown
897,1611472568806,26,173,3.80126953125e-05,13,60,116,2162741,233584,218177,67986,16770985,89145,16744995,6059,Tag0,unknown
898,1611472568822,26,-217,-4.76806640625e-05,13,60,116,2162741,233584,218177,67986,16770985,89145,16744995,6059,Tag0,unknown
899,1611472568834,26,274,6.0205078125e-05,13,60,116,2162741,233584,218177,67986,16770985,89145,16744995,6059,Tag0,unknown
900,1611472568845,26,-810,-0.000177978515625,13,60,116,2162741,233584,218177,67986,16770985,89145,16744995,6059,Tag0,unknown
901,1611472568855,26,-343,-7.53662109375e-05,13,60,116,2162741,233584,218177,67986,16770985,89145,16744995,6059,Tag0,unknown
902,1611472568870,26,136,2.98828125e-05,13,60,116,2162741,233584,218177,67986,16770985,89145,16744995,6059,Tag0,unknown
903,1611472568887,26,2,4.39453125e-07,13,60,116,2162741,233584,218177,67986,16770985,89145,16744995,6059,Tag0,unknown
904,1611472568901,26,-633,-0.00013908691406250002,13,60,116,2162741,233584,218177,67986,16770985,89145,16744995,6059,Tag0,unknown
905,1611472568965,26,411,9.03076171875e-05,13,60,116,2162741,233584,218177,67986,16770985,89145,16744995,6059,Tag0,unknown
906,1611472568996,26,-519,-0.0001140380859375,13,60,116,2162741,233584,218177,67986,16770985,89145,16744995,6059,Tag0,unknown
907,1611472569006,26,103,2.26318359375e-05,13,60,116,2162741,233584,218177,67986,16770985,89145,16744995,6059,Tag0,unknown
908,1611472569016,26,-568,-0.0001248046875,13,60,116,2162741,233584,218177,67986,16770985,89145,16744995,6059,Tag0,unknown
909,1611472569026,26,-204,-4.482421875e-05,13,60,116,2162741,233584,218177,67986,16770985,89145,16744995,6059,Tag0,unknown
910,1611472569036,26,535,0.0001175537109375,13,60,116,2162741,233584,218177,67986,16770985,89145,16744995,6059,Tag0,unknown
911,1611472569046,26,514,0.000112939453125,13,60,116,2162741,233584,218177,67986,16770985,89145,16744995,6059,Tag0,unknown
912,1611472569080,26,-353,-7.75634765625e-05,13,60,116,2162741,233584,218177,67986,16770985,89145,16744995,6059,Tag0,unknown
913,1611472569103,26,-321,-7.053222656250001e-05,13,60,116,2162741,233584,218177,67986,16770985,89145,16744995,6059,Tag0,unknown
914,1611472569113,26,-421,-9.25048828125e-05,13,60,116,447804,16744689,16766173,25755,4573,16771449,13528,4868,Tag0,unknown
915,1611472569125,26,-232,-5.09765625e-05,13,60,116,447804,16744689,16766173,25755,4573,16771449,13528,4868,Tag0,unknown
916,1611472569137,26,-37,-8.1298828125e-06,13,60,116,447804,16744689,16766173,25755,4573,16771449,13528,4868,Tag0,unknown
917,1611472569152,26,288,6.328125e-05,13,60,116,447804,16744689,16766173,25755,4573,16771449,13528,4868,Tag0,unknown
918,1611472569168,26,577,0.00012678222656250002,13,60,116,447804,16744689,16766173,25755,4573,16771449,13528,4868,Tag0,unknown
919,1611472569198,26,-343,-7.53662109375e-05,13,60,116,447804,16744689,16766173,25755,4573,16771449,13528,4868,Tag0,unknown
920,1611472569208,26,-572,-0.00012568359375,13,60,116,447804,16744689,16766173,25755,4573,16771449,13528,4868,Tag0,unknown
921,1611472569223,26,267,5.86669921875e-05,13,60,116,447804,16744689,16766173,25755,4573,16771449,13528,4868,Tag0,unknown
922,1611472569238,26,-573,-0.0001259033203125,13,60,116,447804,16744689,16766173,25755,4573,16771449,13528,4868,Tag0,unknown
923,1611472569253,26,346,7.6025390625e-05,13,60,116,447804,16744689,16766173,25755,4573,16771449,13528,4868,Tag0,unknown
924,1611472569269,26,-380,-8.349609375e-05,13,60,116,447804,16744689,16766173,25755,4573,16771449,13528,4868,Tag0,unknown
925,1611472569286,26,610,0.000134033203125,13,60,116,447804,16744689,16766173,25755,4573,16771449,13528,4868,Tag0,unknown
926,1611472569308,26,-251,-5.51513671875e-05,13,60,116,447804,16744689,16766173,25755,4573,16771449,13528,4868,Tag0,unknown
927,1611472569320,26,-58,-1.2744140625e-05,13,60,116,447804,16744689,16766173,25755,4573,16771449,13528,4868,Tag0,unknown
928,1611472569342,26,-30,-6.591796875e-06,13,60,116,447804,16744689,16766173,25755,4573,16771449,13528,4868,Tag0,unknown
929,1611472569356,26,-139,-3.0541992187500004e-05,13,60,116,447804,16744689,16766173,25755,4573,16771449,13528,4868,Tag0,unknown
930,1611472569366,26,-405,-8.89892578125e-05,13,60,116,447804,16744689,16766173,25755,4573,16771449,13528,4868,Tag0,unknown
931,1611472569379,26,532,0.00011689453125,13,60,116,447804,16744689,16766173,25755,4573,16771449,13528,4868,Tag0,unknown
932,1611472569389,26,1027,0.00022565917968750006,13,60,116,447804,16744689,16766173,25755,4573,16771449,13528,4868,Tag0,unknown
933,1611472569405,26,551,0.0001210693359375,13,60,116,447804,16744689,16766173,25755,4573,16771449,13528,4868,Tag0,unknown
934,1611472569422,26,-8,-1.7578125e-06,13,60,116,447804,16744689,16766173,25755,4573,16771449,13528,4868,Tag0,unknown
935,1611472569438,26,-490,-0.000107666015625,13,60,116,447804,16744689,16766173,25755,4573,16771449,13528,4868,Tag0,unknown
936,1611472569448,26,-440,-9.66796875e-05,13,60,116,447804,16744689,16766173,25755,4573,16771449,13528,4868,Tag0,unknown
937,1611472569471,26,-32,-7.03125e-06,13,60,116,447804,16744689,16766173,25755,4573,16771449,13528,4868,Tag0,unknown
938,1611472569481,26,-107,-2.35107421875e-05,13,60,116,447804,16744689,16766173,25755,4573,16771449,13528,4868,Tag0,unknown
939,1611472569491,26,891,0.0001957763671875,13,60,116,447804,16744689,16766173,25755,4573,16771449,13528,4868,Tag0,unknown
940,1611472569503,26,-14,-3.076171875e-06,13,60,116,447804,16744689,16766173,25755,4573,16771449,13528,4868,Tag0,unknown
941,1611472569541,26,199,4.37255859375e-05,13,60,116,447804,16744689,16766173,25755,4573,16771449,13528,4868,Tag0,unknown
942,1611472569554,26,-588,-0.00012919921875,13,60,116,447804,16744689,16766173,25755,4573,16771449,13528,4868,Tag0,unknown
943,1611472569564,26,137,3.01025390625e-05,13,60,116,447804,16744689,16766173,25755,4573,16771449,13528,4868,Tag0,unknown
944,1611472569580,26,100,2.197265625e-05,13,60,116,447804,16744689,16766173,25755,4573,16771449,13528,4868,Tag0,unknown
945,1611472569590,26,-633,-0.00013908691406250002,13,60,116,447804,16744689,16766173,25755,4573,16771449,13528,4868,Tag0,unknown
946,1611472569606,26,-373,-8.19580078125e-05,13,60,116,447804,16744689,16766173,25755,4573,16771449,13528,4868,Tag0,unknown
947,1611472569622,26,-370,-8.1298828125e-05,13,60,116,447804,16744689,16766173,25755,4573,16771449,13528,4868,Tag0,unknown
948,1611472569637,26,720,0.000158203125,13,60,116,447804,16744689,16766173,25755,4573,16771449,13528,4868,Tag0,unknown
949,1611472569653,26,123,2.70263671875e-05,13,60,116,447804,16744689,16766173,25755,4573,16771449,13528,4868,Tag0,unknown
950,1611472569681,26,-262,-5.7568359375e-05,13,60,116,447804,16744689,16766173,25755,4573,16771449,13528,4868,Tag0,unknown
951,1611472569691,26,48,1.0546875e-05,13,60,116,447804,16744689,16766173,25755,4573,16771449,13528,4868,Tag0,unknown
952,1611472569706,26,283,6.218261718750001e-05,13,60,116,447804,16744689,16766173,25755,4573,16771449,13528,4868,Tag0,unknown
953,1611472569723,26,537,0.0001179931640625,13,60,116,447804,16744689,16766173,25755,4573,16771449,13528,4868,Tag0,unknown
954,1611472569739,26,537,0.0001179931640625,13,60,116,447804,16744689,16766173,25755,4573,16771449,13528,4868,Tag0,unknown
955,1611472569756,26,137,3.01025390625e-05,13,60,116,447804,16744689,16766173,25755,4573,16771449,13528,4868,Tag0,unknown
956,1611472569772,26,-295,-6.48193359375e-05,13,60,116,447804,16744689,16766173,25755,4573,16771449,13528,4868,Tag0,unknown
957,1611472569782,26,325,7.14111328125e-05,13,60,116,447804,16744689,16766173,25755,4573,16771449,13528,4868,Tag0,unknown
958,1611472569799,26,507,0.0001114013671875,13,60,116,447804,16744689,16766173,25755,4573,16771449,13528,4868,Tag0,unknown
959,1611472569820,26,-530,-0.000116455078125,13,60,116,447804,16744689,16766173,25755,4573,16771449,13528,4868,Tag0,unknown
960,1611472569843,26,64,1.40625e-05,13,60,116,447804,16744689,16766173,25755,4573,16771449,13528,4868,Tag0,unknown
961,1611472569857,26,224,4.921875e-05,13,60,116,447804,16744689,16766173,25755,4573,16771449,13528,4868,Tag0,unknown
962,1611472569889,26,-389,-8.54736328125e-05,13,60,116,447804,16744689,16766173,25755,4573,16771449,13528,4868,Tag0,unknown
963,1611472569906,26,-445,-9.77783203125e-05,13,60,116,447804,16744689,16766173,25755,4573,16771449,13528,4868,Tag0,unknown
964,1611472569916,26,331,7.272949218750001e-05,13,60,116,447804,16744689,16766173,25755,4573,16771449,13528,4868,Tag0,unknown
965,1611472569927,26,298,6.5478515625e-05,13,60,116,447804,16744689,16766173,25755,4573,16771449,13528,4868,Tag0,unknown
966,1611472569939,26,-593,-0.00013029785156250002,13,60,116,447804,16744689,16766173,25755,4573,16771449,13528,4868,Tag0,unknown
967,1611472569949,26,-301,-6.613769531250001e-05,13,60,116,447804,16744689,16766173,25755,4573,16771449,13528,4868,Tag0,unknown
968,1611472569972,26,-289,-6.35009765625e-05,13,60,116,447804,16744689,16766173,25755,4573,16771449,13528,4868,Tag0,unknown
969,1611472569997,26,294,6.4599609375e-05,13,60,116,447804,16744689,16766173,25755,4573,16771449,13528,4868,Tag0,unknown
970,1611472570007,26,-281,-6.17431640625e-05,13,60,116,447804,16744689,16766173,25755,4573,16771449,13528,4868,Tag0,unknown
971,1611472570022,26,-556,-0.00012216796875000002,13,60,116,447804,16744689,16766173,25755,4573,16771449,13528,4868,Tag0,unknown
972,1611472570038,26,-109,-2.39501953125e-05,13,60,116,447804,16744689,16766173,25755,4573,16771449,13528,4868,Tag0,unknown
973,1611472570054,26,-552,-0.0001212890625,13,60,116,447804,16744689,16766173,25755,4573,16771449,13528,4868,Tag0,unknown
974,1611472570071,26,-617,-0.0001355712890625,13,60,116,447804,16744689,16766173,25755,4573,16771449,13528,4868,Tag0,unknown
975,1611472570088,26,-470,-0.000103271484375,13,60,116,447804,16744689,16766173,25755,4573,16771449,13528,4868,Tag0,unknown
976,1611472570098,26,71,1.56005859375e-05,13,60,116,557008,282574,16759468,17293,16746610,16744421,14702,10643,Tag0,unknown
977,1611472570117,26,-486,-0.000106787109375,13,60,116,557008,282574,16759468,17293,16746610,16744421,14702,10643,Tag0,unknown
978,1611472570127,26,-112,-2.4609375e-05,13,60,116,557008,282574,16759468,17293,16746610,16744421,14702,10643,Tag0,unknown
979,1611472570137,26,-541,-0.0001188720703125,13,60,116,557008,282574,16759468,17293,16746610,16744421,14702,10643,Tag0,unknown
980,1611472570147,26,-55,-1.20849609375e-05,13,60,116,557008,282574,16759468,17293,16746610,16744421,14702,10643,Tag0,unknown
981,1611472570175,26,-236,-5.185546875e-05,13,60,116,557008,282574,16759468,17293,16746610,16744421,14702,10643,Tag0,unknown
982,1611472570188,26,213,4.68017578125e-05,13,60,116,557008,282574,16759468,17293,16746610,16744421,14702,10643,Tag0,unknown
983,1611472570211,26,-315,-6.92138671875e-05,13,60,116,557008,282574,16759468,17293,16746610,16744421,14702,10643,Tag0,unknown
