timestampMs,poorSignal,eegRawValue,eegRawValueVolts,attention,meditation,blinkStrength,delta,theta,alphaLow,alphaHigh,betaLow,betaHigh,gammaLow,gammaMid,tagEvent,location
1605702231753,200,19,4.1748046875E-6,0,0,0,693407,255449,93851,163242,16766828,67872,16021,26778,Tag0,unknown
1605702231771,200,-867,-1.9050292968750003E-4,0,0,0,16764819,16758028,5828,65798,24282,10863,14161,9885,Tag0,unknown
1605702231795,200,-729,-1.601806640625E-4,0,0,0,16764819,16758028,5828,65798,24282,10863,14161,9885,Tag0,unknown
1605702231805,200,-577,-1.2678222656250002E-4,0,0,0,16764819,16758028,5828,65798,24282,10863,14161,9885,Tag0,unknown
1605702231831,200,-1109,-2.436767578125E-4,0,0,0,16764819,16758028,5828,65798,24282,10863,14161,9885,Tag0,unknown
1605702231841,200,-737,-1.6193847656250003E-4,0,0,0,16764819,16758028,5828,65798,24282,10863,14161,9885,Tag0,unknown
1605702231853,200,-740,-1.6259765625E-4,0,0,0,16764819,16758028,5828,65798,24282,10863,14161,9885,Tag0,unknown
1605702231871,200,-294,-6.4599609375E-5,0,0,0,16764819,16758028,5828,65798,24282,10863,14161,9885,Tag0,unknown
1605702231887,200,279,6.13037109375E-5,0,0,0,16764819,16758028,5828,65798,24282,10863,14161,9885,Tag0,unknown
1605702231904,200,57,1.2524414062500001E-5,0,0,0,16764819,16758028,5828,65798,24282,10863,14161,9885,Tag0,unknown
1605702231921,200,45,9.8876953125E-6,0,0,0,16764819,16758028,5828,65798,24282,10863,14161,9885,Tag0,unknown
1605702231938,200,613,1.3469238281250002E-4,0,0,0,16764819,16758028,5828,65798,24282,10863,14161,9885,Tag0,unknown
1605702231955,200,-675,-1.483154296875E-4,0,0,0,16764819,16758028,5828,65798,24282,10863,14161,9885,Tag0,unknown
1605702231971,200,471,1.0349121093750001E-4,0,0,0,16764819,16758028,5828,65798,24282,10863,14161,9885,Tag0,unknown
1605702231988,200,-753,-1.6545410156250002E-4,0,0,0,16764819,16758028,5828,65798,24282,10863,14161,9885,Tag0,unknown
1605702232031,200,-269,-5.9106445312499996E-5,0,0,0,16764819,16758028,5828,65798,24282,10863,14161,9885,Tag0,unknown
1605702232041,200,-526,-1.1557617187500001E-4,0,0,0,16764819,16758028,5828,65798,24282,10863,14161,9885,Tag0,unknown
1605702232068,200,-438,-9.6240234375E-5,0,0,0,16764819,16758028,5828,65798,24282,10863,14161,9885,Tag0,unknown
1605702232078,200,617,1.355712890625E-4,0,0,0,16764819,16758028,5828,65798,24282,10863,14161,9885,Tag0,unknown
1605702232089,200,-655,-1.439208984375E-4,0,0,0,16764819,16758028,5828,65798,24282,10863,14161,9885,Tag0,unknown
1605702232105,200,-64,-1.40625E-5,0,0,0,16764819,16758028,5828,65798,24282,10863,14161,9885,Tag0,unknown
1605702232138,200,-805,-1.768798828125E-4,0,0,0,16764819,16758028,5828,65798,24282,10863,14161,9885,Tag0,unknown
1605702232170,200,91,1.99951171875E-5,0,0,0,16764819,16758028,5828,65798,24282,10863,14161,9885,Tag0,unknown
1605702232189,200,429,9.42626953125E-5,0,0,0,16764819,16758028,5828,65798,24282,10863,14161,9885,Tag0,unknown
1605702232208,200,140,3.076171875E-5,0,0,0,16764819,16758028,5828,65798,24282,10863,14161,9885,Tag0,unknown
1605702232222,200,-771,-1.694091796875E-4,0,0,0,16764819,16758028,5828,65798,24282,10863,14161,9885,Tag0,unknown
1605702232248,200,21,4.614257812500001E-6,0,0,0,16764819,16758028,5828,65798,24282,10863,14161,9885,Tag0,unknown
1605702232258,200,283,6.218261718750001E-5,0,0,0,16764819,16758028,5828,65798,24282,10863,14161,9885,Tag0,unknown
1605702232287,200,528,1.16015625E-4,0,0,0,16764819,16758028,5828,65798,24282,10863,14161,9885,Tag0,unknown
1605702232306,200,-1018,-2.23681640625E-4,0,0,0,16764819,16758028,5828,65798,24282,10863,14161,9885,Tag0,unknown
1605702232328,200,229,5.03173828125E-5,0,0,0,16764819,16758028,5828,65798,24282,10863,14161,9885,Tag0,unknown
1605702232340,200,884,1.9423828125E-4,0,0,0,16764819,16758028,5828,65798,24282,10863,14161,9885,Tag0,unknown
1605702232361,200,-875,-1.922607421875E-4,0,0,0,16764819,16758028,5828,65798,24282,10863,14161,9885,Tag0,unknown
1605702232373,200,886,1.94677734375E-4,0,0,0,16764819,16758028,5828,65798,24282,10863,14161,9885,Tag0,unknown
1605702232383,200,-226,-4.9658203125E-5,0,0,0,16764819,16758028,5828,65798,24282,10863,14161,9885,Tag0,unknown
1605702232400,200,-1354,-2.9750976562500003E-4,0,0,0,16764819,16758028,5828,65798,24282,10863,14161,9885,Tag0,unknown
1605702232410,200,52,1.142578125E-5,0,0,0,16764819,16758028,5828,65798,24282,10863,14161,9885,Tag0,unknown
1605702232475,200,155,3.40576171875E-5,0,0,0,16764819,16758028,5828,65798,24282,10863,14161,9885,Tag0,unknown
1605702232493,200,844,1.8544921875E-4,0,0,0,16764819,16758028,5828,65798,24282,10863,14161,9885,Tag0,unknown
1605702232542,200,-779,-1.7116699218750001E-4,0,0,0,16764819,16758028,5828,65798,24282,10863,14161,9885,Tag0,unknown
1605702232558,200,-103,-2.26318359375E-5,0,0,0,16764819,16758028,5828,65798,24282,10863,14161,9885,Tag0,unknown
1605702232609,200,338,7.426757812499999E-5,0,0,0,16764819,16758028,5828,65798,24282,10863,14161,9885,Tag0,unknown
1605702232624,200,677,1.4875488281250002E-4,0,0,0,16764819,16758028,5828,65798,24282,10863,14161,9885,Tag0,unknown
1605702232677,200,299,6.56982421875E-5,0,0,0,16764819,16758028,5828,65798,24282,10863,14161,9885,Tag0,unknown
1605702232691,200,-183,-4.02099609375E-5,0,0,0,16764819,16758028,5828,65798,24282,10863,14161,9885,Tag0,unknown
1605702232745,200,841,1.847900390625E-4,0,0,0,16764819,16758028,5828,65798,24282,10863,14161,9885,Tag0,unknown
1605702232760,200,812,1.7841796875000003E-4,0,0,0,16764819,16758028,5828,65798,24282,10863,14161,9885,Tag0,unknown
1605702232812,200,1121,2.463134765625E-4,0,0,0,16764819,16758028,5828,65798,24282,10863,14161,9885,Tag0,unknown
1605702232825,200,225,4.94384765625E-5,0,0,0,16764819,16758028,5828,65798,24282,10863,14161,9885,Tag0,unknown
1605702232963,200,731,1.6062011718749998E-4,0,0,0,16764819,16758028,5828,65798,24282,10863,14161,9885,Tag0,unknown
1605702232987,200,613,1.3469238281250002E-4,0,0,0,16764819,16758028,5828,65798,24282,10863,14161,9885,Tag0,unknown
1605702232998,200,-51,-1.1206054687499999E-5,0,0,0,16764819,16758028,5828,65798,24282,10863,14161,9885,Tag0,unknown
1605702233008,200,700,1.5380859375E-4,0,0,0,16764819,16758028,5828,65798,24282,10863,14161,9885,Tag0,unknown
1605702233024,200,804,1.7666015625E-4,0,0,0,16764819,16758028,5828,65798,24282,10863,14161,9885,Tag0,unknown
1605702233043,200,785,1.724853515625E-4,0,0,0,16764819,16758028,5828,65798,24282,10863,14161,9885,Tag0,unknown
1605702233062,200,203,4.460449218750001E-5,0,0,0,16764819,16758028,5828,65798,24282,10863,14161,9885,Tag0,unknown
1605702233083,200,-1526,-3.3530273437500004E-4,0,0,0,16764819,16758028,5828,65798,24282,10863,14161,9885,Tag0,unknown
1605702233093,200,-41,-9.008789062499999E-6,0,0,0,16764819,16758028,5828,65798,24282,10863,14161,9885,Tag0,unknown
1605702233103,200,-170,-3.7353515625E-5,0,0,0,16764819,16758028,5828,65798,24282,10863,14161,9885,Tag0,unknown
1605702233113,200,-599,-1.316162109375E-4,0,0,0,16764819,16758028,5828,65798,24282,10863,14161,9885,Tag0,unknown
1605702233123,200,339,7.448730468750001E-5,0,0,0,16764819,16758028,5828,65798,24282,10863,14161,9885,Tag0,unknown
1605702233133,200,-327,-7.18505859375E-5,0,0,0,16764819,16758028,5828,65798,24282,10863,14161,9885,Tag0,unknown
1605702233143,200,-185,-4.06494140625E-5,0,0,0,16764819,16758028,5828,65798,24282,10863,14161,9885,Tag0,unknown
1605702233177,200,339,7.448730468750001E-5,0,0,0,16764819,16758028,5828,65798,24282,10863,14161,9885,Tag0,unknown
1605702233193,200,-90,-1.9775390625E-5,0,0,0,16764819,16758028,5828,65798,24282,10863,14161,9885,Tag0,unknown
1605702233217,200,81,1.77978515625E-5,0,0,0,16764819,16758028,5828,65798,24282,10863,14161,9885,Tag0,unknown
1605702233227,200,205,4.50439453125E-5,0,0,0,16764819,16758028,5828,65798,24282,10863,14161,9885,Tag0,unknown
1605702233237,200,67,1.4721679687500002E-5,0,0,0,16764819,16758028,5828,65798,24282,10863,14161,9885,Tag0,unknown
1605702233255,200,41,9.008789062499999E-6,0,0,0,16764819,16758028,5828,65798,24282,10863,14161,9885,Tag0,unknown
1605702233265,200,32,7.03125E-6,0,0,0,16764819,16758028,5828,65798,24282,10863,14161,9885,Tag0,unknown
1605702233278,200,-620,-1.3623046875E-4,0,0,0,16764819,16758028,5828,65798,24282,10863,14161,9885,Tag0,unknown
1605702233316,200,-246,-5.4052734375E-5,0,0,0,16764819,16758028,5828,65798,24282,10863,14161,9885,Tag0,unknown
1605702233328,200,-234,-5.1416015624999996E-5,0,0,0,16764819,16758028,5828,65798,24282,10863,14161,9885,Tag0,unknown
1605702233351,200,-289,-6.35009765625E-5,0,0,0,16764819,16758028,5828,65798,24282,10863,14161,9885,Tag0,unknown
1605702233362,200,-189,-4.15283203125E-5,0,0,0,16764819,16758028,5828,65798,24282,10863,14161,9885,Tag0,unknown
1605702233372,200,-140,-3.076171875E-5,0,0,0,16764819,16758028,5828,65798,24282,10863,14161,9885,Tag0,unknown
1605702233386,200,-377,-8.28369140625E-5,0,0,0,16764819,16758028,5828,65798,24282,10863,14161,9885,Tag0,unknown
1605702233396,200,-629,-1.382080078125E-4,0,0,0,16764819,16758028,5828,65798,24282,10863,14161,9885,Tag0,unknown
1605702233421,200,-29,-6.3720703125E-6,0,0,0,16764819,16758028,5828,65798,24282,10863,14161,9885,Tag0,unknown
1605702233431,200,-102,-2.2412109374999998E-5,0,0,0,16764819,16758028,5828,65798,24282,10863,14161,9885,Tag0,unknown
1605702233458,200,290,6.3720703125E-5,0,0,0,16764819,16758028,5828,65798,24282,10863,14161,9885,Tag0,unknown
1605702233478,200,117,2.5708007812499998E-5,0,0,0,16764819,16758028,5828,65798,24282,10863,14161,9885,Tag0,unknown
1605702233497,200,-71,-1.56005859375E-5,0,0,0,16764819,16758028,5828,65798,24282,10863,14161,9885,Tag0,unknown
1605702233511,200,-125,-2.74658203125E-5,0,0,0,16764819,16758028,5828,65798,24282,10863,14161,9885,Tag0,unknown
1605702233532,200,107,2.35107421875E-5,0,0,0,16764819,16758028,5828,65798,24282,10863,14161,9885,Tag0,unknown
1605702233545,200,282,6.1962890625E-5,0,0,0,16764819,16758028,5828,65798,24282,10863,14161,9885,Tag0,unknown
1605702233555,200,-5,-1.0986328125E-6,0,0,0,16764819,16758028,5828,65798,24282,10863,14161,9885,Tag0,unknown
1605702233574,200,-63,-1.38427734375E-5,0,0,0,16764819,16758028,5828,65798,24282,10863,14161,9885,Tag0,unknown
1605702233595,200,249,5.47119140625E-5,0,0,0,16764819,16758028,5828,65798,24282,10863,14161,9885,Tag0,unknown
1605702233605,200,-164,-3.6035156249999995E-5,0,0,0,16764819,16758028,5828,65798,24282,10863,14161,9885,Tag0,unknown
1605702233625,200,-182,-3.9990234375E-5,0,0,0,16764819,16758028,5828,65798,24282,10863,14161,9885,Tag0,unknown
1605702233648,200,-107,-2.35107421875E-5,0,0,0,16764819,16758028,5828,65798,24282,10863,14161,9885,Tag0,unknown
1605702233663,200,-277,-6.0864257812500005E-5,0,0,0,16764819,16758028,5828,65798,24282,10863,14161,9885,Tag0,unknown
1605702233691,200,344,7.558593750000001E-5,0,0,0,16764819,16758028,5828,65798,24282,10863,14161,9885,Tag0,unknown
1605702233701,200,283,6.218261718750001E-5,0,0,0,16764819,16758028,5828,65798,24282,10863,14161,9885,Tag0,unknown
1605702233733,200,-12,-2.63671875E-6,0,0,0,16764819,16758028,5828,65798,24282,10863,14161,9885,Tag0,unknown
1605702233748,200,-324,-7.119140625E-5,0,0,0,16764819,16758028,5828,65798,24282,10863,14161,9885,Tag0,unknown
1605702233759,200,-248,-5.44921875E-5,0,0,0,16764819,16758028,5828,65798,24282,10863,14161,9885,Tag0,unknown
1605702233780,200,-155,-3.40576171875E-5,0,0,0,20600,7150,2074,1817,1390,1255,16777192,16777153,Tag0,unknown
1605702233796,200,-188,-4.1308593750000004E-5,0,0,0,20600,7150,2074,1817,1390,1255,16777192,16777153,Tag0,unknown
1605702233819,200,-619,-1.360107421875E-4,0,0,0,20600,7150,2074,1817,1390,1255,16777192,16777153,Tag0,unknown
1605702233829,200,59,1.29638671875E-5,0,0,0,20600,7150,2074,1817,1390,1255,16777192,16777153,Tag0,unknown
1605702233849,200,102,2.2412109374999998E-5,0,0,0,20600,7150,2074,1817,1390,1255,16777192,16777153,Tag0,unknown
1605702233863,200,-53,-1.1645507812500002E-5,0,0,0,20600,7150,2074,1817,1390,1255,16777192,16777153,Tag0,unknown
1605702233883,200,721,1.584228515625E-4,0,0,0,20600,7150,2074,1817,1390,1255,16777192,16777153,Tag0,unknown
1605702233897,200,705,1.549072265625E-4,0,0,0,20600,7150,2074,1817,1390,1255,16777192,16777153,Tag0,unknown
1605702233921,200,405,8.89892578125E-5,0,0,0,20600,7150,2074,1817,1390,1255,16777192,16777153,Tag0,unknown
1605702233931,200,397,8.72314453125E-5,0,0,0,20600,7150,2074,1817,1390,1255,16777192,16777153,Tag0,unknown
1605702233954,200,-28,-6.15234375E-6,0,0,0,20600,7150,2074,1817,1390,1255,16777192,16777153,Tag0,unknown
1605702233964,200,101,2.2192382812500002E-5,0,0,0,20600,7150,2074,1817,1390,1255,16777192,16777153,Tag0,unknown
1605702233994,200,-283,-6.218261718750001E-5,0,0,0,20600,7150,2074,1817,1390,1255,16777192,16777153,Tag0,unknown
1605702234013,200,-340,-7.470703125E-5,0,0,0,20600,7150,2074,1817,1390,1255,16777192,16777153,Tag0,unknown
1605702234031,200,-663,-1.456787109375E-4,0,0,0,20600,7150,2074,1817,1390,1255,16777192,16777153,Tag0,unknown
1605702234048,200,-237,-5.2075195312500004E-5,0,0,0,20600,7150,2074,1817,1390,1255,16777192,16777153,Tag0,unknown
1605702234068,200,-107,-2.35107421875E-5,0,0,0,20600,7150,2074,1817,1390,1255,16777192,16777153,Tag0,unknown
1605702234101,200,177,3.8891601562500006E-5,0,0,0,20600,7150,2074,1817,1390,1255,16777192,16777153,Tag0,unknown
1605702234114,200,540,1.1865234375E-4,0,0,0,20600,7150,2074,1817,1390,1255,16777192,16777153,Tag0,unknown
1605702234141,200,112,2.4609375E-5,0,0,0,20600,7150,2074,1817,1390,1255,16777192,16777153,Tag0,unknown
1605702234151,200,310,6.8115234375E-5,0,0,0,20600,7150,2074,1817,1390,1255,16777192,16777153,Tag0,unknown
1605702234174,200,-117,-2.5708007812499998E-5,0,0,0,20600,7150,2074,1817,1390,1255,16777192,16777153,Tag0,unknown
1605702234188,200,-46,-1.0107421875E-5,0,0,0,20600,7150,2074,1817,1390,1255,16777192,16777153,Tag0,unknown
1605702234198,200,-63,-1.38427734375E-5,0,0,0,20600,7150,2074,1817,1390,1255,16777192,16777153,Tag0,unknown
1605702234218,200,-117,-2.5708007812499998E-5,0,0,0,20600,7150,2074,1817,1390,1255,16777192,16777153,Tag0,unknown
1605702234231,200,-115,-2.52685546875E-5,0,0,0,20600,7150,2074,1817,1390,1255,16777192,16777153,Tag0,unknown
1605702234260,200,301,6.613769531250001E-5,0,0,0,20600,7150,2074,1817,1390,1255,16777192,16777153,Tag0,unknown
1605702234270,200,13,2.8564453125E-6,0,0,0,20600,7150,2074,1817,1390,1255,16777192,16777153,Tag0,unknown
1605702234298,200,-45,-9.8876953125E-6,0,0,0,20600,7150,2074,1817,1390,1255,16777192,16777153,Tag0,unknown
1605702234315,200,28,6.15234375E-6,0,0,0,20600,7150,2074,1817,1390,1255,16777192,16777153,Tag0,unknown
1605702234325,200,-285,-6.26220703125E-5,0,0,0,20600,7150,2074,1817,1390,1255,16777192,16777153,Tag0,unknown
1605702234335,200,101,2.2192382812500002E-5,0,0,0,20600,7150,2074,1817,1390,1255,16777192,16777153,Tag0,unknown
1605702234349,200,-124,-2.724609375E-5,0,0,0,20600,7150,2074,1817,1390,1255,16777192,16777153,Tag0,unknown
1605702234372,200,36,7.91015625E-6,0,0,0,20600,7150,2074,1817,1390,1255,16777192,16777153,Tag0,unknown
1605702234383,200,-210,-4.6142578125E-5,0,0,0,20600,7150,2074,1817,1390,1255,16777192,16777153,Tag0,unknown
1605702234393,200,-29,-6.3720703125E-6,0,0,0,20600,7150,2074,1817,1390,1255,16777192,16777153,Tag0,unknown
1605702234408,200,-307,-6.74560546875E-5,0,0,0,20600,7150,2074,1817,1390,1255,16777192,16777153,Tag0,unknown
1605702234418,200,37,8.1298828125E-6,0,0,0,20600,7150,2074,1817,1390,1255,16777192,16777153,Tag0,unknown
1605702234443,200,8,1.7578125E-6,0,0,0,20600,7150,2074,1817,1390,1255,16777192,16777153,Tag0,unknown
1605702234453,200,121,2.6586914062500003E-5,0,0,0,20600,7150,2074,1817,1390,1255,16777192,16777153,Tag0,unknown
1605702234483,200,-373,-8.19580078125E-5,0,0,0,20600,7150,2074,1817,1390,1255,16777192,16777153,Tag0,unknown
1605702234499,200,-183,-4.02099609375E-5,0,0,0,20600,7150,2074,1817,1390,1255,16777192,16777153,Tag0,unknown
1605702234516,200,-801,-1.760009765625E-4,0,0,0,20600,7150,2074,1817,1390,1255,16777192,16777153,Tag0,unknown
1605702234537,200,-609,-1.338134765625E-4,0,0,0,20600,7150,2074,1817,1390,1255,16777192,16777153,Tag0,unknown
1605702234547,200,9,1.9775390625E-6,0,0,0,20600,7150,2074,1817,1390,1255,16777192,16777153,Tag0,unknown
1605702234558,200,-165,-3.62548828125E-5,0,0,0,20600,7150,2074,1817,1390,1255,16777192,16777153,Tag0,unknown
1605702234592,200,91,1.99951171875E-5,0,0,0,20600,7150,2074,1817,1390,1255,16777192,16777153,Tag0,unknown
1605702234602,200,-535,-1.175537109375E-4,0,0,0,20600,7150,2074,1817,1390,1255,16777192,16777153,Tag0,unknown
1605702234616,200,86,1.8896484375000003E-5,0,0,0,20600,7150,2074,1817,1390,1255,16777192,16777153,Tag0,unknown
1605702234634,200,-6,-1.318359375E-6,0,0,0,20600,7150,2074,1817,1390,1255,16777192,16777153,Tag0,unknown
1605702234665,200,-73,-1.6040039062500002E-5,0,0,0,20600,7150,2074,1817,1390,1255,16777192,16777153,Tag0,unknown
1605702234684,200,117,2.5708007812499998E-5,0,0,0,20600,7150,2074,1817,1390,1255,16777192,16777153,Tag0,unknown
1605702234702,200,-283,-6.218261718750001E-5,0,0,0,20600,7150,2074,1817,1390,1255,16777192,16777153,Tag0,unknown
1605702234717,200,-69,-1.51611328125E-5,0,0,0,20600,7150,2074,1817,1390,1255,16777192,16777153,Tag0,unknown
1605702234741,200,-377,-8.28369140625E-5,0,0,0,20600,7150,2074,1817,1390,1255,16777192,16777153,Tag0,unknown
1605702234752,200,-326,-7.163085937500001E-5,0,0,0,1734715,1994935,895283,546650,398734,226943,72834,16754231,Tag0,unknown
1605702234778,200,88,1.93359375E-5,0,0,0,1734715,1994935,895283,546650,398734,226943,72834,16754231,Tag0,unknown
1605702234788,200,-45,-9.8876953125E-6,0,0,0,1734715,1994935,895283,546650,398734,226943,72834,16754231,Tag0,unknown
1605702234798,200,45,9.8876953125E-6,0,0,0,1734715,1994935,895283,546650,398734,226943,72834,16754231,Tag0,unknown
1605702234817,200,71,1.56005859375E-5,0,0,0,1734715,1994935,895283,546650,398734,226943,72834,16754231,Tag0,unknown
1605702234834,200,-73,-1.6040039062500002E-5,0,0,0,1734715,1994935,895283,546650,398734,226943,72834,16754231,Tag0,unknown
1605702234854,200,117,2.5708007812499998E-5,0,0,0,1734715,1994935,895283,546650,398734,226943,72834,16754231,Tag0,unknown
1605702234866,200,-341,-7.492675781250002E-5,0,0,0,1734715,1994935,895283,546650,398734,226943,72834,16754231,Tag0,unknown
1605702234893,200,101,2.2192382812500002E-5,0,0,0,1734715,1994935,895283,546650,398734,226943,72834,16754231,Tag0,unknown
1605702234903,200,-326,-7.163085937500001E-5,0,0,0,1734715,1994935,895283,546650,398734,226943,72834,16754231,Tag0,unknown
1605702234913,200,-289,-6.35009765625E-5,0,0,0,1734715,1994935,895283,546650,398734,226943,72834,16754231,Tag0,unknown
1605702234942,200,-345,-7.58056640625E-5,0,0,0,1734715,1994935,895283,546650,398734,226943,72834,16754231,Tag0,unknown
1605702234952,200,53,1.1645507812500002E-5,0,0,0,1734715,1994935,895283,546650,398734,226943,72834,16754231,Tag0,unknown
1605702234983,200,106,2.3291015625000003E-5,0,0,0,1734715,1994935,895283,546650,398734,226943,72834,16754231,Tag0,unknown
1605702235001,200,307,6.74560546875E-5,0,0,0,1734715,1994935,895283,546650,398734,226943,72834,16754231,Tag0,unknown
1605702235020,200,77,1.69189453125E-5,0,0,0,1734715,1994935,895283,546650,398734,226943,72834,16754231,Tag0,unknown
1605702235036,200,-517,-1.135986328125E-4,0,0,0,1734715,1994935,895283,546650,398734,226943,72834,16754231,Tag0,unknown
1605702235046,200,-269,-5.9106445312499996E-5,0,0,0,1734715,1994935,895283,546650,398734,226943,72834,16754231,Tag0,unknown
1605702235059,200,-209,-4.59228515625E-5,0,0,0,1734715,1994935,895283,546650,398734,226943,72834,16754231,Tag0,unknown
1605702235069,200,-167,-3.6694335937500004E-5,0,0,0,1734715,1994935,895283,546650,398734,226943,72834,16754231,Tag0,unknown
1605702235085,200,-557,-1.223876953125E-4,0,0,0,1734715,1994935,895283,546650,398734,226943,72834,16754231,Tag0,unknown
1605702235102,200,-265,-5.82275390625E-5,0,0,0,1734715,1994935,895283,546650,398734,226943,72834,16754231,Tag0,unknown
1605702235130,200,291,6.39404296875E-5,0,0,0,1734715,1994935,895283,546650,398734,226943,72834,16754231,Tag0,unknown
1605702235140,200,-73,-1.6040039062500002E-5,0,0,0,1734715,1994935,895283,546650,398734,226943,72834,16754231,Tag0,unknown
1605702235164,200,-35,-7.6904296875E-6,0,0,0,1734715,1994935,895283,546650,398734,226943,72834,16754231,Tag0,unknown
1605702235186,200,-123,-2.70263671875E-5,0,0,0,1734715,1994935,895283,546650,398734,226943,72834,16754231,Tag0,unknown
1605702235213,200,424,9.316406250000001E-5,0,0,0,1734715,1994935,895283,546650,398734,226943,72834,16754231,Tag0,unknown
1605702235223,200,156,3.427734375E-5,0,0,0,1734715,1994935,895283,546650,398734,226943,72834,16754231,Tag0,unknown
1605702235238,200,301,6.613769531250001E-5,0,0,0,1734715,1994935,895283,546650,398734,226943,72834,16754231,Tag0,unknown
1605702235254,200,-7,-1.5380859375E-6,0,0,0,1734715,1994935,895283,546650,398734,226943,72834,16754231,Tag0,unknown
1605702235264,200,-47,-1.0327148437500001E-5,0,0,0,1734715,1994935,895283,546650,398734,226943,72834,16754231,Tag0,unknown
1605702235283,200,328,7.207031249999999E-5,0,0,0,1734715,1994935,895283,546650,398734,226943,72834,16754231,Tag0,unknown
1605702235304,200,193,4.2407226562500005E-5,0,0,0,1734715,1994935,895283,546650,398734,226943,72834,16754231,Tag0,unknown
1605702235314,200,889,1.953369140625E-4,0,0,0,1734715,1994935,895283,546650,398734,226943,72834,16754231,Tag0,unknown
1605702235326,200,-758,-1.66552734375E-4,0,0,0,1734715,1994935,895283,546650,398734,226943,72834,16754231,Tag0,unknown
1605702235338,200,-1019,-2.239013671875E-4,0,0,0,1734715,1994935,895283,546650,398734,226943,72834,16754231,Tag0,unknown
1605702235358,200,-737,-1.6193847656250003E-4,0,0,0,1734715,1994935,895283,546650,398734,226943,72834,16754231,Tag0,unknown
1605702235375,200,-599,-1.316162109375E-4,0,0,0,1734715,1994935,895283,546650,398734,226943,72834,16754231,Tag0,unknown
1605702235385,200,-337,-7.40478515625E-5,0,0,0,1734715,1994935,895283,546650,398734,226943,72834,16754231,Tag0,unknown
1605702235403,200,-483,-1.061279296875E-4,0,0,0,1734715,1994935,895283,546650,398734,226943,72834,16754231,Tag0,unknown
1605702235422,200,-534,-1.17333984375E-4,0,0,0,1734715,1994935,895283,546650,398734,226943,72834,16754231,Tag0,unknown
1605702235432,200,309,6.78955078125E-5,0,0,0,1734715,1994935,895283,546650,398734,226943,72834,16754231,Tag0,unknown
1605702235445,200,-119,-2.6147460937500004E-5,0,0,0,1734715,1994935,895283,546650,398734,226943,72834,16754231,Tag0,unknown
1605702235455,200,-22,-4.833984375E-6,0,0,0,1734715,1994935,895283,546650,398734,226943,72834,16754231,Tag0,unknown
1605702235478,200,-213,-4.68017578125E-5,0,0,0,1734715,1994935,895283,546650,398734,226943,72834,16754231,Tag0,unknown
1605702235488,200,-420,-9.228515625E-5,0,0,0,1734715,1994935,895283,546650,398734,226943,72834,16754231,Tag0,unknown
1605702235519,200,323,7.09716796875E-5,0,0,0,1734715,1994935,895283,546650,398734,226943,72834,16754231,Tag0,unknown
1605702235537,200,305,6.70166015625E-5,0,0,0,1734715,1994935,895283,546650,398734,226943,72834,16754231,Tag0,unknown
1605702235558,200,564,1.2392578125E-4,0,0,0,1734715,1994935,895283,546650,398734,226943,72834,16754231,Tag0,unknown
1605702235589,200,43,9.448242187500001E-6,0,0,0,1734715,1994935,895283,546650,398734,226943,72834,16754231,Tag0,unknown
1605702235605,200,-155,-3.40576171875E-5,0,0,0,1734715,1994935,895283,546650,398734,226943,72834,16754231,Tag0,unknown
1605702235623,200,-589,-1.294189453125E-4,0,0,0,1734715,1994935,895283,546650,398734,226943,72834,16754231,Tag0,unknown
1605702235640,200,-638,-1.40185546875E-4,0,0,0,1734715,1994935,895283,546650,398734,226943,72834,16754231,Tag0,unknown
1605702235650,200,-1400,-3.076171875E-4,0,0,0,1734715,1994935,895283,546650,398734,226943,72834,16754231,Tag0,unknown
1605702235669,200,-897,-1.970947265625E-4,0,0,0,1734715,1994935,895283,546650,398734,226943,72834,16754231,Tag0,unknown
1605702235688,200,-787,-1.729248046875E-4,0,0,0,1734715,1994935,895283,546650,398734,226943,72834,16754231,Tag0,unknown
1605702235710,200,-295,-6.48193359375E-5,0,0,0,1734715,1994935,895283,546650,398734,226943,72834,16754231,Tag0,unknown
1605702235722,200,-330,-7.2509765625E-5,0,0,0,1734715,1994935,895283,546650,398734,226943,72834,16754231,Tag0,unknown
1605702235744,200,21,4.614257812500001E-6,0,0,0,1734715,1994935,895283,546650,398734,226943,72834,16754231,Tag0,unknown
1605702235756,200,-374,-8.2177734375E-5,0,0,0,1734715,1994935,895283,546650,398734,226943,72834,16754231,Tag0,unknown
1605702235782,200,305,6.70166015625E-5,0,0,0,1661593,293574,16774086,96326,285652,73505,16745929,18332,Tag0,unknown
1605702235792,200,116,2.548828125E-5,0,0,0,1661593,293574,16774086,96326,285652,73505,16745929,18332,Tag0,unknown
1605702235806,200,407,8.94287109375E-5,0,0,0,1661593,293574,16774086,96326,285652,73505,16745929,18332,Tag0,unknown
1605702235828,200,119,2.6147460937500004E-5,0,0,0,1661593,293574,16774086,96326,285652,73505,16745929,18332,Tag0,unknown
1605702235839,200,119,2.6147460937500004E-5,0,0,0,1661593,293574,16774086,96326,285652,73505,16745929,18332,Tag0,unknown
1605702235871,200,-72,-1.58203125E-5,0,0,0,1661593,293574,16774086,96326,285652,73505,16745929,18332,Tag0,unknown
1605702235891,200,144,3.1640625E-5,0,0,0,1661593,293574,16774086,96326,285652,73505,16745929,18332,Tag0,unknown
1605702235901,200,822,1.80615234375E-4,0,0,0,1661593,293574,16774086,96326,285652,73505,16745929,18332,Tag0,unknown
1605702235912,200,1108,2.4345703125000002E-4,0,0,0,1661593,293574,16774086,96326,285652,73505,16745929,18332,Tag0,unknown
1605702235923,200,1581,3.473876953125E-4,0,0,0,1661593,293574,16774086,96326,285652,73505,16745929,18332,Tag0,unknown
1605702235936,200,1178,2.58837890625E-4,0,0,0,1661593,293574,16774086,96326,285652,73505,16745929,18332,Tag0,unknown
1605702235957,200,579,1.272216796875E-4,0,0,0,1661593,293574,16774086,96326,285652,73505,16745929,18332,Tag0,unknown
1605702235983,200,433,9.51416015625E-5,0,0,0,1661593,293574,16774086,96326,285652,73505,16745929,18332,Tag0,unknown
1605702236002,200,471,1.0349121093750001E-4,0,0,0,1661593,293574,16774086,96326,285652,73505,16745929,18332,Tag0,unknown
1605702236021,200,-63,-1.38427734375E-5,0,0,0,1661593,293574,16774086,96326,285652,73505,16745929,18332,Tag0,unknown
1605702236045,200,40,8.7890625E-6,0,0,0,1661593,293574,16774086,96326,285652,73505,16745929,18332,Tag0,unknown
1605702236056,200,-95,-2.08740234375E-5,0,0,0,1661593,293574,16774086,96326,285652,73505,16745929,18332,Tag0,unknown
1605702236073,200,-822,-1.80615234375E-4,0,0,0,1661593,293574,16774086,96326,285652,73505,16745929,18332,Tag0,unknown
1605702236100,200,-334,-7.338867187500001E-5,0,0,0,1661593,293574,16774086,96326,285652,73505,16745929,18332,Tag0,unknown
1605702236110,200,-196,-4.306640625E-5,0,0,0,1661593,293574,16774086,96326,285652,73505,16745929,18332,Tag0,unknown
1605702236131,200,91,1.99951171875E-5,0,0,0,1661593,293574,16774086,96326,285652,73505,16745929,18332,Tag0,unknown
1605702236142,200,9,1.9775390625E-6,0,0,0,1661593,293574,16774086,96326,285652,73505,16745929,18332,Tag0,unknown
1605702236160,200,-987,-2.1687011718750002E-4,0,0,0,1661593,293574,16774086,96326,285652,73505,16745929,18332,Tag0,unknown
1605702236178,200,-1620,-3.5595703125E-4,0,0,0,1661593,293574,16774086,96326,285652,73505,16745929,18332,Tag0,unknown
1605702236188,200,-156,-3.427734375E-5,0,0,0,1661593,293574,16774086,96326,285652,73505,16745929,18332,Tag0,unknown
1605702236198,200,-790,-1.73583984375E-4,0,0,0,1661593,293574,16774086,96326,285652,73505,16745929,18332,Tag0,unknown
1605702236216,200,-1117,-2.454345703125E-4,0,0,0,1661593,293574,16774086,96326,285652,73505,16745929,18332,Tag0,unknown
1605702236226,200,-1142,-2.50927734375E-4,0,0,0,1661593,293574,16774086,96326,285652,73505,16745929,18332,Tag0,unknown
1605702236250,200,-279,-6.13037109375E-5,0,0,0,1661593,293574,16774086,96326,285652,73505,16745929,18332,Tag0,unknown
1605702236260,200,359,7.88818359375E-5,0,0,0,1661593,293574,16774086,96326,285652,73505,16745929,18332,Tag0,unknown
1605702236293,200,1153,2.533447265625E-4,0,0,0,1661593,293574,16774086,96326,285652,73505,16745929,18332,Tag0,unknown
1605702236314,200,1353,2.972900390625E-4,0,0,0,1661593,293574,16774086,96326,285652,73505,16745929,18332,Tag0,unknown
1605702236334,200,792,1.7402343750000002E-4,0,0,0,1661593,293574,16774086,96326,285652,73505,16745929,18332,Tag0,unknown
1605702236344,200,-55,-1.20849609375E-5,0,0,0,1661593,293574,16774086,96326,285652,73505,16745929,18332,Tag0,unknown
1605702236370,200,-103,-2.26318359375E-5,0,0,0,1661593,293574,16774086,96326,285652,73505,16745929,18332,Tag0,unknown
1605702236380,200,-94,-2.0654296875000002E-5,0,0,0,1661593,293574,16774086,96326,285652,73505,16745929,18332,Tag0,unknown
1605702236413,200,-231,-5.07568359375E-5,0,0,0,1661593,293574,16774086,96326,285652,73505,16745929,18332,Tag0,unknown
1605702236426,200,-394,-8.6572265625E-5,0,0,0,1661593,293574,16774086,96326,285652,73505,16745929,18332,Tag0,unknown
1605702236445,200,-1070,-2.35107421875E-4,0,0,0,1661593,293574,16774086,96326,285652,73505,16745929,18332,Tag0,unknown
1605702236459,200,-741,-1.6281738281249998E-4,0,0,0,1661593,293574,16774086,96326,285652,73505,16745929,18332,Tag0,unknown
1605702236494,200,-24,-5.2734375E-6,0,0,0,1661593,293574,16774086,96326,285652,73505,16745929,18332,Tag0,unknown
1605702236504,200,-546,-1.1997070312500001E-4,0,0,0,1661593,293574,16774086,96326,285652,73505,16745929,18332,Tag0,unknown
1605702236533,200,340,7.470703125E-5,0,0,0,1661593,293574,16774086,96326,285652,73505,16745929,18332,Tag0,unknown
1605702236543,200,372,8.173828125E-5,0,0,0,1661593,293574,16774086,96326,285652,73505,16745929,18332,Tag0,unknown
1605702236566,200,-491,-1.078857421875E-4,0,0,0,1661593,293574,16774086,96326,285652,73505,16745929,18332,Tag0,unknown
1605702236576,200,-487,-1.070068359375E-4,0,0,0,1661593,293574,16774086,96326,285652,73505,16745929,18332,Tag0,unknown
1605702236586,200,-2172,-4.7724609374999997E-4,0,0,0,1661593,293574,16774086,96326,285652,73505,16745929,18332,Tag0,unknown
1605702236607,200,-1670,-3.66943359375E-4,0,0,0,1661593,293574,16774086,96326,285652,73505,16745929,18332,Tag0,unknown
1605702236626,200,-1747,-3.838623046875E-4,0,0,0,1661593,293574,16774086,96326,285652,73505,16745929,18332,Tag0,unknown
1605702236644,200,-1581,-3.473876953125E-4,0,0,0,1661593,293574,16774086,96326,285652,73505,16745929,18332,Tag0,unknown
1605702236660,200,-817,-1.7951660156250002E-4,0,0,0,1661593,293574,16774086,96326,285652,73505,16745929,18332,Tag0,unknown
1605702236676,200,1721,3.7814941406250004E-4,0,0,0,1661593,293574,16774086,96326,285652,73505,16745929,18332,Tag0,unknown
1605702236693,200,1489,3.271728515625E-4,0,0,0,1661593,293574,16774086,96326,285652,73505,16745929,18332,Tag0,unknown
1605702236710,200,557,1.223876953125E-4,0,0,0,1661593,293574,16774086,96326,285652,73505,16745929,18332,Tag0,unknown
1605702236728,200,149,3.27392578125E-5,0,0,0,1661593,293574,16774086,96326,285652,73505,16745929,18332,Tag0,unknown
1605702236738,200,59,1.29638671875E-5,0,0,0,1661593,293574,16774086,96326,285652,73505,16745929,18332,Tag0,unknown
1605702236751,200,-127,-2.79052734375E-5,0,0,0,2151367,537857,698683,158238,266245,235778,16754028,22656,Tag0,unknown
1605702236761,200,-185,-4.06494140625E-5,0,0,0,2151367,537857,698683,158238,266245,235778,16754028,22656,Tag0,unknown
1605702236791,200,102,2.2412109374999998E-5,0,0,0,2151367,537857,698683,158238,266245,235778,16754028,22656,Tag0,unknown
1605702236811,200,-296,-6.50390625E-5,0,0,0,2151367,537857,698683,158238,266245,235778,16754028,22656,Tag0,unknown
1605702236831,200,-388,-8.525390625E-5,0,0,0,2151367,537857,698683,158238,266245,235778,16754028,22656,Tag0,unknown
1605702236846,200,-563,-1.237060546875E-4,0,0,0,2151367,537857,698683,158238,266245,235778,16754028,22656,Tag0,unknown
1605702236856,200,231,5.07568359375E-5,0,0,0,2151367,537857,698683,158238,266245,235778,16754028,22656,Tag0,unknown
1605702236872,200,387,8.50341796875E-5,0,0,0,2151367,537857,698683,158238,266245,235778,16754028,22656,Tag0,unknown
1605702236882,200,769,1.689697265625E-4,0,0,0,2151367,537857,698683,158238,266245,235778,16754028,22656,Tag0,unknown
1605702236895,200,1777,3.904541015625E-4,0,0,0,2151367,537857,698683,158238,266245,235778,16754028,22656,Tag0,unknown
1605702236912,200,1791,3.935302734375E-4,0,0,0,2151367,537857,698683,158238,266245,235778,16754028,22656,Tag0,unknown
1605702236929,200,1779,3.9089355468750005E-4,0,0,0,2151367,537857,698683,158238,266245,235778,16754028,22656,Tag0,unknown
1605702236946,200,1595,3.504638671875E-4,0,0,0,2151367,537857,698683,158238,266245,235778,16754028,22656,Tag0,unknown
1605702236962,200,1177,2.586181640625E-4,0,0,0,2151367,537857,698683,158238,266245,235778,16754028,22656,Tag0,unknown
1605702236972,200,822,1.80615234375E-4,0,0,0,2151367,537857,698683,158238,266245,235778,16754028,22656,Tag0,unknown
1605702236987,200,437,9.602050781250001E-5,0,0,0,2151367,537857,698683,158238,266245,235778,16754028,22656,Tag0,unknown
1605702236997,200,567,1.245849609375E-4,0,0,0,2151367,537857,698683,158238,266245,235778,16754028,22656,Tag0,unknown
1605702237020,200,212,4.6582031250000006E-5,0,0,0,2151367,537857,698683,158238,266245,235778,16754028,22656,Tag0,unknown
1605702237031,200,183,4.02099609375E-5,0,0,0,2151367,537857,698683,158238,266245,235778,16754028,22656,Tag0,unknown
1605702237041,200,279,6.13037109375E-5,0,0,0,2151367,537857,698683,158238,266245,235778,16754028,22656,Tag0,unknown
1605702237059,200,-31,-6.8115234375E-6,0,0,0,2151367,537857,698683,158238,266245,235778,16754028,22656,Tag0,unknown
1605702237080,200,-48,-1.0546875E-5,0,0,0,2151367,537857,698683,158238,266245,235778,16754028,22656,Tag0,unknown
1605702237100,200,-103,-2.26318359375E-5,0,0,0,2151367,537857,698683,158238,266245,235778,16754028,22656,Tag0,unknown
1605702237110,200,121,2.6586914062500003E-5,0,0,0,2151367,537857,698683,158238,266245,235778,16754028,22656,Tag0,unknown
1605702237120,200,57,1.2524414062500001E-5,0,0,0,2151367,537857,698683,158238,266245,235778,16754028,22656,Tag0,unknown
1605702237151,200,-283,-6.218261718750001E-5,0,0,0,2151367,537857,698683,158238,266245,235778,16754028,22656,Tag0,unknown
1605702237162,200,-276,-6.064453125E-5,0,0,0,2151367,537857,698683,158238,266245,235778,16754028,22656,Tag0,unknown
1605702237188,200,-631,-1.386474609375E-4,0,0,0,2151367,537857,698683,158238,266245,235778,16754028,22656,Tag0,unknown
1605702237198,200,-525,-1.153564453125E-4,0,0,0,2151367,537857,698683,158238,266245,235778,16754028,22656,Tag0,unknown
1605702237229,200,-209,-4.59228515625E-5,0,0,0,2151367,537857,698683,158238,266245,235778,16754028,22656,Tag0,unknown
1605702237246,200,-550,-1.20849609375E-4,0,0,0,2151367,537857,698683,158238,266245,235778,16754028,22656,Tag0,unknown
1605702237270,200,-284,-6.240234375E-5,0,0,0,2151367,537857,698683,158238,266245,235778,16754028,22656,Tag0,unknown
1605702237281,200,-369,-8.10791015625E-5,0,0,0,2151367,537857,698683,158238,266245,235778,16754028,22656,Tag0,unknown
1605702237291,200,103,2.26318359375E-5,0,0,0,2151367,537857,698683,158238,266245,235778,16754028,22656,Tag0,unknown
1605702237302,200,-257,-5.64697265625E-5,0,0,0,2151367,537857,698683,158238,266245,235778,16754028,22656,Tag0,unknown
1605702237338,200,-211,-4.63623046875E-5,0,0,0,2151367,537857,698683,158238,266245,235778,16754028,22656,Tag0,unknown
1605702237348,200,-299,-6.56982421875E-5,0,0,0,2151367,537857,698683,158238,266245,235778,16754028,22656,Tag0,unknown
1605702237363,200,-194,-4.2626953125E-5,0,0,0,2151367,537857,698683,158238,266245,235778,16754028,22656,Tag0,unknown
1605702237386,200,-56,-1.23046875E-5,0,0,0,2151367,537857,698683,158238,266245,235778,16754028,22656,Tag0,unknown
1605702237398,200,-314,-6.8994140625E-5,0,0,0,2151367,537857,698683,158238,266245,235778,16754028,22656,Tag0,unknown
1605702237408,200,98,2.1533203125E-5,0,0,0,2151367,537857,698683,158238,266245,235778,16754028,22656,Tag0,unknown
1605702237422,200,-44,-9.66796875E-6,0,0,0,2151367,537857,698683,158238,266245,235778,16754028,22656,Tag0,unknown
1605702237432,200,-170,-3.7353515625E-5,0,0,0,2151367,537857,698683,158238,266245,235778,16754028,22656,Tag0,unknown
1605702237494,200,-563,-1.237060546875E-4,0,0,0,2151367,537857,698683,158238,266245,235778,16754028,22656,Tag0,unknown
1605702237514,200,-197,-4.32861328125E-5,0,0,0,2151367,537857,698683,158238,266245,235778,16754028,22656,Tag0,unknown
1605702237563,200,-370,-8.1298828125E-5,0,0,0,2151367,537857,698683,158238,266245,235778,16754028,22656,Tag0,unknown
1605702237583,200,87,1.91162109375E-5,0,0,0,2151367,537857,698683,158238,266245,235778,16754028,22656,Tag0,unknown
1605702237706,200,33,7.2509765625E-6,0,0,0,2151367,537857,698683,158238,266245,235778,16754028,22656,Tag0,unknown
1605702237726,200,77,1.69189453125E-5,0,0,0,2151367,537857,698683,158238,266245,235778,16754028,22656,Tag0,unknown
1605702237736,200,290,6.3720703125E-5,0,0,0,2151367,537857,698683,158238,266245,235778,16754028,22656,Tag0,unknown
1605702237769,200,261,5.73486328125E-5,0,0,0,2151367,537857,698683,158238,266245,235778,16754028,22656,Tag0,unknown
1605702237782,200,-63,-1.38427734375E-5,0,0,0,2151367,537857,698683,158238,266245,235778,16754028,22656,Tag0,unknown
1605702237841,200,28,6.15234375E-6,0,0,0,2151367,537857,698683,158238,266245,235778,16754028,22656,Tag0,unknown
1605702237851,200,-343,-7.53662109375E-5,0,0,0,2151367,537857,698683,158238,266245,235778,16754028,22656,Tag0,unknown
1605702237981,200,-80,-1.7578125E-5,0,0,0,2151367,537857,698683,158238,266245,235778,16754028,22656,Tag0,unknown
1605702238011,200,-277,-6.0864257812500005E-5,0,0,0,2151367,537857,698683,158238,266245,235778,16754028,22656,Tag0,unknown
1605702238021,200,-289,-6.35009765625E-5,0,0,0,2151367,537857,698683,158238,266245,235778,16754028,22656,Tag0,unknown
1605702238032,200,-101,-2.2192382812500002E-5,0,0,0,2151367,537857,698683,158238,266245,235778,16754028,22656,Tag0,unknown
1605702238042,200,-21,-4.614257812500001E-6,0,0,0,2151367,537857,698683,158238,266245,235778,16754028,22656,Tag0,unknown
1605702238052,200,-295,-6.48193359375E-5,0,0,0,2151367,537857,698683,158238,266245,235778,16754028,22656,Tag0,unknown
1605702238062,200,-157,-3.44970703125E-5,0,0,0,2151367,537857,698683,158238,266245,235778,16754028,22656,Tag0,unknown
1605702238072,200,-266,-5.8447265625E-5,0,0,0,2151367,537857,698683,158238,266245,235778,16754028,22656,Tag0,unknown
1605702238082,200,82,1.8017578124999998E-5,0,0,0,2151367,537857,698683,158238,266245,235778,16754028,22656,Tag0,unknown
1605702238095,200,67,1.4721679687500002E-5,0,0,0,2151367,537857,698683,158238,266245,235778,16754028,22656,Tag0,unknown
1605702238105,200,28,6.15234375E-6,0,0,0,2151367,537857,698683,158238,266245,235778,16754028,22656,Tag0,unknown
1605702238123,200,38,8.349609375E-6,0,0,0,2151367,537857,698683,158238,266245,235778,16754028,22656,Tag0,unknown
1605702238133,200,45,9.8876953125E-6,0,0,0,2151367,537857,698683,158238,266245,235778,16754028,22656,Tag0,unknown
1605702238161,200,-371,-8.151855468750001E-5,0,0,0,2151367,537857,698683,158238,266245,235778,16754028,22656,Tag0,unknown
1605702238171,200,20,4.39453125E-6,0,0,0,2151367,537857,698683,158238,266245,235778,16754028,22656,Tag0,unknown
1605702238195,200,-381,-8.371582031250001E-5,0,0,0,2151367,537857,698683,158238,266245,235778,16754028,22656,Tag0,unknown
1605702238205,200,-149,-3.27392578125E-5,0,0,0,2151367,537857,698683,158238,266245,235778,16754028,22656,Tag0,unknown
1605702238229,200,-293,-6.43798828125E-5,0,0,0,2151367,537857,698683,158238,266245,235778,16754028,22656,Tag0,unknown
1605702238239,200,55,1.20849609375E-5,0,0,0,2151367,537857,698683,158238,266245,235778,16754028,22656,Tag0,unknown
1605702238251,200,-347,-7.62451171875E-5,0,0,0,2151367,537857,698683,158238,266245,235778,16754028,22656,Tag0,unknown
1605702238273,200,55,1.20849609375E-5,0,0,0,2151367,537857,698683,158238,266245,235778,16754028,22656,Tag0,unknown
1605702238305,200,-274,-6.0205078124999997E-5,0,0,0,2151367,537857,698683,158238,266245,235778,16754028,22656,Tag0,unknown
1605702238319,200,-362,-7.954101562500001E-5,0,0,0,2151367,537857,698683,158238,266245,235778,16754028,22656,Tag0,unknown
1605702238329,200,-286,-6.2841796875E-5,0,0,0,2151367,537857,698683,158238,266245,235778,16754028,22656,Tag0,unknown
1605702238344,200,-315,-6.92138671875E-5,0,0,0,2151367,537857,698683,158238,266245,235778,16754028,22656,Tag0,unknown
1605702238354,200,-211,-4.63623046875E-5,0,0,0,2151367,537857,698683,158238,266245,235778,16754028,22656,Tag0,unknown
1605702238382,200,-125,-2.74658203125E-5,0,0,0,2151367,537857,698683,158238,266245,235778,16754028,22656,Tag0,unknown
1605702238402,200,-347,-7.62451171875E-5,0,0,0,2151367,537857,698683,158238,266245,235778,16754028,22656,Tag0,unknown
1605702238432,200,-307,-6.74560546875E-5,0,0,0,2151367,537857,698683,158238,266245,235778,16754028,22656,Tag0,unknown
1605702238453,200,-182,-3.9990234375E-5,0,0,0,2151367,537857,698683,158238,266245,235778,16754028,22656,Tag0,unknown
1605702238463,200,13,2.8564453125E-6,0,0,0,2151367,537857,698683,158238,266245,235778,16754028,22656,Tag0,unknown
1605702238474,200,57,1.2524414062500001E-5,0,0,0,2151367,537857,698683,158238,266245,235778,16754028,22656,Tag0,unknown
1605702238487,200,-53,-1.1645507812500002E-5,0,0,0,2151367,537857,698683,158238,266245,235778,16754028,22656,Tag0,unknown
1605702238497,200,365,8.02001953125E-5,0,0,0,2151367,537857,698683,158238,266245,235778,16754028,22656,Tag0,unknown
1605702238513,200,-105,-2.30712890625E-5,0,0,0,2151367,537857,698683,158238,266245,235778,16754028,22656,Tag0,unknown
1605702238523,200,-340,-7.470703125E-5,0,0,0,2151367,537857,698683,158238,266245,235778,16754028,22656,Tag0,unknown
1605702238547,200,49,1.07666015625E-5,0,0,0,2151367,537857,698683,158238,266245,235778,16754028,22656,Tag0,unknown
1605702238557,200,125,2.74658203125E-5,0,0,0,2151367,537857,698683,158238,266245,235778,16754028,22656,Tag0,unknown
1605702238587,200,65,1.42822265625E-5,0,0,0,2151367,537857,698683,158238,266245,235778,16754028,22656,Tag0,unknown
1605702238603,200,23,5.0537109375E-6,0,0,0,2151367,537857,698683,158238,266245,235778,16754028,22656,Tag0,unknown
1605702238621,200,-289,-6.35009765625E-5,0,0,0,2151367,537857,698683,158238,266245,235778,16754028,22656,Tag0,unknown
1605702238636,200,-306,-6.723632812500001E-5,0,0,0,2151367,537857,698683,158238,266245,235778,16754028,22656,Tag0,unknown
1605702238646,200,73,1.6040039062500002E-5,0,0,0,2151367,537857,698683,158238,266245,235778,16754028,22656,Tag0,unknown
1605702238661,200,49,1.07666015625E-5,0,0,0,2151367,537857,698683,158238,266245,235778,16754028,22656,Tag0,unknown
1605702238694,200,-263,-5.7788085937500005E-5,0,0,0,2151367,537857,698683,158238,266245,235778,16754028,22656,Tag0,unknown
1605702238704,200,-374,-8.2177734375E-5,0,0,0,2151367,537857,698683,158238,266245,235778,16754028,22656,Tag0,unknown
1605702238737,200,-102,-2.2412109374999998E-5,0,0,0,2151367,537857,698683,158238,266245,235778,16754028,22656,Tag0,unknown
1605702238756,200,336,7.382812500000001E-5,0,0,0,603902,266686,71535,16768621,32261,14603,7783,6066,Tag0,unknown
1605702238766,200,265,5.82275390625E-5,0,0,0,603902,266686,71535,16768621,32261,14603,7783,6066,Tag0,unknown
1605702238781,200,-99,-2.1752929687500003E-5,0,0,0,603902,266686,71535,16768621,32261,14603,7783,6066,Tag0,unknown
1605702238792,200,-111,-2.43896484375E-5,0,0,0,603902,266686,71535,16768621,32261,14603,7783,6066,Tag0,unknown
1605702238811,200,-600,-1.318359375E-4,0,0,0,603902,266686,71535,16768621,32261,14603,7783,6066,Tag0,unknown
1605702238821,200,-221,-4.85595703125E-5,0,0,0,603902,266686,71535,16768621,32261,14603,7783,6066,Tag0,unknown
1605702238845,200,-131,-2.87841796875E-5,0,0,0,603902,266686,71535,16768621,32261,14603,7783,6066,Tag0,unknown
1605702238855,200,-338,-7.426757812499999E-5,0,0,0,603902,266686,71535,16768621,32261,14603,7783,6066,Tag0,unknown
1605702238885,200,-39,-8.5693359375E-6,0,0,0,603902,266686,71535,16768621,32261,14603,7783,6066,Tag0,unknown
1605702238905,200,272,5.9765625000000004E-5,0,0,0,603902,266686,71535,16768621,32261,14603,7783,6066,Tag0,unknown
1605702238915,200,-26,-5.712890625E-6,0,0,0,603902,266686,71535,16768621,32261,14603,7783,6066,Tag0,unknown
1605702238925,200,345,7.58056640625E-5,0,0,0,603902,266686,71535,16768621,32261,14603,7783,6066,Tag0,unknown
1605702238940,200,273,5.998535156250001E-5,0,0,0,603902,266686,71535,16768621,32261,14603,7783,6066,Tag0,unknown
1605702238957,200,261,5.73486328125E-5,0,0,0,603902,266686,71535,16768621,32261,14603,7783,6066,Tag0,unknown
1605702238973,200,-358,-7.8662109375E-5,0,0,0,603902,266686,71535,16768621,32261,14603,7783,6066,Tag0,unknown
1605702238993,200,-83,-1.82373046875E-5,0,0,0,603902,266686,71535,16768621,32261,14603,7783,6066,Tag0,unknown
1605702239005,200,120,2.63671875E-5,0,0,0,603902,266686,71535,16768621,32261,14603,7783,6066,Tag0,unknown
1605702239027,200,-79,-1.7358398437500003E-5,0,0,0,603902,266686,71535,16768621,32261,14603,7783,6066,Tag0,unknown
1605702239039,200,-63,-1.38427734375E-5,0,0,0,603902,266686,71535,16768621,32261,14603,7783,6066,Tag0,unknown
1605702239063,200,-95,-2.08740234375E-5,0,0,0,603902,266686,71535,16768621,32261,14603,7783,6066,Tag0,unknown
1605702239087,200,360,7.91015625E-5,0,0,0,603902,266686,71535,16768621,32261,14603,7783,6066,Tag0,unknown
1605702239106,200,39,8.5693359375E-6,0,0,0,603902,266686,71535,16768621,32261,14603,7783,6066,Tag0,unknown
1605702239135,200,-301,-6.613769531250001E-5,0,0,0,603902,266686,71535,16768621,32261,14603,7783,6066,Tag0,unknown
1605702239145,200,279,6.13037109375E-5,0,0,0,603902,266686,71535,16768621,32261,14603,7783,6066,Tag0,unknown
1605702239171,200,106,2.3291015625000003E-5,0,0,0,603902,266686,71535,16768621,32261,14603,7783,6066,Tag0,unknown
1605702239193,200,-57,-1.2524414062500001E-5,0,0,0,603902,266686,71535,16768621,32261,14603,7783,6066,Tag0,unknown
1605702239209,200,122,2.6806640625E-5,0,0,0,603902,266686,71535,16768621,32261,14603,7783,6066,Tag0,unknown
1605702239228,200,74,1.6259765625E-5,0,0,0,603902,266686,71535,16768621,32261,14603,7783,6066,Tag0,unknown
1605702239245,200,256,5.625E-5,0,0,0,603902,266686,71535,16768621,32261,14603,7783,6066,Tag0,unknown
1605702239259,200,74,1.6259765625E-5,0,0,0,603902,266686,71535,16768621,32261,14603,7783,6066,Tag0,unknown
1605702239269,200,267,5.86669921875E-5,0,0,0,603902,266686,71535,16768621,32261,14603,7783,6066,Tag0,unknown
1605702239283,200,-95,-2.08740234375E-5,0,0,0,603902,266686,71535,16768621,32261,14603,7783,6066,Tag0,unknown
1605702239293,200,-116,-2.548828125E-5,0,0,0,603902,266686,71535,16768621,32261,14603,7783,6066,Tag0,unknown
1605702239318,200,74,1.6259765625E-5,0,0,0,603902,266686,71535,16768621,32261,14603,7783,6066,Tag0,unknown
1605702239328,200,57,1.2524414062500001E-5,0,0,0,603902,266686,71535,16768621,32261,14603,7783,6066,Tag0,unknown
1605702239340,200,-299,-6.56982421875E-5,0,0,0,603902,266686,71535,16768621,32261,14603,7783,6066,Tag0,unknown
1605702239358,200,-264,-5.80078125E-5,0,0,0,603902,266686,71535,16768621,32261,14603,7783,6066,Tag0,unknown
1605702239374,200,-339,-7.448730468750001E-5,0,0,0,603902,266686,71535,16768621,32261,14603,7783,6066,Tag0,unknown
1605702239398,200,-364,-7.998046875E-5,0,0,0,603902,266686,71535,16768621,32261,14603,7783,6066,Tag0,unknown
1605702239408,200,119,2.6147460937500004E-5,0,0,0,603902,266686,71535,16768621,32261,14603,7783,6066,Tag0,unknown
1605702239429,200,82,1.8017578124999998E-5,0,0,0,603902,266686,71535,16768621,32261,14603,7783,6066,Tag0,unknown
1605702239441,200,-109,-2.39501953125E-5,0,0,0,603902,266686,71535,16768621,32261,14603,7783,6066,Tag0,unknown
1605702239463,200,87,1.91162109375E-5,0,0,0,603902,266686,71535,16768621,32261,14603,7783,6066,Tag0,unknown
1605702239475,200,-93,-2.04345703125E-5,0,0,0,603902,266686,71535,16768621,32261,14603,7783,6066,Tag0,unknown
1605702239502,200,76,1.669921875E-5,0,0,0,603902,266686,71535,16768621,32261,14603,7783,6066,Tag0,unknown
1605702239520,200,19,4.1748046875E-6,0,0,0,603902,266686,71535,16768621,32261,14603,7783,6066,Tag0,unknown
1605702239549,200,-383,-8.41552734375E-5,0,0,0,603902,266686,71535,16768621,32261,14603,7783,6066,Tag0,unknown
1605702239559,200,-213,-4.68017578125E-5,0,0,0,603902,266686,71535,16768621,32261,14603,7783,6066,Tag0,unknown
1605702239581,200,21,4.614257812500001E-6,0,0,0,603902,266686,71535,16768621,32261,14603,7783,6066,Tag0,unknown
1605702239592,200,-363,-7.97607421875E-5,0,0,0,603902,266686,71535,16768621,32261,14603,7783,6066,Tag0,unknown
1605702239602,200,-157,-3.44970703125E-5,0,0,0,603902,266686,71535,16768621,32261,14603,7783,6066,Tag0,unknown
1605702239623,200,-278,-6.108398437500001E-5,0,0,0,603902,266686,71535,16768621,32261,14603,7783,6066,Tag0,unknown
1605702239641,200,-193,-4.2407226562500005E-5,0,0,0,603902,266686,71535,16768621,32261,14603,7783,6066,Tag0,unknown
1605702239658,200,-349,-7.668457031250001E-5,0,0,0,603902,266686,71535,16768621,32261,14603,7783,6066,Tag0,unknown
1605702239677,200,-530,-1.16455078125E-4,0,0,0,603902,266686,71535,16768621,32261,14603,7783,6066,Tag0,unknown
1605702239712,200,-552,-1.212890625E-4,0,0,0,603902,266686,71535,16768621,32261,14603,7783,6066,Tag0,unknown
1605702239726,200,-314,-6.8994140625E-5,0,0,0,603902,266686,71535,16768621,32261,14603,7783,6066,Tag0,unknown
1605702239736,200,-613,-1.3469238281250002E-4,0,0,0,195662,75338,27231,24259,18622,7339,2939,858,Tag0,unknown
1605702239752,200,-462,-1.01513671875E-4,0,0,0,195662,75338,27231,24259,18622,7339,2939,858,Tag0,unknown
1605702239763,200,-633,-1.3908691406250002E-4,0,0,0,195662,75338,27231,24259,18622,7339,2939,858,Tag0,unknown
1605702239788,200,-147,-3.22998046875E-5,0,0,0,195662,75338,27231,24259,18622,7339,2939,858,Tag0,unknown
1605702239798,200,-196,-4.306640625E-5,0,0,0,195662,75338,27231,24259,18622,7339,2939,858,Tag0,unknown
1605702239810,200,-231,-5.07568359375E-5,0,0,0,195662,75338,27231,24259,18622,7339,2939,858,Tag0,unknown
1605702239828,200,-85,-1.86767578125E-5,0,0,0,195662,75338,27231,24259,18622,7339,2939,858,Tag0,unknown
1605702239862,200,262,5.7568359375E-5,0,0,0,195662,75338,27231,24259,18622,7339,2939,858,Tag0,unknown
1605702239876,200,-11,-2.4169921875E-6,0,0,0,195662,75338,27231,24259,18622,7339,2939,858,Tag0,unknown
1605702239896,200,137,3.0102539062499998E-5,0,0,0,195662,75338,27231,24259,18622,7339,2939,858,Tag0,unknown
1605702239910,200,250,5.4931640625E-5,0,0,0,195662,75338,27231,24259,18622,7339,2939,858,Tag0,unknown
1605702239920,200,241,5.29541015625E-5,0,0,0,195662,75338,27231,24259,18622,7339,2939,858,Tag0,unknown
1605702239935,200,146,3.2080078125000004E-5,0,0,0,195662,75338,27231,24259,18622,7339,2939,858,Tag0,unknown
1605702239945,200,597,1.3117675781250003E-4,0,0,0,195662,75338,27231,24259,18622,7339,2939,858,Tag0,unknown
1605702239970,200,476,1.0458984375000001E-4,0,0,0,195662,75338,27231,24259,18622,7339,2939,858,Tag0,unknown
1605702239980,200,517,1.135986328125E-4,0,0,0,195662,75338,27231,24259,18622,7339,2939,858,Tag0,unknown
1605702240015,200,534,1.17333984375E-4,0,0,0,195662,75338,27231,24259,18622,7339,2939,858,Tag0,unknown
1605702240029,200,514,1.12939453125E-4,0,0,0,195662,75338,27231,24259,18622,7339,2939,858,Tag0,unknown
1605702240057,200,323,7.09716796875E-5,0,0,0,195662,75338,27231,24259,18622,7339,2939,858,Tag0,unknown
1605702240067,200,211,4.63623046875E-5,0,0,0,195662,75338,27231,24259,18622,7339,2939,858,Tag0,unknown
1605702240091,200,176,3.8671875E-5,0,0,0,195662,75338,27231,24259,18622,7339,2939,858,Tag0,unknown
1605702240111,200,295,6.48193359375E-5,0,0,0,195662,75338,27231,24259,18622,7339,2939,858,Tag0,unknown
1605702240121,200,35,7.6904296875E-6,0,0,0,195662,75338,27231,24259,18622,7339,2939,858,Tag0,unknown
1605702240138,200,-530,-1.16455078125E-4,0,0,0,195662,75338,27231,24259,18622,7339,2939,858,Tag0,unknown
1605702240148,200,-199,-4.3725585937499995E-5,0,0,0,195662,75338,27231,24259,18622,7339,2939,858,Tag0,unknown
1605702240168,200,118,2.5927734375E-5,0,0,0,195662,75338,27231,24259,18622,7339,2939,858,Tag0,unknown
1605702240192,200,480,1.0546875E-4,0,0,0,195662,75338,27231,24259,18622,7339,2939,858,Tag0,unknown
1605702240212,200,349,7.668457031250001E-5,0,0,0,195662,75338,27231,24259,18622,7339,2939,858,Tag0,unknown
1605702240232,200,-85,-1.86767578125E-5,0,0,0,195662,75338,27231,24259,18622,7339,2939,858,Tag0,unknown
1605702240251,200,-353,-7.75634765625E-5,0,0,0,195662,75338,27231,24259,18622,7339,2939,858,Tag0,unknown
1605702240263,200,-297,-6.525878906250001E-5,0,0,0,195662,75338,27231,24259,18622,7339,2939,858,Tag0,unknown
1605702240285,200,23,5.0537109375E-6,0,0,0,195662,75338,27231,24259,18622,7339,2939,858,Tag0,unknown
1605702240302,200,-122,-2.6806640625E-5,0,0,0,195662,75338,27231,24259,18622,7339,2939,858,Tag0,unknown
1605702240312,200,115,2.52685546875E-5,0,0,0,195662,75338,27231,24259,18622,7339,2939,858,Tag0,unknown
1605702240324,200,-261,-5.73486328125E-5,0,0,0,195662,75338,27231,24259,18622,7339,2939,858,Tag0,unknown
1605702240334,200,-434,-9.5361328125E-5,0,0,0,195662,75338,27231,24259,18622,7339,2939,858,Tag0,unknown
1605702240361,200,-1054,-2.31591796875E-4,0,0,0,195662,75338,27231,24259,18622,7339,2939,858,Tag0,unknown
1605702240380,200,-1130,-2.48291015625E-4,0,0,0,195662,75338,27231,24259,18622,7339,2939,858,Tag0,unknown
1605702240390,200,-898,-1.97314453125E-4,0,0,0,195662,75338,27231,24259,18622,7339,2939,858,Tag0,unknown
1605702240400,200,-851,-1.869873046875E-4,0,0,0,195662,75338,27231,24259,18622,7339,2939,858,Tag0,unknown
1605702240414,200,-459,-1.008544921875E-4,0,0,0,195662,75338,27231,24259,18622,7339,2939,858,Tag0,unknown
1605702240441,200,14,3.076171875E-6,0,0,0,195662,75338,27231,24259,18622,7339,2939,858,Tag0,unknown
1605702240453,200,-371,-8.151855468750001E-5,0,0,0,195662,75338,27231,24259,18622,7339,2939,858,Tag0,unknown
1605702240478,200,361,7.93212890625E-5,0,0,0,195662,75338,27231,24259,18622,7339,2939,858,Tag0,unknown
1605702240496,200,217,4.76806640625E-5,0,0,0,195662,75338,27231,24259,18622,7339,2939,858,Tag0,unknown
1605702240516,200,384,8.4375E-5,0,0,0,195662,75338,27231,24259,18622,7339,2939,858,Tag0,unknown
1605702240536,200,770,1.69189453125E-4,0,0,0,195662,75338,27231,24259,18622,7339,2939,858,Tag0,unknown
1605702240563,200,545,1.197509765625E-4,0,0,0,195662,75338,27231,24259,18622,7339,2939,858,Tag0,unknown
1605702240573,200,312,6.85546875E-5,0,0,0,195662,75338,27231,24259,18622,7339,2939,858,Tag0,unknown
1605702240594,200,-83,-1.82373046875E-5,0,0,0,195662,75338,27231,24259,18622,7339,2939,858,Tag0,unknown
1605702240614,200,285,6.26220703125E-5,0,0,0,195662,75338,27231,24259,18622,7339,2939,858,Tag0,unknown
1605702240624,200,-555,-1.219482421875E-4,0,0,0,195662,75338,27231,24259,18622,7339,2939,858,Tag0,unknown
1605702240638,200,-440,-9.66796875E-5,0,0,0,195662,75338,27231,24259,18622,7339,2939,858,Tag0,unknown
1605702240648,200,-557,-1.223876953125E-4,0,0,0,195662,75338,27231,24259,18622,7339,2939,858,Tag0,unknown
1605702240675,200,-491,-1.078857421875E-4,0,0,0,195662,75338,27231,24259,18622,7339,2939,858,Tag0,unknown
1605702240685,200,-374,-8.2177734375E-5,0,0,0,195662,75338,27231,24259,18622,7339,2939,858,Tag0,unknown
1605702240716,200,-131,-2.87841796875E-5,0,0,0,195662,75338,27231,24259,18622,7339,2939,858,Tag0,unknown
1605702240730,200,-358,-7.8662109375E-5,0,0,0,195662,75338,27231,24259,18622,7339,2939,858,Tag0,unknown
1605702240753,200,-589,-1.294189453125E-4,0,0,0,891224,63897,27877,7878,19204,17476,6961,3604,Tag0,unknown
1605702240764,200,-887,-1.9489746093750003E-4,0,0,0,891224,63897,27877,7878,19204,17476,6961,3604,Tag0,unknown
1605702240783,200,-485,-1.065673828125E-4,0,0,0,891224,63897,27877,7878,19204,17476,6961,3604,Tag0,unknown
1605702240797,200,-845,-1.856689453125E-4,0,0,0,891224,63897,27877,7878,19204,17476,6961,3604,Tag0,unknown
1605702240823,200,-327,-7.18505859375E-5,0,0,0,891224,63897,27877,7878,19204,17476,6961,3604,Tag0,unknown
1605702240845,200,34,7.4707031250000005E-6,0,0,0,891224,63897,27877,7878,19204,17476,6961,3604,Tag0,unknown
1605702240864,200,-570,-1.25244140625E-4,0,0,0,891224,63897,27877,7878,19204,17476,6961,3604,Tag0,unknown
1605702240897,200,-27,-5.9326171875000005E-6,0,0,0,891224,63897,27877,7878,19204,17476,6961,3604,Tag0,unknown
1605702240932,200,203,4.460449218750001E-5,0,0,0,891224,63897,27877,7878,19204,17476,6961,3604,Tag0,unknown
1605702240947,200,228,5.0097656250000005E-5,0,0,0,891224,63897,27877,7878,19204,17476,6961,3604,Tag0,unknown
1605702240957,200,342,7.5146484375E-5,0,0,0,891224,63897,27877,7878,19204,17476,6961,3604,Tag0,unknown
1605702240992,200,359,7.88818359375E-5,0,0,0,891224,63897,27877,7878,19204,17476,6961,3604,Tag0,unknown
1605702241002,200,276,6.064453125E-5,0,0,0,891224,63897,27877,7878,19204,17476,6961,3604,Tag0,unknown
1605702241028,200,567,1.245849609375E-4,0,0,0,891224,63897,27877,7878,19204,17476,6961,3604,Tag0,unknown
1605702241048,200,515,1.131591796875E-4,0,0,0,891224,63897,27877,7878,19204,17476,6961,3604,Tag0,unknown
1605702241070,200,188,4.1308593750000004E-5,0,0,0,891224,63897,27877,7878,19204,17476,6961,3604,Tag0,unknown
1605702241083,200,211,4.63623046875E-5,0,0,0,891224,63897,27877,7878,19204,17476,6961,3604,Tag0,unknown
1605702241106,200,332,7.294921875E-5,0,0,0,891224,63897,27877,7878,19204,17476,6961,3604,Tag0,unknown
1605702241116,200,349,7.668457031250001E-5,0,0,0,891224,63897,27877,7878,19204,17476,6961,3604,Tag0,unknown
1605702241140,200,268,5.8886718750000006E-5,0,0,0,891224,63897,27877,7878,19204,17476,6961,3604,Tag0,unknown
1605702241150,200,117,2.5708007812499998E-5,0,0,0,891224,63897,27877,7878,19204,17476,6961,3604,Tag0,unknown
1605702241174,200,-307,-6.74560546875E-5,0,0,0,891224,63897,27877,7878,19204,17476,6961,3604,Tag0,unknown
1605702241184,200,-117,-2.5708007812499998E-5,0,0,0,891224,63897,27877,7878,19204,17476,6961,3604,Tag0,unknown
1605702241213,200,-111,-2.43896484375E-5,0,0,0,891224,63897,27877,7878,19204,17476,6961,3604,Tag0,unknown
1605702241232,200,339,7.448730468750001E-5,0,0,0,891224,63897,27877,7878,19204,17476,6961,3604,Tag0,unknown
1605702241254,200,24,5.2734375E-6,0,0,0,891224,63897,27877,7878,19204,17476,6961,3604,Tag0,unknown
1605702241264,200,-265,-5.82275390625E-5,0,0,0,891224,63897,27877,7878,19204,17476,6961,3604,Tag0,unknown
1605702241288,200,38,8.349609375E-6,0,0,0,891224,63897,27877,7878,19204,17476,6961,3604,Tag0,unknown
1605702241298,200,82,1.8017578124999998E-5,0,0,0,891224,63897,27877,7878,19204,17476,6961,3604,Tag0,unknown
1605702241319,200,-109,-2.39501953125E-5,0,0,0,891224,63897,27877,7878,19204,17476,6961,3604,Tag0,unknown
1605702241341,200,-118,-2.5927734375E-5,0,0,0,891224,63897,27877,7878,19204,17476,6961,3604,Tag0,unknown
1605702241360,200,88,1.93359375E-5,0,0,0,891224,63897,27877,7878,19204,17476,6961,3604,Tag0,unknown
1605702241370,200,-167,-3.6694335937500004E-5,0,0,0,891224,63897,27877,7878,19204,17476,6961,3604,Tag0,unknown
1605702241393,200,-295,-6.48193359375E-5,0,0,0,891224,63897,27877,7878,19204,17476,6961,3604,Tag0,unknown
1605702241403,200,-118,-2.5927734375E-5,0,0,0,891224,63897,27877,7878,19204,17476,6961,3604,Tag0,unknown
1605702241438,200,-135,-2.96630859375E-5,0,0,0,891224,63897,27877,7878,19204,17476,6961,3604,Tag0,unknown
1605702241449,200,29,6.3720703125E-6,0,0,0,891224,63897,27877,7878,19204,17476,6961,3604,Tag0,unknown
1605702241470,200,-268,-5.8886718750000006E-5,0,0,0,891224,63897,27877,7878,19204,17476,6961,3604,Tag0,unknown
1605702241482,200,77,1.69189453125E-5,0,0,0,891224,63897,27877,7878,19204,17476,6961,3604,Tag0,unknown
1605702241503,200,283,6.218261718750001E-5,0,0,0,891224,63897,27877,7878,19204,17476,6961,3604,Tag0,unknown
1605702241516,200,362,7.954101562500001E-5,0,0,0,891224,63897,27877,7878,19204,17476,6961,3604,Tag0,unknown
1605702241537,200,55,1.20849609375E-5,0,0,0,891224,63897,27877,7878,19204,17476,6961,3604,Tag0,unknown
1605702241551,200,-78,-1.7138671875E-5,0,0,0,891224,63897,27877,7878,19204,17476,6961,3604,Tag0,unknown
1605702241583,200,-275,-6.04248046875E-5,0,0,0,891224,63897,27877,7878,19204,17476,6961,3604,Tag0,unknown
1605702241599,200,116,2.548828125E-5,0,0,0,891224,63897,27877,7878,19204,17476,6961,3604,Tag0,unknown
1605702241624,200,108,2.3730468750000002E-5,0,0,0,891224,63897,27877,7878,19204,17476,6961,3604,Tag0,unknown
1605702241634,200,-61,-1.34033203125E-5,0,0,0,891224,63897,27877,7878,19204,17476,6961,3604,Tag0,unknown
1605702241663,200,297,6.525878906250001E-5,0,0,0,891224,63897,27877,7878,19204,17476,6961,3604,Tag0,unknown
1605702241682,200,295,6.48193359375E-5,0,0,0,891224,63897,27877,7878,19204,17476,6961,3604,Tag0,unknown
1605702241702,200,-19,-4.1748046875E-6,0,0,0,891224,63897,27877,7878,19204,17476,6961,3604,Tag0,unknown
1605702241716,200,153,3.3618164062500004E-5,0,0,0,891224,63897,27877,7878,19204,17476,6961,3604,Tag0,unknown
1605702241743,200,-31,-6.8115234375E-6,0,0,0,16773971,14692,4346,3056,711,1864,820,407,Tag0,unknown
1605702241773,200,-108,-2.3730468750000002E-5,0,0,0,16773971,14692,4346,3056,711,1864,820,407,Tag0,unknown
1605702241784,200,325,7.14111328125E-5,0,0,0,16773971,14692,4346,3056,711,1864,820,407,Tag0,unknown
1605702241794,200,-21,-4.614257812500001E-6,0,0,0,16773971,14692,4346,3056,711,1864,820,407,Tag0,unknown
1605702241812,200,-106,-2.3291015625000003E-5,0,0,0,16773971,14692,4346,3056,711,1864,820,407,Tag0,unknown
1605702241845,200,-327,-7.18505859375E-5,0,0,0,16773971,14692,4346,3056,711,1864,820,407,Tag0,unknown
1605702241855,200,105,2.30712890625E-5,0,0,0,16773971,14692,4346,3056,711,1864,820,407,Tag0,unknown
1605702241884,200,295,6.48193359375E-5,0,0,0,16773971,14692,4346,3056,711,1864,820,407,Tag0,unknown
1605702241900,200,-6,-1.318359375E-6,0,0,0,16773971,14692,4346,3056,711,1864,820,407,Tag0,unknown
1605702241918,200,282,6.1962890625E-5,0,0,0,16773971,14692,4346,3056,711,1864,820,407,Tag0,unknown
1605702241935,200,259,5.69091796875E-5,0,0,0,16773971,14692,4346,3056,711,1864,820,407,Tag0,unknown
1605702241945,200,101,2.2192382812500002E-5,0,0,0,16773971,14692,4346,3056,711,1864,820,407,Tag0,unknown
1605702241959,200,-363,-7.97607421875E-5,0,0,0,16773971,14692,4346,3056,711,1864,820,407,Tag0,unknown
1605702241990,200,-29,-6.3720703125E-6,0,0,0,16773971,14692,4346,3056,711,1864,820,407,Tag0,unknown
1605702242001,200,-53,-1.1645507812500002E-5,0,0,0,16773971,14692,4346,3056,711,1864,820,407,Tag0,unknown
1605702242029,200,-260,-5.712890625E-5,0,0,0,16773971,14692,4346,3056,711,1864,820,407,Tag0,unknown
1605702242039,200,-43,-9.448242187500001E-6,0,0,0,16773971,14692,4346,3056,711,1864,820,407,Tag0,unknown
1605702242064,200,61,1.34033203125E-5,0,0,0,16773971,14692,4346,3056,711,1864,820,407,Tag0,unknown
1605702242074,200,256,5.625E-5,0,0,0,16773971,14692,4346,3056,711,1864,820,407,Tag0,unknown
1605702242103,200,445,9.77783203125E-5,0,0,0,16773971,14692,4346,3056,711,1864,820,407,Tag0,unknown
1605702242117,200,647,1.421630859375E-4,0,0,0,16773971,14692,4346,3056,711,1864,820,407,Tag0,unknown
1605702242138,200,587,1.2897949218750003E-4,0,0,0,16773971,14692,4346,3056,711,1864,820,407,Tag0,unknown
1605702242153,200,218,4.7900390625E-5,0,0,0,16773971,14692,4346,3056,711,1864,820,407,Tag0,unknown
1605702242163,200,146,3.2080078125000004E-5,0,0,0,16773971,14692,4346,3056,711,1864,820,407,Tag0,unknown
1605702242175,200,338,7.426757812499999E-5,0,0,0,16773971,14692,4346,3056,711,1864,820,407,Tag0,unknown
1605702242185,200,130,2.8564453125E-5,0,0,0,16773971,14692,4346,3056,711,1864,820,407,Tag0,unknown
1605702242208,200,313,6.87744140625E-5,0,0,0,16773971,14692,4346,3056,711,1864,820,407,Tag0,unknown
1605702242218,200,284,6.240234375E-5,0,0,0,16773971,14692,4346,3056,711,1864,820,407,Tag0,unknown
1605702242272,200,-333,-7.316894531249999E-5,0,0,0,16773971,14692,4346,3056,711,1864,820,407,Tag0,unknown
1605702242284,200,-376,-8.261718750000001E-5,0,0,0,16773971,14692,4346,3056,711,1864,820,407,Tag0,unknown
1605702242294,200,-321,-7.053222656250001E-5,0,0,0,16773971,14692,4346,3056,711,1864,820,407,Tag0,unknown
1605702242309,200,-171,-3.75732421875E-5,0,0,0,16773971,14692,4346,3056,711,1864,820,407,Tag0,unknown
1605702242320,200,-329,-7.229003906250001E-5,0,0,0,16773971,14692,4346,3056,711,1864,820,407,Tag0,unknown
1605702242330,200,-286,-6.2841796875E-5,0,0,0,16773971,14692,4346,3056,711,1864,820,407,Tag0,unknown
1605702242344,200,-189,-4.15283203125E-5,0,0,0,16773971,14692,4346,3056,711,1864,820,407,Tag0,unknown
1605702242354,200,-217,-4.76806640625E-5,0,0,0,16773971,14692,4346,3056,711,1864,820,407,Tag0,unknown
1605702242378,200,-209,-4.59228515625E-5,0,0,0,16773971,14692,4346,3056,711,1864,820,407,Tag0,unknown
1605702242388,200,-210,-4.6142578125E-5,0,0,0,16773971,14692,4346,3056,711,1864,820,407,Tag0,unknown
1605702242401,200,-562,-1.23486328125E-4,0,0,0,16773971,14692,4346,3056,711,1864,820,407,Tag0,unknown
1605702242421,200,119,2.6147460937500004E-5,0,0,0,16773971,14692,4346,3056,711,1864,820,407,Tag0,unknown
1605702242435,200,-75,-1.64794921875E-5,0,0,0,16773971,14692,4346,3056,711,1864,820,407,Tag0,unknown
1605702242494,200,-375,-8.23974609375E-5,0,0,0,16773971,14692,4346,3056,711,1864,820,407,Tag0,unknown
1605702242504,200,-188,-4.1308593750000004E-5,0,0,0,16773971,14692,4346,3056,711,1864,820,407,Tag0,unknown
1605702242562,200,-322,-7.0751953125E-5,0,0,0,16773971,14692,4346,3056,711,1864,820,407,Tag0,unknown
1605702242572,200,-153,-3.3618164062500004E-5,0,0,0,16773971,14692,4346,3056,711,1864,820,407,Tag0,unknown
1605702242630,200,-353,-7.75634765625E-5,0,0,0,16773971,14692,4346,3056,711,1864,820,407,Tag0,unknown
1605702242640,200,-262,-5.7568359375E-5,0,0,0,16773971,14692,4346,3056,711,1864,820,407,Tag0,unknown
1605702242697,200,32,7.03125E-6,0,0,0,16773971,14692,4346,3056,711,1864,820,407,Tag0,unknown
1605702242707,200,-183,-4.02099609375E-5,0,0,0,16773971,14692,4346,3056,711,1864,820,407,Tag0,unknown
1605702242765,200,21,4.614257812500001E-6,0,0,0,16773971,14692,4346,3056,711,1864,820,407,Tag0,unknown
1605702242787,200,-333,-7.316894531249999E-5,0,0,0,16773971,14692,4346,3056,711,1864,820,407,Tag0,unknown
1605702242832,200,-324,-7.119140625E-5,0,0,0,16773971,14692,4346,3056,711,1864,820,407,Tag0,unknown
1605702242854,200,-247,-5.42724609375E-5,0,0,0,16773971,14692,4346,3056,711,1864,820,407,Tag0,unknown
1605702242970,200,-563,-1.237060546875E-4,0,0,0,16773971,14692,4346,3056,711,1864,820,407,Tag0,unknown
1605702242997,200,-135,-2.96630859375E-5,0,0,0,16773971,14692,4346,3056,711,1864,820,407,Tag0,unknown
1605702243007,200,-93,-2.04345703125E-5,0,0,0,16773971,14692,4346,3056,711,1864,820,407,Tag0,unknown
1605702243020,200,82,1.8017578124999998E-5,0,0,0,16773971,14692,4346,3056,711,1864,820,407,Tag0,unknown
1605702243030,200,101,2.2192382812500002E-5,0,0,0,16773971,14692,4346,3056,711,1864,820,407,Tag0,unknown
1605702243040,200,120,2.63671875E-5,0,0,0,16773971,14692,4346,3056,711,1864,820,407,Tag0,unknown
1605702243050,200,120,2.63671875E-5,0,0,0,16773971,14692,4346,3056,711,1864,820,407,Tag0,unknown
1605702243060,200,-373,-8.19580078125E-5,0,0,0,16773971,14692,4346,3056,711,1864,820,407,Tag0,unknown
1605702243070,200,-531,-1.1667480468750001E-4,0,0,0,16773971,14692,4346,3056,711,1864,820,407,Tag0,unknown
1605702243082,200,-307,-6.74560546875E-5,0,0,0,16773971,14692,4346,3056,711,1864,820,407,Tag0,unknown
1605702243109,200,-277,-6.0864257812500005E-5,0,0,0,16773971,14692,4346,3056,711,1864,820,407,Tag0,unknown
1605702243119,200,-36,-7.91015625E-6,0,0,0,16773971,14692,4346,3056,711,1864,820,407,Tag0,unknown
1605702243149,200,-79,-1.7358398437500003E-5,0,0,0,16773971,14692,4346,3056,711,1864,820,407,Tag0,unknown
1605702243184,200,-36,-7.91015625E-6,0,0,0,16773971,14692,4346,3056,711,1864,820,407,Tag0,unknown
1605702243205,200,-73,-1.6040039062500002E-5,0,0,0,16773971,14692,4346,3056,711,1864,820,407,Tag0,unknown
1605702243215,200,-67,-1.4721679687500002E-5,0,0,0,16773971,14692,4346,3056,711,1864,820,407,Tag0,unknown
1605702243225,200,119,2.6147460937500004E-5,0,0,0,16773971,14692,4346,3056,711,1864,820,407,Tag0,unknown
1605702243258,200,-89,-1.95556640625E-5,0,0,0,16773971,14692,4346,3056,711,1864,820,407,Tag0,unknown
1605702243270,200,283,6.218261718750001E-5,0,0,0,16773971,14692,4346,3056,711,1864,820,407,Tag0,unknown
1605702243280,200,171,3.75732421875E-5,0,0,0,16773971,14692,4346,3056,711,1864,820,407,Tag0,unknown
1605702243292,200,167,3.6694335937500004E-5,0,0,0,16773971,14692,4346,3056,711,1864,820,407,Tag0,unknown
1605702243304,200,340,7.470703125E-5,0,0,0,16773971,14692,4346,3056,711,1864,820,407,Tag0,unknown
1605702243326,200,310,6.8115234375E-5,0,0,0,16773971,14692,4346,3056,711,1864,820,407,Tag0,unknown
1605702243338,200,-88,-1.93359375E-5,0,0,0,16773971,14692,4346,3056,711,1864,820,407,Tag0,unknown
1605702243364,200,51,1.1206054687499999E-5,0,0,0,16773971,14692,4346,3056,711,1864,820,407,Tag0,unknown
1605702243374,200,-326,-7.163085937500001E-5,0,0,0,16773971,14692,4346,3056,711,1864,820,407,Tag0,unknown
1605702243404,200,115,2.52685546875E-5,0,0,0,16773971,14692,4346,3056,711,1864,820,407,Tag0,unknown
1605702243420,200,-117,-2.5708007812499998E-5,0,0,0,16773971,14692,4346,3056,711,1864,820,407,Tag0,unknown
1605702243442,200,-564,-1.2392578125E-4,0,0,0,16773971,14692,4346,3056,711,1864,820,407,Tag0,unknown
1605702243456,200,-435,-9.55810546875E-5,0,0,0,16773971,14692,4346,3056,711,1864,820,407,Tag0,unknown
1605702243477,200,-419,-9.206542968750001E-5,0,0,0,16773971,14692,4346,3056,711,1864,820,407,Tag0,unknown
1605702243497,200,-531,-1.1667480468750001E-4,0,0,0,16773971,14692,4346,3056,711,1864,820,407,Tag0,unknown
1605702243521,200,-449,-9.86572265625E-5,0,0,0,16773971,14692,4346,3056,711,1864,820,407,Tag0,unknown
1605702243538,200,-166,-3.6474609375E-5,0,0,0,16773971,14692,4346,3056,711,1864,820,407,Tag0,unknown
1605702243559,200,-102,-2.2412109374999998E-5,0,0,0,16773971,14692,4346,3056,711,1864,820,407,Tag0,unknown
1605702243589,200,38,8.349609375E-6,0,0,0,16773971,14692,4346,3056,711,1864,820,407,Tag0,unknown
1605702243604,200,-359,-7.88818359375E-5,0,0,0,16773971,14692,4346,3056,711,1864,820,407,Tag0,unknown
1605702243622,200,-183,-4.02099609375E-5,0,0,0,16773971,14692,4346,3056,711,1864,820,407,Tag0,unknown
1605702243638,200,-549,-1.2062988281250001E-4,0,0,0,16773971,14692,4346,3056,711,1864,820,407,Tag0,unknown
1605702243648,200,5,1.0986328125E-6,0,0,0,16773971,14692,4346,3056,711,1864,820,407,Tag0,unknown
1605702243660,200,-273,-5.998535156250001E-5,0,0,0,16773971,14692,4346,3056,711,1864,820,407,Tag0,unknown
1605702243697,200,-174,-3.8232421875E-5,0,0,0,16773971,14692,4346,3056,711,1864,820,407,Tag0,unknown
1605702243707,200,-301,-6.613769531250001E-5,0,0,0,16773971,14692,4346,3056,711,1864,820,407,Tag0,unknown
1605702243731,200,105,2.30712890625E-5,0,0,0,1255285,84556,19260,16776279,31593,88395,20388,9579,Tag0,unknown
1605702243741,200,37,8.1298828125E-6,0,0,0,1255285,84556,19260,16776279,31593,88395,20388,9579,Tag0,unknown
1605702243770,200,-110,-2.4169921875E-5,0,0,0,1255285,84556,19260,16776279,31593,88395,20388,9579,Tag0,unknown
1605702243789,200,321,7.053222656250001E-5,0,0,0,1255285,84556,19260,16776279,31593,88395,20388,9579,Tag0,unknown
1605702243810,200,-372,-8.173828125E-5,0,0,0,1255285,84556,19260,16776279,31593,88395,20388,9579,Tag0,unknown
1605702243822,200,117,2.5708007812499998E-5,0,0,0,1255285,84556,19260,16776279,31593,88395,20388,9579,Tag0,unknown
1605702243845,200,44,9.66796875E-6,0,0,0,1255285,84556,19260,16776279,31593,88395,20388,9579,Tag0,unknown
1605702243855,200,-344,-7.558593750000001E-5,0,0,0,1255285,84556,19260,16776279,31593,88395,20388,9579,Tag0,unknown
1605702243882,200,-295,-6.48193359375E-5,0,0,0,1255285,84556,19260,16776279,31593,88395,20388,9579,Tag0,unknown
1605702243892,200,519,1.140380859375E-4,0,0,0,1255285,84556,19260,16776279,31593,88395,20388,9579,Tag0,unknown
1605702243918,200,-41,-9.008789062499999E-6,0,0,0,1255285,84556,19260,16776279,31593,88395,20388,9579,Tag0,unknown
1605702243953,200,282,6.1962890625E-5,0,0,0,1255285,84556,19260,16776279,31593,88395,20388,9579,Tag0,unknown
1605702243972,200,257,5.64697265625E-5,0,0,0,1255285,84556,19260,16776279,31593,88395,20388,9579,Tag0,unknown
1605702243991,200,364,7.998046875E-5,0,0,0,1255285,84556,19260,16776279,31593,88395,20388,9579,Tag0,unknown
1605702244007,200,-70,-1.5380859375E-5,0,0,0,1255285,84556,19260,16776279,31593,88395,20388,9579,Tag0,unknown
1605702244028,200,-79,-1.7358398437500003E-5,0,0,0,1255285,84556,19260,16776279,31593,88395,20388,9579,Tag0,unknown
1605702244039,200,359,7.88818359375E-5,0,0,0,1255285,84556,19260,16776279,31593,88395,20388,9579,Tag0,unknown
1605702244060,200,263,5.7788085937500005E-5,0,0,0,1255285,84556,19260,16776279,31593,88395,20388,9579,Tag0,unknown
1605702244073,200,241,5.29541015625E-5,0,0,0,1255285,84556,19260,16776279,31593,88395,20388,9579,Tag0,unknown
1605702244096,200,365,8.02001953125E-5,0,0,0,1255285,84556,19260,16776279,31593,88395,20388,9579,Tag0,unknown
1605702244109,200,-4,-8.7890625E-7,0,0,0,1255285,84556,19260,16776279,31593,88395,20388,9579,Tag0,unknown
1605702244136,200,67,1.4721679687500002E-5,0,0,0,1255285,84556,19260,16776279,31593,88395,20388,9579,Tag0,unknown
1605702244157,200,73,1.6040039062500002E-5,0,0,0,1255285,84556,19260,16776279,31593,88395,20388,9579,Tag0,unknown
1605702244173,200,-263,-5.7788085937500005E-5,0,0,0,1255285,84556,19260,16776279,31593,88395,20388,9579,Tag0,unknown
1605702244189,200,-343,-7.53662109375E-5,0,0,0,1255285,84556,19260,16776279,31593,88395,20388,9579,Tag0,unknown
1605702244210,200,37,8.1298828125E-6,0,0,0,1255285,84556,19260,16776279,31593,88395,20388,9579,Tag0,unknown
1605702244222,200,-263,-5.7788085937500005E-5,0,0,0,1255285,84556,19260,16776279,31593,88395,20388,9579,Tag0,unknown
1605702244243,200,388,8.525390625E-5,0,0,0,1255285,84556,19260,16776279,31593,88395,20388,9579,Tag0,unknown
1605702244268,200,423,9.29443359375E-5,0,0,0,1255285,84556,19260,16776279,31593,88395,20388,9579,Tag0,unknown
1605702244284,200,-86,-1.8896484375000003E-5,0,0,0,1255285,84556,19260,16776279,31593,88395,20388,9579,Tag0,unknown
1605702244319,200,-62,-1.3623046875E-5,0,0,0,1255285,84556,19260,16776279,31593,88395,20388,9579,Tag0,unknown
1605702244339,200,-73,-1.6040039062500002E-5,0,0,0,1255285,84556,19260,16776279,31593,88395,20388,9579,Tag0,unknown
1605702244361,200,-139,-3.0541992187500004E-5,0,0,0,1255285,84556,19260,16776279,31593,88395,20388,9579,Tag0,unknown
1605702244373,200,-147,-3.22998046875E-5,0,0,0,1255285,84556,19260,16776279,31593,88395,20388,9579,Tag0,unknown
1605702244383,200,-316,-6.943359375000001E-5,0,0,0,1255285,84556,19260,16776279,31593,88395,20388,9579,Tag0,unknown
1605702244403,200,-200,-4.39453125E-5,0,0,0,1255285,84556,19260,16776279,31593,88395,20388,9579,Tag0,unknown
1605702244413,200,-199,-4.3725585937499995E-5,0,0,0,1255285,84556,19260,16776279,31593,88395,20388,9579,Tag0,unknown
1605702244435,200,-482,-1.05908203125E-4,0,0,0,1255285,84556,19260,16776279,31593,88395,20388,9579,Tag0,unknown
1605702244445,200,-1107,-2.4323730468750002E-4,0,0,0,1255285,84556,19260,16776279,31593,88395,20388,9579,Tag0,unknown
1605702244456,200,-1028,-2.2587890625E-4,0,0,0,1255285,84556,19260,16776279,31593,88395,20388,9579,Tag0,unknown
1605702244477,200,-802,-1.7622070312500003E-4,0,0,0,1255285,84556,19260,16776279,31593,88395,20388,9579,Tag0,unknown
1605702244490,200,-793,-1.742431640625E-4,0,0,0,1255285,84556,19260,16776279,31593,88395,20388,9579,Tag0,unknown
1605702244510,200,-165,-3.62548828125E-5,0,0,0,1255285,84556,19260,16776279,31593,88395,20388,9579,Tag0,unknown
1605702244523,200,51,1.1206054687499999E-5,0,0,0,1255285,84556,19260,16776279,31593,88395,20388,9579,Tag0,unknown
1605702244553,200,-358,-7.8662109375E-5,0,0,0,1255285,84556,19260,16776279,31593,88395,20388,9579,Tag0,unknown
1605702244574,200,-727,-1.5974121093750003E-4,0,0,0,1255285,84556,19260,16776279,31593,88395,20388,9579,Tag0,unknown
1605702244598,200,-23,-5.0537109375E-6,0,0,0,1255285,84556,19260,16776279,31593,88395,20388,9579,Tag0,unknown
1605702244623,200,637,1.399658203125E-4,0,0,0,1255285,84556,19260,16776279,31593,88395,20388,9579,Tag0,unknown
1605702244642,200,464,1.01953125E-4,0,0,0,1255285,84556,19260,16776279,31593,88395,20388,9579,Tag0,unknown
1605702244660,200,235,5.16357421875E-5,0,0,0,1255285,84556,19260,16776279,31593,88395,20388,9579,Tag0,unknown
1605702244685,200,515,1.131591796875E-4,0,0,0,1255285,84556,19260,16776279,31593,88395,20388,9579,Tag0,unknown
1605702244708,200,161,3.53759765625E-5,0,0,0,1255285,84556,19260,16776279,31593,88395,20388,9579,Tag0,unknown
1605702244718,200,380,8.349609375E-5,0,0,0,2306721,16770948,90503,16758817,43808,16745626,16759054,9342,Tag0,unknown
1605702244738,200,156,3.427734375E-5,0,0,0,2306721,16770948,90503,16758817,43808,16745626,16759054,9342,Tag0,unknown
1605702244758,200,308,6.767578125E-5,0,0,0,2306721,16770948,90503,16758817,43808,16745626,16759054,9342,Tag0,unknown
1605702244775,200,-79,-1.7358398437500003E-5,0,0,0,2306721,16770948,90503,16758817,43808,16745626,16759054,9342,Tag0,unknown
1605702244785,200,-530,-1.16455078125E-4,0,0,0,2306721,16770948,90503,16758817,43808,16745626,16759054,9342,Tag0,unknown
1605702244808,200,-572,-1.2568359375E-4,0,0,0,2306721,16770948,90503,16758817,43808,16745626,16759054,9342,Tag0,unknown
1605702244832,200,-972,-2.1357421875E-4,0,0,0,2306721,16770948,90503,16758817,43808,16745626,16759054,9342,Tag0,unknown
1605702244842,200,-983,-2.159912109375E-4,0,0,0,2306721,16770948,90503,16758817,43808,16745626,16759054,9342,Tag0,unknown
1605702244865,200,-525,-1.153564453125E-4,0,0,0,2306721,16770948,90503,16758817,43808,16745626,16759054,9342,Tag0,unknown
1605702244875,200,-145,-3.18603515625E-5,0,0,0,2306721,16770948,90503,16758817,43808,16745626,16759054,9342,Tag0,unknown
1605702244903,200,56,1.23046875E-5,0,0,0,2306721,16770948,90503,16758817,43808,16745626,16759054,9342,Tag0,unknown
1605702244913,200,-164,-3.6035156249999995E-5,0,0,0,2306721,16770948,90503,16758817,43808,16745626,16759054,9342,Tag0,unknown
1605702244940,200,-379,-8.32763671875E-5,0,0,0,2306721,16770948,90503,16758817,43808,16745626,16759054,9342,Tag0,unknown
1605702244959,200,29,6.3720703125E-6,0,0,0,2306721,16770948,90503,16758817,43808,16745626,16759054,9342,Tag0,unknown
1605702244969,200,278,6.108398437500001E-5,0,0,0,2306721,16770948,90503,16758817,43808,16745626,16759054,9342,Tag0,unknown
1605702244980,200,-57,-1.2524414062500001E-5,0,0,0,2306721,16770948,90503,16758817,43808,16745626,16759054,9342,Tag0,unknown
1605702244995,200,295,6.48193359375E-5,0,0,0,2306721,16770948,90503,16758817,43808,16745626,16759054,9342,Tag0,unknown
1605702245018,200,193,4.2407226562500005E-5,0,0,0,2306721,16770948,90503,16758817,43808,16745626,16759054,9342,Tag0,unknown
1605702245028,200,524,1.1513671875E-4,0,0,0,2306721,16770948,90503,16758817,43808,16745626,16759054,9342,Tag0,unknown
1605702245054,200,-86,-1.8896484375000003E-5,0,0,0,2306721,16770948,90503,16758817,43808,16745626,16759054,9342,Tag0,unknown
1605702245064,200,377,8.28369140625E-5,0,0,0,2306721,16770948,90503,16758817,43808,16745626,16759054,9342,Tag0,unknown
1605702245088,200,321,7.053222656250001E-5,0,0,0,2306721,16770948,90503,16758817,43808,16745626,16759054,9342,Tag0,unknown
1605702245100,200,257,5.64697265625E-5,0,0,0,2306721,16770948,90503,16758817,43808,16745626,16759054,9342,Tag0,unknown
1605702245127,200,-31,-6.8115234375E-6,0,0,0,2306721,16770948,90503,16758817,43808,16745626,16759054,9342,Tag0,unknown
1605702245143,200,107,2.35107421875E-5,0,0,0,2306721,16770948,90503,16758817,43808,16745626,16759054,9342,Tag0,unknown
1605702245163,200,-552,-1.212890625E-4,0,0,0,2306721,16770948,90503,16758817,43808,16745626,16759054,9342,Tag0,unknown
1605702245176,200,-61,-1.34033203125E-5,0,0,0,2306721,16770948,90503,16758817,43808,16745626,16759054,9342,Tag0,unknown
1605702245197,200,379,8.32763671875E-5,0,0,0,2306721,16770948,90503,16758817,43808,16745626,16759054,9342,Tag0,unknown
1605702245210,200,521,1.1447753906250001E-4,0,0,0,2306721,16770948,90503,16758817,43808,16745626,16759054,9342,Tag0,unknown
1605702245233,200,-7,-1.5380859375E-6,0,0,0,2306721,16770948,90503,16758817,43808,16745626,16759054,9342,Tag0,unknown
1605702245243,200,343,7.53662109375E-5,0,0,0,2306721,16770948,90503,16758817,43808,16745626,16759054,9342,Tag0,unknown
1605702245269,200,97,2.13134765625E-5,0,0,0,2306721,16770948,90503,16758817,43808,16745626,16759054,9342,Tag0,unknown
1605702245279,200,-262,-5.7568359375E-5,0,0,0,2306721,16770948,90503,16758817,43808,16745626,16759054,9342,Tag0,unknown
1605702245303,200,7,1.5380859375E-6,0,0,0,2306721,16770948,90503,16758817,43808,16745626,16759054,9342,Tag0,unknown
1605702245322,200,-119,-2.6147460937500004E-5,0,0,0,2306721,16770948,90503,16758817,43808,16745626,16759054,9342,Tag0,unknown
1605702245332,200,-283,-6.218261718750001E-5,0,0,0,2306721,16770948,90503,16758817,43808,16745626,16759054,9342,Tag0,unknown
1605702245344,200,-531,-1.1667480468750001E-4,0,0,0,2306721,16770948,90503,16758817,43808,16745626,16759054,9342,Tag0,unknown
1605702245361,200,-517,-1.135986328125E-4,0,0,0,2306721,16770948,90503,16758817,43808,16745626,16759054,9342,Tag0,unknown
1605702245384,200,75,1.64794921875E-5,0,0,0,2306721,16770948,90503,16758817,43808,16745626,16759054,9342,Tag0,unknown
1605702245394,200,-380,-8.349609375E-5,0,0,0,2306721,16770948,90503,16758817,43808,16745626,16759054,9342,Tag0,unknown
1605702245416,200,17,3.7353515625000003E-6,0,0,0,2306721,16770948,90503,16758817,43808,16745626,16759054,9342,Tag0,unknown
1605702245445,200,-165,-3.62548828125E-5,0,0,0,2306721,16770948,90503,16758817,43808,16745626,16759054,9342,Tag0,unknown
1605702245463,200,72,1.58203125E-5,0,0,0,2306721,16770948,90503,16758817,43808,16745626,16759054,9342,Tag0,unknown
1605702245473,200,266,5.8447265625E-5,0,0,0,2306721,16770948,90503,16758817,43808,16745626,16759054,9342,Tag0,unknown
1605702245488,200,99,2.1752929687500003E-5,0,0,0,2306721,16770948,90503,16758817,43808,16745626,16759054,9342,Tag0,unknown
1605702245507,200,71,1.56005859375E-5,0,0,0,2306721,16770948,90503,16758817,43808,16745626,16759054,9342,Tag0,unknown
1605702245526,200,-586,-1.28759765625E-4,0,0,0,2306721,16770948,90503,16758817,43808,16745626,16759054,9342,Tag0,unknown
1605702245545,200,-161,-3.53759765625E-5,0,0,0,2306721,16770948,90503,16758817,43808,16745626,16759054,9342,Tag0,unknown
1605702245565,200,-338,-7.426757812499999E-5,0,0,0,2306721,16770948,90503,16758817,43808,16745626,16759054,9342,Tag0,unknown
1605702245597,200,-135,-2.96630859375E-5,0,0,0,2306721,16770948,90503,16758817,43808,16745626,16759054,9342,Tag0,unknown
1605702245612,200,26,5.712890625E-6,0,0,0,2306721,16770948,90503,16758817,43808,16745626,16759054,9342,Tag0,unknown
1605702245622,200,-299,-6.56982421875E-5,0,0,0,2306721,16770948,90503,16758817,43808,16745626,16759054,9342,Tag0,unknown
1605702245636,200,-127,-2.79052734375E-5,0,0,0,2306721,16770948,90503,16758817,43808,16745626,16759054,9342,Tag0,unknown
1605702245646,200,264,5.80078125E-5,0,0,0,2306721,16770948,90503,16758817,43808,16745626,16759054,9342,Tag0,unknown
1605702245670,200,-275,-6.04248046875E-5,0,0,0,2306721,16770948,90503,16758817,43808,16745626,16759054,9342,Tag0,unknown
1605702245684,200,-289,-6.35009765625E-5,0,0,0,2306721,16770948,90503,16758817,43808,16745626,16759054,9342,Tag0,unknown
1605702245694,200,123,2.70263671875E-5,0,0,0,2306721,16770948,90503,16758817,43808,16745626,16759054,9342,Tag0,unknown
1605702245711,200,-67,-1.4721679687500002E-5,0,0,0,2306721,16770948,90503,16758817,43808,16745626,16759054,9342,Tag0,unknown
1605702245730,200,-105,-2.30712890625E-5,0,0,0,157334,19771,3341,4582,2517,4176,2294,521,Tag0,unknown
1605702245759,200,-127,-2.79052734375E-5,0,0,0,157334,19771,3341,4582,2517,4176,2294,521,Tag0,unknown
1605702245780,200,82,1.8017578124999998E-5,0,0,0,157334,19771,3341,4582,2517,4176,2294,521,Tag0,unknown
1605702245797,200,-63,-1.38427734375E-5,0,0,0,157334,19771,3341,4582,2517,4176,2294,521,Tag0,unknown
1605702245807,200,-278,-6.108398437500001E-5,0,0,0,157334,19771,3341,4582,2517,4176,2294,521,Tag0,unknown
1605702245818,200,-187,-4.10888671875E-5,0,0,0,157334,19771,3341,4582,2517,4176,2294,521,Tag0,unknown
1605702245836,200,-357,-7.844238281250001E-5,0,0,0,157334,19771,3341,4582,2517,4176,2294,521,Tag0,unknown
1605702245860,200,-514,-1.12939453125E-4,0,0,0,157334,19771,3341,4582,2517,4176,2294,521,Tag0,unknown
1605702245880,200,-186,-4.0869140625E-5,0,0,0,157334,19771,3341,4582,2517,4176,2294,521,Tag0,unknown
1605702245896,200,-189,-4.15283203125E-5,0,0,0,157334,19771,3341,4582,2517,4176,2294,521,Tag0,unknown
1605702245914,200,-314,-6.8994140625E-5,0,0,0,157334,19771,3341,4582,2517,4176,2294,521,Tag0,unknown
1605702245931,200,42,9.228515625000002E-6,0,0,0,157334,19771,3341,4582,2517,4176,2294,521,Tag0,unknown
1605702245947,200,-323,-7.09716796875E-5,0,0,0,157334,19771,3341,4582,2517,4176,2294,521,Tag0,unknown
1605702245969,200,353,7.75634765625E-5,0,0,0,157334,19771,3341,4582,2517,4176,2294,521,Tag0,unknown
1605702245980,200,-45,-9.8876953125E-6,0,0,0,157334,19771,3341,4582,2517,4176,2294,521,Tag0,unknown
1605702246003,200,-99,-2.1752929687500003E-5,0,0,0,157334,19771,3341,4582,2517,4176,2294,521,Tag0,unknown
1605702246014,200,-48,-1.0546875E-5,0,0,0,157334,19771,3341,4582,2517,4176,2294,521,Tag0,unknown
1605702246039,200,310,6.8115234375E-5,0,0,0,157334,19771,3341,4582,2517,4176,2294,521,Tag0,unknown
1605702246049,200,-11,-2.4169921875E-6,0,0,0,157334,19771,3341,4582,2517,4176,2294,521,Tag0,unknown
1605702246076,200,13,2.8564453125E-6,0,0,0,157334,19771,3341,4582,2517,4176,2294,521,Tag0,unknown
1605702246086,200,-277,-6.0864257812500005E-5,0,0,0,157334,19771,3341,4582,2517,4176,2294,521,Tag0,unknown
1605702246096,200,-235,-5.16357421875E-5,0,0,0,157334,19771,3341,4582,2517,4176,2294,521,Tag0,unknown
1605702246114,200,-600,-1.318359375E-4,0,0,0,157334,19771,3341,4582,2517,4176,2294,521,Tag0,unknown
1605702246131,200,-329,-7.229003906250001E-5,0,0,0,157334,19771,3341,4582,2517,4176,2294,521,Tag0,unknown
1605702246155,200,-347,-7.62451171875E-5,0,0,0,157334,19771,3341,4582,2517,4176,2294,521,Tag0,unknown
1605702246165,200,2,4.39453125E-7,0,0,0,157334,19771,3341,4582,2517,4176,2294,521,Tag0,unknown
1605702246192,200,87,1.91162109375E-5,0,0,0,157334,19771,3341,4582,2517,4176,2294,521,Tag0,unknown
1605702246215,200,55,1.20849609375E-5,0,0,0,157334,19771,3341,4582,2517,4176,2294,521,Tag0,unknown
1605702246233,200,145,3.18603515625E-5,0,0,0,157334,19771,3341,4582,2517,4176,2294,521,Tag0,unknown
1605702246249,200,379,8.32763671875E-5,0,0,0,157334,19771,3341,4582,2517,4176,2294,521,Tag0,unknown
1605702246267,200,147,3.22998046875E-5,0,0,0,157334,19771,3341,4582,2517,4176,2294,521,Tag0,unknown
1605702246286,200,333,7.316894531249999E-5,0,0,0,157334,19771,3341,4582,2517,4176,2294,521,Tag0,unknown
1605702246296,200,-257,-5.64697265625E-5,0,0,0,157334,19771,3341,4582,2517,4176,2294,521,Tag0,unknown
1605702246306,200,12,2.63671875E-6,0,0,0,157334,19771,3341,4582,2517,4176,2294,521,Tag0,unknown
1605702246316,200,-333,-7.316894531249999E-5,0,0,0,157334,19771,3341,4582,2517,4176,2294,521,Tag0,unknown
1605702246338,200,24,5.2734375E-6,0,0,0,157334,19771,3341,4582,2517,4176,2294,521,Tag0,unknown
1605702246351,200,9,1.9775390625E-6,0,0,0,157334,19771,3341,4582,2517,4176,2294,521,Tag0,unknown
1605702246361,200,125,2.74658203125E-5,0,0,0,157334,19771,3341,4582,2517,4176,2294,521,Tag0,unknown
1605702246378,200,132,2.900390625E-5,0,0,0,157334,19771,3341,4582,2517,4176,2294,521,Tag0,unknown
1605702246389,200,369,8.10791015625E-5,0,0,0,157334,19771,3341,4582,2517,4176,2294,521,Tag0,unknown
1605702246414,200,381,8.371582031250001E-5,0,0,0,157334,19771,3341,4582,2517,4176,2294,521,Tag0,unknown
1605702246432,200,244,5.361328125E-5,0,0,0,157334,19771,3341,4582,2517,4176,2294,521,Tag0,unknown
1605702246452,200,283,6.218261718750001E-5,0,0,0,157334,19771,3341,4582,2517,4176,2294,521,Tag0,unknown
1605702246465,200,181,3.9770507812500004E-5,0,0,0,157334,19771,3341,4582,2517,4176,2294,521,Tag0,unknown
1605702246487,200,-121,-2.6586914062500003E-5,0,0,0,157334,19771,3341,4582,2517,4176,2294,521,Tag0,unknown
1605702246499,200,172,3.7792968750000005E-5,0,0,0,157334,19771,3341,4582,2517,4176,2294,521,Tag0,unknown
1605702246524,200,83,1.82373046875E-5,0,0,0,157334,19771,3341,4582,2517,4176,2294,521,Tag0,unknown
1605702246534,200,89,1.95556640625E-5,0,0,0,157334,19771,3341,4582,2517,4176,2294,521,Tag0,unknown
1605702246562,200,81,1.77978515625E-5,0,0,0,157334,19771,3341,4582,2517,4176,2294,521,Tag0,unknown
1605702246572,200,-103,-2.26318359375E-5,0,0,0,157334,19771,3341,4582,2517,4176,2294,521,Tag0,unknown
1605702246598,200,534,1.17333984375E-4,0,0,0,157334,19771,3341,4582,2517,4176,2294,521,Tag0,unknown
1605702246616,200,440,9.66796875E-5,0,0,0,157334,19771,3341,4582,2517,4176,2294,521,Tag0,unknown
1605702246635,200,892,1.9599609375000002E-4,0,0,0,157334,19771,3341,4582,2517,4176,2294,521,Tag0,unknown
1605702246645,200,294,6.4599609375E-5,0,0,0,157334,19771,3341,4582,2517,4176,2294,521,Tag0,unknown
1605702246655,200,345,7.58056640625E-5,0,0,0,157334,19771,3341,4582,2517,4176,2294,521,Tag0,unknown
1605702246671,200,-5,-1.0986328125E-6,0,0,0,157334,19771,3341,4582,2517,4176,2294,521,Tag0,unknown
1605702246686,200,-105,-2.30712890625E-5,0,0,0,157334,19771,3341,4582,2517,4176,2294,521,Tag0,unknown
1605702246706,200,-139,-3.0541992187500004E-5,0,0,0,157334,19771,3341,4582,2517,4176,2294,521,Tag0,unknown
1605702246728,200,-249,-5.47119140625E-5,0,0,0,83054,16763296,15161,21603,17212,8567,4074,1879,Tag0,unknown
1605702246743,200,-221,-4.85595703125E-5,0,0,0,83054,16763296,15161,21603,17212,8567,4074,1879,Tag0,unknown
1605702246764,200,-111,-2.43896484375E-5,0,0,0,83054,16763296,15161,21603,17212,8567,4074,1879,Tag0,unknown
1605702246782,200,-293,-6.43798828125E-5,0,0,0,83054,16763296,15161,21603,17212,8567,4074,1879,Tag0,unknown
1605702246799,200,-339,-7.448730468750001E-5,0,0,0,83054,16763296,15161,21603,17212,8567,4074,1879,Tag0,unknown
1605702246824,200,-289,-6.35009765625E-5,0,0,0,83054,16763296,15161,21603,17212,8567,4074,1879,Tag0,unknown
1605702246834,200,260,5.712890625E-5,0,0,0,83054,16763296,15161,21603,17212,8567,4074,1879,Tag0,unknown
1605702246844,200,277,6.0864257812500005E-5,0,0,0,83054,16763296,15161,21603,17212,8567,4074,1879,Tag0,unknown
1605702246859,200,-9,-1.9775390625E-6,0,0,0,83054,16763296,15161,21603,17212,8567,4074,1879,Tag0,unknown
1605702246890,200,279,6.13037109375E-5,0,0,0,83054,16763296,15161,21603,17212,8567,4074,1879,Tag0,unknown
1605702246900,200,-257,-5.64697265625E-5,0,0,0,83054,16763296,15161,21603,17212,8567,4074,1879,Tag0,unknown
1605702246910,200,-161,-3.53759765625E-5,0,0,0,83054,16763296,15161,21603,17212,8567,4074,1879,Tag0,unknown
1605702246929,200,-369,-8.10791015625E-5,0,0,0,83054,16763296,15161,21603,17212,8567,4074,1879,Tag0,unknown
1605702246964,200,-582,-1.27880859375E-4,0,0,0,83054,16763296,15161,21603,17212,8567,4074,1879,Tag0,unknown
1605702246983,200,-557,-1.223876953125E-4,0,0,0,83054,16763296,15161,21603,17212,8567,4074,1879,Tag0,unknown
1605702247006,200,-361,-7.93212890625E-5,0,0,0,83054,16763296,15161,21603,17212,8567,4074,1879,Tag0,unknown
1605702247017,200,26,5.712890625E-6,0,0,0,83054,16763296,15161,21603,17212,8567,4074,1879,Tag0,unknown
1605702247039,200,-135,-2.96630859375E-5,0,0,0,83054,16763296,15161,21603,17212,8567,4074,1879,Tag0,unknown
1605702247050,200,109,2.39501953125E-5,0,0,0,83054,16763296,15161,21603,17212,8567,4074,1879,Tag0,unknown
1605702247060,200,108,2.3730468750000002E-5,0,0,0,83054,16763296,15161,21603,17212,8567,4074,1879,Tag0,unknown
1605702247076,200,-102,-2.2412109374999998E-5,0,0,0,83054,16763296,15161,21603,17212,8567,4074,1879,Tag0,unknown
1605702247086,200,112,2.4609375E-5,0,0,0,83054,16763296,15161,21603,17212,8567,4074,1879,Tag0,unknown
1605702247109,200,-84,-1.8457031250000004E-5,0,0,0,83054,16763296,15161,21603,17212,8567,4074,1879,Tag0,unknown
1605702247119,200,-13,-2.8564453125E-6,0,0,0,83054,16763296,15161,21603,17212,8567,4074,1879,Tag0,unknown
1605702247134,200,-167,-3.6694335937500004E-5,0,0,0,83054,16763296,15161,21603,17212,8567,4074,1879,Tag0,unknown
1605702247152,200,-330,-7.2509765625E-5,0,0,0,83054,16763296,15161,21603,17212,8567,4074,1879,Tag0,unknown
1605702247188,200,39,8.5693359375E-6,0,0,0,83054,16763296,15161,21603,17212,8567,4074,1879,Tag0,unknown
1605702247200,200,-136,-2.9882812500000002E-5,0,0,0,83054,16763296,15161,21603,17212,8567,4074,1879,Tag0,unknown
1605702247210,200,-595,-1.307373046875E-4,0,0,0,83054,16763296,15161,21603,17212,8567,4074,1879,Tag0,unknown
1605702247222,200,-532,-1.1689453125E-4,0,0,0,83054,16763296,15161,21603,17212,8567,4074,1879,Tag0,unknown
1605702247234,200,-425,-9.33837890625E-5,0,0,0,83054,16763296,15161,21603,17212,8567,4074,1879,Tag0,unknown
1605702247256,200,-437,-9.602050781250001E-5,0,0,0,83054,16763296,15161,21603,17212,8567,4074,1879,Tag0,unknown
1605702247268,200,-247,-5.42724609375E-5,0,0,0,83054,16763296,15161,21603,17212,8567,4074,1879,Tag0,unknown
1605702247278,200,-373,-8.19580078125E-5,0,0,0,83054,16763296,15161,21603,17212,8567,4074,1879,Tag0,unknown
1605702247295,200,-173,-3.80126953125E-5,0,0,0,83054,16763296,15161,21603,17212,8567,4074,1879,Tag0,unknown
1605702247305,200,-89,-1.95556640625E-5,0,0,0,83054,16763296,15161,21603,17212,8567,4074,1879,Tag0,unknown
1605702247334,200,332,7.294921875E-5,0,0,0,83054,16763296,15161,21603,17212,8567,4074,1879,Tag0,unknown
1605702247351,200,131,2.87841796875E-5,0,0,0,83054,16763296,15161,21603,17212,8567,4074,1879,Tag0,unknown
1605702247392,200,181,3.9770507812500004E-5,0,0,0,83054,16763296,15161,21603,17212,8567,4074,1879,Tag0,unknown
1605702247402,200,297,6.525878906250001E-5,0,0,0,83054,16763296,15161,21603,17212,8567,4074,1879,Tag0,unknown
1605702247469,200,360,7.91015625E-5,0,0,0,83054,16763296,15161,21603,17212,8567,4074,1879,Tag0,unknown
1605702247486,200,-29,-6.3720703125E-6,0,0,0,83054,16763296,15161,21603,17212,8567,4074,1879,Tag0,unknown
1605702247536,200,-10,-2.197265625E-6,0,0,0,83054,16763296,15161,21603,17212,8567,4074,1879,Tag0,unknown
1605702247553,200,81,1.77978515625E-5,0,0,0,83054,16763296,15161,21603,17212,8567,4074,1879,Tag0,unknown
1605702247675,200,279,6.13037109375E-5,0,0,0,83054,16763296,15161,21603,17212,8567,4074,1879,Tag0,unknown
1605702247693,200,57,1.2524414062500001E-5,0,0,0,83054,16763296,15161,21603,17212,8567,4074,1879,Tag0,unknown
1605702247703,200,37,8.1298828125E-6,0,0,0,83054,16763296,15161,21603,17212,8567,4074,1879,Tag0,unknown
1605702247713,200,160,3.515625E-5,0,0,0,83054,16763296,15161,21603,17212,8567,4074,1879,Tag0,unknown
1605702247741,200,388,8.525390625E-5,0,0,0,83054,16763296,15161,21603,17212,8567,4074,1879,Tag0,unknown
1605702247753,200,247,5.42724609375E-5,0,0,0,83054,16763296,15161,21603,17212,8567,4074,1879,Tag0,unknown
1605702247809,200,513,1.127197265625E-4,0,0,0,83054,16763296,15161,21603,17212,8567,4074,1879,Tag0,unknown
1605702247820,200,204,4.4824218749999996E-5,0,0,0,83054,16763296,15161,21603,17212,8567,4074,1879,Tag0,unknown
1605702247876,200,341,7.492675781250002E-5,0,0,0,83054,16763296,15161,21603,17212,8567,4074,1879,Tag0,unknown
1605702247887,200,301,6.613769531250001E-5,0,0,0,83054,16763296,15161,21603,17212,8567,4074,1879,Tag0,unknown
1605702248016,200,119,2.6147460937500004E-5,0,0,0,83054,16763296,15161,21603,17212,8567,4074,1879,Tag0,unknown
1605702248051,200,-25,-5.4931640625E-6,0,0,0,83054,16763296,15161,21603,17212,8567,4074,1879,Tag0,unknown
1605702248061,200,72,1.58203125E-5,0,0,0,83054,16763296,15161,21603,17212,8567,4074,1879,Tag0,unknown
1605702248071,200,-325,-7.14111328125E-5,0,0,0,83054,16763296,15161,21603,17212,8567,4074,1879,Tag0,unknown
1605702248081,200,-635,-1.395263671875E-4,0,0,0,83054,16763296,15161,21603,17212,8567,4074,1879,Tag0,unknown
1605702248093,200,-1201,-2.6389160156250005E-4,0,0,0,83054,16763296,15161,21603,17212,8567,4074,1879,Tag0,unknown
1605702248103,200,692,1.5205078125E-4,0,0,0,83054,16763296,15161,21603,17212,8567,4074,1879,Tag0,unknown
1605702248113,200,343,7.53662109375E-5,0,0,0,83054,16763296,15161,21603,17212,8567,4074,1879,Tag0,unknown
1605702248133,200,-122,-2.6806640625E-5,0,0,0,83054,16763296,15161,21603,17212,8567,4074,1879,Tag0,unknown
1605702248151,200,-127,-2.79052734375E-5,0,0,0,83054,16763296,15161,21603,17212,8567,4074,1879,Tag0,unknown
1605702248174,200,53,1.1645507812500002E-5,0,0,0,83054,16763296,15161,21603,17212,8567,4074,1879,Tag0,unknown
1605702248189,200,43,9.448242187500001E-6,0,0,0,83054,16763296,15161,21603,17212,8567,4074,1879,Tag0,unknown
1605702248206,200,-283,-6.218261718750001E-5,0,0,0,83054,16763296,15161,21603,17212,8567,4074,1879,Tag0,unknown
1605702248220,200,-313,-6.87744140625E-5,0,0,0,83054,16763296,15161,21603,17212,8567,4074,1879,Tag0,unknown
1605702248230,200,-451,-9.909667968750001E-5,0,0,0,83054,16763296,15161,21603,17212,8567,4074,1879,Tag0,unknown
1605702248243,200,-473,-1.0393066406249999E-4,0,0,0,83054,16763296,15161,21603,17212,8567,4074,1879,Tag0,unknown
1605702248254,200,-886,-1.94677734375E-4,0,0,0,83054,16763296,15161,21603,17212,8567,4074,1879,Tag0,unknown
1605702248276,200,-866,-1.90283203125E-4,0,0,0,83054,16763296,15161,21603,17212,8567,4074,1879,Tag0,unknown
1605702248287,200,-683,-1.500732421875E-4,0,0,0,83054,16763296,15161,21603,17212,8567,4074,1879,Tag0,unknown
1605702248313,200,-409,-8.986816406250001E-5,0,0,0,83054,16763296,15161,21603,17212,8567,4074,1879,Tag0,unknown
1605702248323,200,-481,-1.056884765625E-4,0,0,0,83054,16763296,15161,21603,17212,8567,4074,1879,Tag0,unknown
1605702248347,200,-733,-1.6105957031250002E-4,0,0,0,83054,16763296,15161,21603,17212,8567,4074,1879,Tag0,unknown
1605702248357,200,-933,-2.050048828125E-4,0,0,0,83054,16763296,15161,21603,17212,8567,4074,1879,Tag0,unknown
1605702248385,200,-666,-1.4633789062499998E-4,0,0,0,83054,16763296,15161,21603,17212,8567,4074,1879,Tag0,unknown
1605702248403,200,-802,-1.7622070312500003E-4,0,0,0,83054,16763296,15161,21603,17212,8567,4074,1879,Tag0,unknown
1605702248420,200,-484,-1.0634765625000001E-4,0,0,0,83054,16763296,15161,21603,17212,8567,4074,1879,Tag0,unknown
1605702248437,200,-378,-8.3056640625E-5,0,0,0,83054,16763296,15161,21603,17212,8567,4074,1879,Tag0,unknown
1605702248458,200,-380,-8.349609375E-5,0,0,0,83054,16763296,15161,21603,17212,8567,4074,1879,Tag0,unknown
1605702248470,200,107,2.35107421875E-5,0,0,0,83054,16763296,15161,21603,17212,8567,4074,1879,Tag0,unknown
1605702248492,200,-308,-6.767578125E-5,0,0,0,83054,16763296,15161,21603,17212,8567,4074,1879,Tag0,unknown
1605702248504,200,-331,-7.272949218750001E-5,0,0,0,83054,16763296,15161,21603,17212,8567,4074,1879,Tag0,unknown
1605702248514,200,116,2.548828125E-5,0,0,0,83054,16763296,15161,21603,17212,8567,4074,1879,Tag0,unknown
1605702248532,200,-93,-2.04345703125E-5,0,0,0,83054,16763296,15161,21603,17212,8567,4074,1879,Tag0,unknown
1605702248565,200,-292,-6.416015625000001E-5,0,0,0,83054,16763296,15161,21603,17212,8567,4074,1879,Tag0,unknown
1605702248575,200,-302,-6.6357421875E-5,0,0,0,83054,16763296,15161,21603,17212,8567,4074,1879,Tag0,unknown
1605702248587,200,125,2.74658203125E-5,0,0,0,83054,16763296,15161,21603,17212,8567,4074,1879,Tag0,unknown
1605702248604,200,-126,-2.7685546875E-5,0,0,0,83054,16763296,15161,21603,17212,8567,4074,1879,Tag0,unknown
1605702248621,200,83,1.82373046875E-5,0,0,0,83054,16763296,15161,21603,17212,8567,4074,1879,Tag0,unknown
1605702248643,200,362,7.954101562500001E-5,0,0,0,83054,16763296,15161,21603,17212,8567,4074,1879,Tag0,unknown
1605702248670,200,43,9.448242187500001E-6,0,0,0,83054,16763296,15161,21603,17212,8567,4074,1879,Tag0,unknown
1605702248680,200,-206,-4.5263671875E-5,0,0,0,83054,16763296,15161,21603,17212,8567,4074,1879,Tag0,unknown
1605702248690,200,-217,-4.76806640625E-5,0,0,0,83054,16763296,15161,21603,17212,8567,4074,1879,Tag0,unknown
1605702248715,200,-567,-1.245849609375E-4,0,0,0,1968104,484994,16765176,90744,79167,16773745,13349,9730,Tag0,unknown
1605702248725,200,-521,-1.1447753906250001E-4,0,0,0,1968104,484994,16765176,90744,79167,16773745,13349,9730,Tag0,unknown
1605702248744,200,-396,-8.701171875000001E-5,0,0,0,1968104,484994,16765176,90744,79167,16773745,13349,9730,Tag0,unknown
1605702248755,200,-453,-9.95361328125E-5,0,0,0,1968104,484994,16765176,90744,79167,16773745,13349,9730,Tag0,unknown
1605702248778,200,-281,-6.17431640625E-5,0,0,0,1968104,484994,16765176,90744,79167,16773745,13349,9730,Tag0,unknown
1605702248788,200,71,1.56005859375E-5,0,0,0,1968104,484994,16765176,90744,79167,16773745,13349,9730,Tag0,unknown
1605702248798,200,-71,-1.56005859375E-5,0,0,0,1968104,484994,16765176,90744,79167,16773745,13349,9730,Tag0,unknown
1605702248818,200,-74,-1.6259765625E-5,0,0,0,1968104,484994,16765176,90744,79167,16773745,13349,9730,Tag0,unknown
1605702248838,200,67,1.4721679687500002E-5,0,0,0,1968104,484994,16765176,90744,79167,16773745,13349,9730,Tag0,unknown
1605702248855,200,96,2.109375E-5,0,0,0,1968104,484994,16765176,90744,79167,16773745,13349,9730,Tag0,unknown
1605702248871,200,-305,-6.70166015625E-5,0,0,0,1968104,484994,16765176,90744,79167,16773745,13349,9730,Tag0,unknown
1605702248892,200,-343,-7.53662109375E-5,0,0,0,1968104,484994,16765176,90744,79167,16773745,13349,9730,Tag0,unknown
1605702248905,200,-343,-7.53662109375E-5,0,0,0,1968104,484994,16765176,90744,79167,16773745,13349,9730,Tag0,unknown
1605702248926,200,-396,-8.701171875000001E-5,0,0,0,1968104,484994,16765176,90744,79167,16773745,13349,9730,Tag0,unknown
1605702248938,200,-487,-1.070068359375E-4,0,0,0,1968104,484994,16765176,90744,79167,16773745,13349,9730,Tag0,unknown
1605702248963,200,-712,-1.564453125E-4,0,0,0,1968104,484994,16765176,90744,79167,16773745,13349,9730,Tag0,unknown
1605702248973,200,-473,-1.0393066406249999E-4,0,0,0,1968104,484994,16765176,90744,79167,16773745,13349,9730,Tag0,unknown
1605702248995,200,-440,-9.66796875E-5,0,0,0,1968104,484994,16765176,90744,79167,16773745,13349,9730,Tag0,unknown
1605702249012,200,-615,-1.351318359375E-4,0,0,0,1968104,484994,16765176,90744,79167,16773745,13349,9730,Tag0,unknown
1605702249022,200,-357,-7.844238281250001E-5,0,0,0,1968104,484994,16765176,90744,79167,16773745,13349,9730,Tag0,unknown
1605702249037,200,-137,-3.0102539062499998E-5,0,0,0,1968104,484994,16765176,90744,79167,16773745,13349,9730,Tag0,unknown
1605702249072,200,-226,-4.9658203125E-5,0,0,0,1968104,484994,16765176,90744,79167,16773745,13349,9730,Tag0,unknown
1605702249088,200,-183,-4.02099609375E-5,0,0,0,1968104,484994,16765176,90744,79167,16773745,13349,9730,Tag0,unknown
1605702249107,200,-137,-3.0102539062499998E-5,0,0,0,1968104,484994,16765176,90744,79167,16773745,13349,9730,Tag0,unknown
1605702249122,200,-349,-7.668457031250001E-5,0,0,0,1968104,484994,16765176,90744,79167,16773745,13349,9730,Tag0,unknown
1605702249141,200,-349,-7.668457031250001E-5,0,0,0,1968104,484994,16765176,90744,79167,16773745,13349,9730,Tag0,unknown
1605702249155,200,-139,-3.0541992187500004E-5,0,0,0,1968104,484994,16765176,90744,79167,16773745,13349,9730,Tag0,unknown
1605702249179,200,-283,-6.218261718750001E-5,0,0,0,1968104,484994,16765176,90744,79167,16773745,13349,9730,Tag0,unknown
1605702249189,200,-274,-6.0205078124999997E-5,0,0,0,1968104,484994,16765176,90744,79167,16773745,13349,9730,Tag0,unknown
1605702249213,200,7,1.5380859375E-6,0,0,0,1968104,484994,16765176,90744,79167,16773745,13349,9730,Tag0,unknown
1605702249223,200,19,4.1748046875E-6,0,0,0,1968104,484994,16765176,90744,79167,16773745,13349,9730,Tag0,unknown
1605702249255,200,67,1.4721679687500002E-5,0,0,0,1968104,484994,16765176,90744,79167,16773745,13349,9730,Tag0,unknown
1605702249273,200,85,1.86767578125E-5,0,0,0,1968104,484994,16765176,90744,79167,16773745,13349,9730,Tag0,unknown
1605702249291,200,-87,-1.91162109375E-5,0,0,0,1968104,484994,16765176,90744,79167,16773745,13349,9730,Tag0,unknown
1605702249308,200,-35,-7.6904296875E-6,0,0,0,1968104,484994,16765176,90744,79167,16773745,13349,9730,Tag0,unknown
1605702249335,200,-67,-1.4721679687500002E-5,0,0,0,1968104,484994,16765176,90744,79167,16773745,13349,9730,Tag0,unknown
1605702249365,200,-45,-9.8876953125E-6,0,0,0,1968104,484994,16765176,90744,79167,16773745,13349,9730,Tag0,unknown
1605702249376,200,315,6.92138671875E-5,0,0,0,1968104,484994,16765176,90744,79167,16773745,13349,9730,Tag0,unknown
1605702249386,200,-74,-1.6259765625E-5,0,0,0,1968104,484994,16765176,90744,79167,16773745,13349,9730,Tag0,unknown
1605702249408,200,-179,-3.93310546875E-5,0,0,0,1968104,484994,16765176,90744,79167,16773745,13349,9730,Tag0,unknown
1605702249422,200,-141,-3.09814453125E-5,0,0,0,1968104,484994,16765176,90744,79167,16773745,13349,9730,Tag0,unknown
1605702249450,200,-281,-6.17431640625E-5,0,0,0,1968104,484994,16765176,90744,79167,16773745,13349,9730,Tag0,unknown
1605702249460,200,-295,-6.48193359375E-5,0,0,0,1968104,484994,16765176,90744,79167,16773745,13349,9730,Tag0,unknown
1605702249484,200,76,1.669921875E-5,0,0,0,1968104,484994,16765176,90744,79167,16773745,13349,9730,Tag0,unknown
1605702249495,200,68,1.4941406250000001E-5,0,0,0,1968104,484994,16765176,90744,79167,16773745,13349,9730,Tag0,unknown
1605702249529,200,315,6.92138671875E-5,0,0,0,1968104,484994,16765176,90744,79167,16773745,13349,9730,Tag0,unknown
1605702249539,200,331,7.272949218750001E-5,0,0,0,1968104,484994,16765176,90744,79167,16773745,13349,9730,Tag0,unknown
1605702249558,200,182,3.9990234375E-5,0,0,0,1968104,484994,16765176,90744,79167,16773745,13349,9730,Tag0,unknown
1605702249575,200,219,4.81201171875E-5,0,0,0,1968104,484994,16765176,90744,79167,16773745,13349,9730,Tag0,unknown
1605702249585,200,258,5.6689453125000004E-5,0,0,0,1968104,484994,16765176,90744,79167,16773745,13349,9730,Tag0,unknown
1605702249600,200,-81,-1.77978515625E-5,0,0,0,1968104,484994,16765176,90744,79167,16773745,13349,9730,Tag0,unknown
1605702249610,200,310,6.8115234375E-5,0,0,0,1968104,484994,16765176,90744,79167,16773745,13349,9730,Tag0,unknown
1605702249631,200,5,1.0986328125E-6,0,0,0,1968104,484994,16765176,90744,79167,16773745,13349,9730,Tag0,unknown
1605702249656,200,-573,-1.259033203125E-4,0,0,0,1968104,484994,16765176,90744,79167,16773745,13349,9730,Tag0,unknown
1605702249677,200,-537,-1.179931640625E-4,0,0,0,1968104,484994,16765176,90744,79167,16773745,13349,9730,Tag0,unknown
1605702249691,200,-165,-3.62548828125E-5,0,0,0,1968104,484994,16765176,90744,79167,16773745,13349,9730,Tag0,unknown
1605702249717,200,-313,-6.87744140625E-5,0,0,0,266378,15195,3745,4342,11984,3133,2309,431,Tag0,unknown
1605702249727,200,-88,-1.93359375E-5,0,0,0,266378,15195,3745,4342,11984,3133,2309,431,Tag0,unknown
1605702249757,200,1648,3.62109375E-4,0,0,0,266378,15195,3745,4342,11984,3133,2309,431,Tag0,unknown
1605702249774,200,1016,2.232421875E-4,0,0,0,266378,15195,3745,4342,11984,3133,2309,431,Tag0,unknown
1605702249796,200,505,1.109619140625E-4,0,0,0,266378,15195,3745,4342,11984,3133,2309,431,Tag0,unknown
1605702249807,200,444,9.755859375E-5,0,0,0,266378,15195,3745,4342,11984,3133,2309,431,Tag0,unknown
1605702249829,200,843,1.852294921875E-4,0,0,0,266378,15195,3745,4342,11984,3133,2309,431,Tag0,unknown
1605702249847,200,1093,2.401611328125E-4,0,0,0,266378,15195,3745,4342,11984,3133,2309,431,Tag0,unknown
1605702249872,200,-536,-1.1777343750000001E-4,0,0,0,266378,15195,3745,4342,11984,3133,2309,431,Tag0,unknown
1605702249902,200,-578,-1.27001953125E-4,0,0,0,266378,15195,3745,4342,11984,3133,2309,431,Tag0,unknown
1605702249921,200,-137,-3.0102539062499998E-5,0,0,0,266378,15195,3745,4342,11984,3133,2309,431,Tag0,unknown
1605702249952,200,288,6.328125E-5,0,0,0,266378,15195,3745,4342,11984,3133,2309,431,Tag0,unknown
1605702249962,200,245,5.38330078125E-5,0,0,0,266378,15195,3745,4342,11984,3133,2309,431,Tag0,unknown
1605702249991,200,-269,-5.9106445312499996E-5,0,0,0,266378,15195,3745,4342,11984,3133,2309,431,Tag0,unknown
1605702250007,200,-215,-4.72412109375E-5,0,0,0,266378,15195,3745,4342,11984,3133,2309,431,Tag0,unknown
1605702250032,200,-369,-8.10791015625E-5,0,0,0,266378,15195,3745,4342,11984,3133,2309,431,Tag0,unknown
1605702250042,200,18,3.955078125E-6,0,0,0,266378,15195,3745,4342,11984,3133,2309,431,Tag0,unknown
1605702250059,200,167,3.6694335937500004E-5,0,0,0,266378,15195,3745,4342,11984,3133,2309,431,Tag0,unknown
1605702250075,200,535,1.175537109375E-4,0,0,0,266378,15195,3745,4342,11984,3133,2309,431,Tag0,unknown
1605702250092,200,156,3.427734375E-5,0,0,0,266378,15195,3745,4342,11984,3133,2309,431,Tag0,unknown
1605702250102,200,39,8.5693359375E-6,0,0,0,266378,15195,3745,4342,11984,3133,2309,431,Tag0,unknown
1605702250126,200,-325,-7.14111328125E-5,0,0,0,266378,15195,3745,4342,11984,3133,2309,431,Tag0,unknown
1605702250136,200,461,1.0129394531250001E-4,0,0,0,266378,15195,3745,4342,11984,3133,2309,431,Tag0,unknown
1605702250160,200,-74,-1.6259765625E-5,0,0,0,266378,15195,3745,4342,11984,3133,2309,431,Tag0,unknown
1605702250176,200,461,1.0129394531250001E-4,0,0,0,266378,15195,3745,4342,11984,3133,2309,431,Tag0,unknown
1605702250186,200,382,8.3935546875E-5,0,0,0,266378,15195,3745,4342,11984,3133,2309,431,Tag0,unknown
1605702250199,200,595,1.307373046875E-4,0,0,0,266378,15195,3745,4342,11984,3133,2309,431,Tag0,unknown
1605702250209,200,784,1.72265625E-4,0,0,0,266378,15195,3745,4342,11984,3133,2309,431,Tag0,unknown
1605702250232,200,615,1.351318359375E-4,0,0,0,266378,15195,3745,4342,11984,3133,2309,431,Tag0,unknown
1605702250243,200,589,1.294189453125E-4,0,0,0,266378,15195,3745,4342,11984,3133,2309,431,Tag0,unknown
1605702250253,200,600,1.318359375E-4,0,0,0,266378,15195,3745,4342,11984,3133,2309,431,Tag0,unknown
1605702250269,200,492,1.0810546875E-4,0,0,0,266378,15195,3745,4342,11984,3133,2309,431,Tag0,unknown
1605702250280,200,400,8.7890625E-5,0,0,0,266378,15195,3745,4342,11984,3133,2309,431,Tag0,unknown
1605702250303,200,169,3.7133789062499996E-5,0,0,0,266378,15195,3745,4342,11984,3133,2309,431,Tag0,unknown
1605702250317,200,373,8.19580078125E-5,0,0,0,266378,15195,3745,4342,11984,3133,2309,431,Tag0,unknown
1605702250327,200,582,1.27880859375E-4,0,0,0,266378,15195,3745,4342,11984,3133,2309,431,Tag0,unknown
1605702250343,200,416,9.140625E-5,0,0,0,266378,15195,3745,4342,11984,3133,2309,431,Tag0,unknown
1605702250373,200,184,4.04296875E-5,0,0,0,266378,15195,3745,4342,11984,3133,2309,431,Tag0,unknown
1605702250391,200,261,5.73486328125E-5,0,0,0,266378,15195,3745,4342,11984,3133,2309,431,Tag0,unknown
1605702250401,200,315,6.92138671875E-5,0,0,0,266378,15195,3745,4342,11984,3133,2309,431,Tag0,unknown
1605702250413,200,-39,-8.5693359375E-6,0,0,0,266378,15195,3745,4342,11984,3133,2309,431,Tag0,unknown
1605702250434,200,74,1.6259765625E-5,0,0,0,266378,15195,3745,4342,11984,3133,2309,431,Tag0,unknown
1605702250446,200,361,7.93212890625E-5,0,0,0,266378,15195,3745,4342,11984,3133,2309,431,Tag0,unknown
1605702250465,200,-76,-1.669921875E-5,0,0,0,266378,15195,3745,4342,11984,3133,2309,431,Tag0,unknown
1605702250498,200,-156,-3.427734375E-5,0,0,0,266378,15195,3745,4342,11984,3133,2309,431,Tag0,unknown
1605702250508,200,-536,-1.1777343750000001E-4,0,0,0,266378,15195,3745,4342,11984,3133,2309,431,Tag0,unknown
1605702250536,200,-134,-2.9443359375000003E-5,0,0,0,266378,15195,3745,4342,11984,3133,2309,431,Tag0,unknown
1605702250546,200,29,6.3720703125E-6,0,0,0,266378,15195,3745,4342,11984,3133,2309,431,Tag0,unknown
1605702250571,200,29,6.3720703125E-6,0,0,0,266378,15195,3745,4342,11984,3133,2309,431,Tag0,unknown
1605702250581,200,13,2.8564453125E-6,0,0,0,266378,15195,3745,4342,11984,3133,2309,431,Tag0,unknown
1605702250609,200,-122,-2.6806640625E-5,0,0,0,266378,15195,3745,4342,11984,3133,2309,431,Tag0,unknown
1605702250627,200,-259,-5.69091796875E-5,0,0,0,266378,15195,3745,4342,11984,3133,2309,431,Tag0,unknown
1605702250649,200,267,5.86669921875E-5,0,0,0,266378,15195,3745,4342,11984,3133,2309,431,Tag0,unknown
1605702250663,200,-87,-1.91162109375E-5,0,0,0,266378,15195,3745,4342,11984,3133,2309,431,Tag0,unknown
1605702250682,200,-55,-1.20849609375E-5,0,0,0,266378,15195,3745,4342,11984,3133,2309,431,Tag0,unknown
1605702250694,200,-86,-1.8896484375000003E-5,0,0,0,266378,15195,3745,4342,11984,3133,2309,431,Tag0,unknown
1605702250721,200,-103,-2.26318359375E-5,0,0,0,134816,81973,75086,16757055,20248,16750338,9261,6500,Tag0,unknown
1605702250755,200,25,5.4931640625E-6,0,0,0,134816,81973,75086,16757055,20248,16750338,9261,6500,Tag0,unknown
1605702250765,200,145,3.18603515625E-5,0,0,0,134816,81973,75086,16757055,20248,16750338,9261,6500,Tag0,unknown
1605702250780,200,-41,-9.008789062499999E-6,0,0,0,134816,81973,75086,16757055,20248,16750338,9261,6500,Tag0,unknown
1605702250800,200,54,1.1865234375000001E-5,0,0,0,134816,81973,75086,16757055,20248,16750338,9261,6500,Tag0,unknown
1605702250832,200,98,2.1533203125E-5,0,0,0,134816,81973,75086,16757055,20248,16750338,9261,6500,Tag0,unknown
1605702250844,200,-107,-2.35107421875E-5,0,0,0,134816,81973,75086,16757055,20248,16750338,9261,6500,Tag0,unknown
1605702250870,200,354,7.778320312500001E-5,0,0,0,134816,81973,75086,16757055,20248,16750338,9261,6500,Tag0,unknown
1605702250880,200,-376,-8.261718750000001E-5,0,0,0,134816,81973,75086,16757055,20248,16750338,9261,6500,Tag0,unknown
1605702250895,200,-315,-6.92138671875E-5,0,0,0,134816,81973,75086,16757055,20248,16750338,9261,6500,Tag0,unknown
1605702250911,200,-83,-1.82373046875E-5,0,0,0,134816,81973,75086,16757055,20248,16750338,9261,6500,Tag0,unknown
1605702250938,200,68,1.4941406250000001E-5,0,0,0,134816,81973,75086,16757055,20248,16750338,9261,6500,Tag0,unknown
1605702250948,200,-377,-8.28369140625E-5,0,0,0,134816,81973,75086,16757055,20248,16750338,9261,6500,Tag0,unknown
1605702250972,200,82,1.8017578124999998E-5,0,0,0,134816,81973,75086,16757055,20248,16750338,9261,6500,Tag0,unknown
1605702250983,200,-123,-2.70263671875E-5,0,0,0,134816,81973,75086,16757055,20248,16750338,9261,6500,Tag0,unknown
1605702251013,200,2,4.39453125E-7,0,0,0,134816,81973,75086,16757055,20248,16750338,9261,6500,Tag0,unknown
1605702251028,200,-45,-9.8876953125E-6,0,0,0,134816,81973,75086,16757055,20248,16750338,9261,6500,Tag0,unknown
1605702251047,200,101,2.2192382812500002E-5,0,0,0,134816,81973,75086,16757055,20248,16750338,9261,6500,Tag0,unknown
1605702251063,200,33,7.2509765625E-6,0,0,0,134816,81973,75086,16757055,20248,16750338,9261,6500,Tag0,unknown
1605702251073,200,-285,-6.26220703125E-5,0,0,0,134816,81973,75086,16757055,20248,16750338,9261,6500,Tag0,unknown
1605702251086,200,-124,-2.724609375E-5,0,0,0,134816,81973,75086,16757055,20248,16750338,9261,6500,Tag0,unknown
1605702251096,200,-129,-2.8344726562500002E-5,0,0,0,134816,81973,75086,16757055,20248,16750338,9261,6500,Tag0,unknown
1605702251122,200,-137,-3.0102539062499998E-5,0,0,0,134816,81973,75086,16757055,20248,16750338,9261,6500,Tag0,unknown
1605702251132,200,306,6.723632812500001E-5,0,0,0,134816,81973,75086,16757055,20248,16750338,9261,6500,Tag0,unknown
1605702251159,200,82,1.8017578124999998E-5,0,0,0,134816,81973,75086,16757055,20248,16750338,9261,6500,Tag0,unknown
1605702251169,200,-360,-7.91015625E-5,0,0,0,134816,81973,75086,16757055,20248,16750338,9261,6500,Tag0,unknown
1605702251192,200,102,2.2412109374999998E-5,0,0,0,134816,81973,75086,16757055,20248,16750338,9261,6500,Tag0,unknown
1605702251202,200,262,5.7568359375E-5,0,0,0,134816,81973,75086,16757055,20248,16750338,9261,6500,Tag0,unknown
1605702251232,200,602,1.3227539062500001E-4,0,0,0,134816,81973,75086,16757055,20248,16750338,9261,6500,Tag0,unknown
1605702251246,200,1137,2.498291015625E-4,0,0,0,134816,81973,75086,16757055,20248,16750338,9261,6500,Tag0,unknown
1605702251268,200,777,1.707275390625E-4,0,0,0,134816,81973,75086,16757055,20248,16750338,9261,6500,Tag0,unknown
1605702251280,200,247,5.42724609375E-5,0,0,0,134816,81973,75086,16757055,20248,16750338,9261,6500,Tag0,unknown
1605702251307,200,345,7.58056640625E-5,0,0,0,134816,81973,75086,16757055,20248,16750338,9261,6500,Tag0,unknown
1605702251317,200,264,5.80078125E-5,0,0,0,134816,81973,75086,16757055,20248,16750338,9261,6500,Tag0,unknown
1605702251341,200,-263,-5.7788085937500005E-5,0,0,0,134816,81973,75086,16757055,20248,16750338,9261,6500,Tag0,unknown
1605702251351,200,-985,-2.164306640625E-4,0,0,0,134816,81973,75086,16757055,20248,16750338,9261,6500,Tag0,unknown
1605702251363,200,1385,3.043212890625E-4,0,0,0,134816,81973,75086,16757055,20248,16750338,9261,6500,Tag0,unknown
1605702251384,200,664,1.458984375E-4,0,0,0,134816,81973,75086,16757055,20248,16750338,9261,6500,Tag0,unknown
1605702251404,200,861,1.8918457031249998E-4,0,0,0,134816,81973,75086,16757055,20248,16750338,9261,6500,Tag0,unknown
1605702251430,200,-164,-3.6035156249999995E-5,0,0,0,134816,81973,75086,16757055,20248,16750338,9261,6500,Tag0,unknown
1605702251454,200,855,1.878662109375E-4,0,0,0,134816,81973,75086,16757055,20248,16750338,9261,6500,Tag0,unknown
1605702251470,200,457,1.004150390625E-4,0,0,0,134816,81973,75086,16757055,20248,16750338,9261,6500,Tag0,unknown
1605702251497,200,552,1.212890625E-4,0,0,0,134816,81973,75086,16757055,20248,16750338,9261,6500,Tag0,unknown
1605702251507,200,300,6.591796875E-5,0,0,0,134816,81973,75086,16757055,20248,16750338,9261,6500,Tag0,unknown
1605702251523,200,-3,-6.591796875E-7,0,0,0,134816,81973,75086,16757055,20248,16750338,9261,6500,Tag0,unknown
1605702251537,200,-15,-3.2958984375E-6,0,0,0,134816,81973,75086,16757055,20248,16750338,9261,6500,Tag0,unknown
1605702251562,200,-71,-1.56005859375E-5,0,0,0,134816,81973,75086,16757055,20248,16750338,9261,6500,Tag0,unknown
1605702251583,200,-78,-1.7138671875E-5,0,0,0,134816,81973,75086,16757055,20248,16750338,9261,6500,Tag0,unknown
1605702251602,200,113,2.48291015625E-5,0,0,0,134816,81973,75086,16757055,20248,16750338,9261,6500,Tag0,unknown
1605702251615,200,107,2.35107421875E-5,0,0,0,134816,81973,75086,16757055,20248,16750338,9261,6500,Tag0,unknown
1605702251638,200,83,1.82373046875E-5,0,0,0,134816,81973,75086,16757055,20248,16750338,9261,6500,Tag0,unknown
1605702251649,200,82,1.8017578124999998E-5,0,0,0,134816,81973,75086,16757055,20248,16750338,9261,6500,Tag0,unknown
1605702251672,200,75,1.64794921875E-5,0,0,0,134816,81973,75086,16757055,20248,16750338,9261,6500,Tag0,unknown
1605702251697,200,73,1.6040039062500002E-5,0,0,0,134816,81973,75086,16757055,20248,16750338,9261,6500,Tag0,unknown
1605702251719,200,72,1.58203125E-5,0,0,0,690973,441265,16757664,10288,16746309,27498,13910,12472,Tag0,unknown
1605702251748,200,69,1.51611328125E-5,0,0,0,690973,441265,16757664,10288,16746309,27498,13910,12472,Tag0,unknown
1605702251765,200,59,1.29638671875E-5,0,0,0,690973,441265,16757664,10288,16746309,27498,13910,12472,Tag0,unknown
1605702251775,200,-341,-7.492675781250002E-5,0,0,0,690973,441265,16757664,10288,16746309,27498,13910,12472,Tag0,unknown
1605702251785,200,-505,-1.109619140625E-4,0,0,0,690973,441265,16757664,10288,16746309,27498,13910,12472,Tag0,unknown
1605702251808,200,-1337,-2.937744140625E-4,0,0,0,690973,441265,16757664,10288,16746309,27498,13910,12472,Tag0,unknown
1605702251818,200,-1379,-3.030029296875E-4,0,0,0,690973,441265,16757664,10288,16746309,27498,13910,12472,Tag0,unknown
1605702251828,200,-1122,-2.46533203125E-4,0,0,0,690973,441265,16757664,10288,16746309,27498,13910,12472,Tag0,unknown
1605702251859,200,-475,-1.043701171875E-4,0,0,0,690973,441265,16757664,10288,16746309,27498,13910,12472,Tag0,unknown
1605702251869,200,-1117,-2.454345703125E-4,0,0,0,690973,441265,16757664,10288,16746309,27498,13910,12472,Tag0,unknown
1605702251888,200,-1585,-3.482666015625E-4,0,0,0,690973,441265,16757664,10288,16746309,27498,13910,12472,Tag0,unknown
1605702251903,200,-1595,-3.504638671875E-4,0,0,0,690973,441265,16757664,10288,16746309,27498,13910,12472,Tag0,unknown
1605702251927,200,-1949,-4.2824707031250005E-4,0,0,0,690973,441265,16757664,10288,16746309,27498,13910,12472,Tag0,unknown
1605702251937,200,-1530,-3.36181640625E-4,0,0,0,690973,441265,16757664,10288,16746309,27498,13910,12472,Tag0,unknown
1605702251960,200,-1436,-3.1552734375E-4,0,0,0,690973,441265,16757664,10288,16746309,27498,13910,12472,Tag0,unknown
1605702251970,200,-1303,-2.863037109375E-4,0,0,0,690973,441265,16757664,10288,16746309,27498,13910,12472,Tag0,unknown
1605702251999,200,18,3.955078125E-6,0,0,0,690973,441265,16757664,10288,16746309,27498,13910,12472,Tag0,unknown
1605702252016,200,283,6.218261718750001E-5,0,0,0,690973,441265,16757664,10288,16746309,27498,13910,12472,Tag0,unknown
1605702252042,200,170,3.7353515625E-5,0,0,0,690973,441265,16757664,10288,16746309,27498,13910,12472,Tag0,unknown
