timestampMs,poorSignal,eegRawValue,eegRawValueVolts,attention,meditation,blinkStrength,delta,theta,alphaLow,alphaHigh,betaLow,betaHigh,gammaLow,gammaMid,tagEvent,location
1610372508724,51,1791,3.935302734375E-4,0,0,0,1246834,125714,16751351,21800,16753552,16753041,20023,16758080,Tag0,unknown
1610372508735,51,1791,3.935302734375E-4,0,0,0,1246834,125714,16751351,21800,16753552,16753041,20023,16758080,Tag0,unknown
1610372508763,51,-2048,-4.5E-4,0,0,0,1246834,125714,16751351,21800,16753552,16753041,20023,16758080,Tag0,unknown
1610372508773,51,1791,3.935302734375E-4,0,0,0,1246834,125714,16751351,21800,16753552,16753041,20023,16758080,Tag0,unknown
1610372508787,51,1791,3.935302734375E-4,0,0,0,580802,266773,16776448,98097,201718,134869,302668,44978,Tag0,unknown
1610372508810,51,-2048,-4.5E-4,0,0,0,580802,266773,16776448,98097,201718,134869,302668,44978,Tag0,unknown
1610372508838,51,-2048,-4.5E-4,0,0,0,580802,266773,16776448,98097,201718,134869,302668,44978,Tag0,unknown
1610372508851,51,-2048,-4.5E-4,0,0,0,580802,266773,16776448,98097,201718,134869,302668,44978,Tag0,unknown
1610372508887,51,1791,3.935302734375E-4,0,0,0,580802,266773,16776448,98097,201718,134869,302668,44978,Tag0,unknown
1610372508902,51,1791,3.935302734375E-4,0,0,0,580802,266773,16776448,98097,201718,134869,302668,44978,Tag0,unknown
1610372508912,51,-2048,-4.5E-4,0,0,0,580802,266773,16776448,98097,201718,134869,302668,44978,Tag0,unknown
1610372508925,51,1221,2.682861328125E-4,0,0,0,580802,266773,16776448,98097,201718,134869,302668,44978,Tag0,unknown
1610372508936,51,-2048,-4.5E-4,0,0,0,580802,266773,16776448,98097,201718,134869,302668,44978,Tag0,unknown
1610372508964,51,1791,3.935302734375E-4,0,0,0,580802,266773,16776448,98097,201718,134869,302668,44978,Tag0,unknown
1610372508974,51,-2048,-4.5E-4,0,0,0,580802,266773,16776448,98097,201718,134869,302668,44978,Tag0,unknown
1610372508986,51,1791,3.935302734375E-4,0,0,0,580802,266773,16776448,98097,201718,134869,302668,44978,Tag0,unknown
1610372509003,51,-2048,-4.5E-4,0,0,0,580802,266773,16776448,98097,201718,134869,302668,44978,Tag0,unknown
1610372509020,51,1791,3.935302734375E-4,0,0,0,580802,266773,16776448,98097,201718,134869,302668,44978,Tag0,unknown
1610372509037,51,-1415,-3.109130859375E-4,0,0,0,580802,266773,16776448,98097,201718,134869,302668,44978,Tag0,unknown
1610372509054,51,-2101,-4.616455078125E-4,0,0,0,580802,266773,16776448,98097,201718,134869,302668,44978,Tag0,unknown
1610372509064,51,-907,-1.992919921875E-4,0,0,0,580802,266773,16776448,98097,201718,134869,302668,44978,Tag0,unknown
1610372509097,51,-490,-1.07666015625E-4,0,0,0,580802,266773,16776448,98097,201718,134869,302668,44978,Tag0,unknown
1610372509131,51,1791,3.935302734375E-4,0,0,0,580802,266773,16776448,98097,201718,134869,302668,44978,Tag0,unknown
1610372509141,51,1791,3.935302734375E-4,0,0,0,580802,266773,16776448,98097,201718,134869,302668,44978,Tag0,unknown
1610372509153,51,1791,3.935302734375E-4,0,0,0,580802,266773,16776448,98097,201718,134869,302668,44978,Tag0,unknown
1610372509172,51,-2048,-4.5E-4,0,0,0,580802,266773,16776448,98097,201718,134869,302668,44978,Tag0,unknown
1610372509187,51,1791,3.935302734375E-4,0,0,0,580802,266773,16776448,98097,201718,134869,302668,44978,Tag0,unknown
1610372509208,51,1791,3.935302734375E-4,0,0,0,580802,266773,16776448,98097,201718,134869,302668,44978,Tag0,unknown
1610372509225,51,-2048,-4.5E-4,0,0,0,580802,266773,16776448,98097,201718,134869,302668,44978,Tag0,unknown
1610372509235,51,1791,3.935302734375E-4,0,0,0,580802,266773,16776448,98097,201718,134869,302668,44978,Tag0,unknown
1610372509254,51,1791,3.935302734375E-4,0,0,0,580802,266773,16776448,98097,201718,134869,302668,44978,Tag0,unknown
1610372509276,51,-1898,-4.17041015625E-4,0,0,0,580802,266773,16776448,98097,201718,134869,302668,44978,Tag0,unknown
1610372509290,51,-1834,-4.02978515625E-4,0,0,0,580802,266773,16776448,98097,201718,134869,302668,44978,Tag0,unknown
1610372509300,51,-909,-1.997314453125E-4,0,0,0,580802,266773,16776448,98097,201718,134869,302668,44978,Tag0,unknown
1610372509311,51,-886,-1.94677734375E-4,0,0,0,580802,266773,16776448,98097,201718,134869,302668,44978,Tag0,unknown
1610372509323,51,-861,-1.8918457031249998E-4,0,0,0,580802,266773,16776448,98097,201718,134869,302668,44978,Tag0,unknown
1610372509347,51,-618,-1.35791015625E-4,0,0,0,580802,266773,16776448,98097,201718,134869,302668,44978,Tag0,unknown
1610372509370,51,1791,3.935302734375E-4,0,0,0,580802,266773,16776448,98097,201718,134869,302668,44978,Tag0,unknown
1610372509387,51,1791,3.935302734375E-4,0,0,0,580802,266773,16776448,98097,201718,134869,302668,44978,Tag0,unknown
1610372509403,51,-2048,-4.5E-4,0,0,0,580802,266773,16776448,98097,201718,134869,302668,44978,Tag0,unknown
1610372509422,51,-1789,-3.930908203125E-4,0,0,0,580802,266773,16776448,98097,201718,134869,302668,44978,Tag0,unknown
1610372509437,51,1791,3.935302734375E-4,0,0,0,580802,266773,16776448,98097,201718,134869,302668,44978,Tag0,unknown
1610372509461,51,-1894,-4.1616210937500003E-4,0,0,0,580802,266773,16776448,98097,201718,134869,302668,44978,Tag0,unknown
1610372509471,51,1791,3.935302734375E-4,0,0,0,580802,266773,16776448,98097,201718,134869,302668,44978,Tag0,unknown
1610372509495,51,1791,3.935302734375E-4,0,0,0,580802,266773,16776448,98097,201718,134869,302668,44978,Tag0,unknown
1610372509505,51,1791,3.935302734375E-4,0,0,0,580802,266773,16776448,98097,201718,134869,302668,44978,Tag0,unknown
1610372509515,51,1661,3.6496582031250003E-4,0,0,0,580802,266773,16776448,98097,201718,134869,302668,44978,Tag0,unknown
1610372509533,51,995,2.186279296875E-4,0,0,0,580802,266773,16776448,98097,201718,134869,302668,44978,Tag0,unknown
1610372509543,51,-1596,-3.5068359375000003E-4,0,0,0,580802,266773,16776448,98097,201718,134869,302668,44978,Tag0,unknown
1610372509555,51,-2048,-4.5E-4,0,0,0,580802,266773,16776448,98097,201718,134869,302668,44978,Tag0,unknown
1610372509572,51,-2048,-4.5E-4,0,0,0,580802,266773,16776448,98097,201718,134869,302668,44978,Tag0,unknown
1610372509589,51,-2048,-4.5E-4,0,0,0,580802,266773,16776448,98097,201718,134869,302668,44978,Tag0,unknown
1610372509599,51,-2048,-4.5E-4,0,0,0,580802,266773,16776448,98097,201718,134869,302668,44978,Tag0,unknown
1610372509620,51,-2048,-4.5E-4,0,0,0,580802,266773,16776448,98097,201718,134869,302668,44978,Tag0,unknown
1610372509639,51,-2048,-4.5E-4,0,0,0,580802,266773,16776448,98097,201718,134869,302668,44978,Tag0,unknown
1610372509654,51,-2048,-4.5E-4,0,0,0,580802,266773,16776448,98097,201718,134869,302668,44978,Tag0,unknown
1610372509664,51,-1403,-3.0827636718750004E-4,0,0,0,580802,266773,16776448,98097,201718,134869,302668,44978,Tag0,unknown
1610372509681,51,-1307,-2.871826171875E-4,0,0,0,580802,266773,16776448,98097,201718,134869,302668,44978,Tag0,unknown
1610372509691,51,1791,3.935302734375E-4,0,0,0,580802,266773,16776448,98097,201718,134869,302668,44978,Tag0,unknown
1610372509705,51,1791,3.935302734375E-4,0,0,0,580802,266773,16776448,98097,201718,134869,302668,44978,Tag0,unknown
1610372509723,51,1457,3.201416015625E-4,0,0,0,580802,266773,16776448,98097,201718,134869,302668,44978,Tag0,unknown
1610372509740,51,905,1.988525390625E-4,0,0,0,580802,266773,16776448,98097,201718,134869,302668,44978,Tag0,unknown
1610372509756,51,1083,2.379638671875E-4,0,0,0,580802,266773,16776448,98097,201718,134869,302668,44978,Tag0,unknown
1610372509773,51,509,1.118408203125E-4,0,0,0,580802,266773,16776448,98097,201718,134869,302668,44978,Tag0,unknown
1610372509790,51,458,1.00634765625E-4,0,0,0,580802,266773,16776448,98097,201718,134869,302668,44978,Tag0,unknown
1610372509813,51,-2048,-4.5E-4,0,0,0,886095,126984,134903,146673,139749,291895,56964,34741,Tag0,unknown
1610372509823,51,1791,3.935302734375E-4,0,0,0,886095,126984,134903,146673,139749,291895,56964,34741,Tag0,unknown
1610372509833,51,-2048,-4.5E-4,0,0,0,886095,126984,134903,146673,139749,291895,56964,34741,Tag0,unknown
1610372509856,51,-1173,-2.577392578125E-4,0,0,0,886095,126984,134903,146673,139749,291895,56964,34741,Tag0,unknown
1610372509871,51,-1383,-3.0388183593750003E-4,0,0,0,886095,126984,134903,146673,139749,291895,56964,34741,Tag0,unknown
1610372509890,51,-725,-1.593017578125E-4,0,0,0,886095,126984,134903,146673,139749,291895,56964,34741,Tag0,unknown
1610372509908,51,-695,-1.527099609375E-4,0,0,0,886095,126984,134903,146673,139749,291895,56964,34741,Tag0,unknown
1610372509918,51,-477,-1.048095703125E-4,0,0,0,886095,126984,134903,146673,139749,291895,56964,34741,Tag0,unknown
1610372509928,51,-387,-8.50341796875E-5,0,0,0,886095,126984,134903,146673,139749,291895,56964,34741,Tag0,unknown
1610372509942,51,-609,-1.338134765625E-4,0,0,0,886095,126984,134903,146673,139749,291895,56964,34741,Tag0,unknown
1610372509952,51,-201,-4.41650390625E-5,0,0,0,886095,126984,134903,146673,139749,291895,56964,34741,Tag0,unknown
1610372509962,51,-378,-8.3056640625E-5,0,0,0,886095,126984,134903,146673,139749,291895,56964,34741,Tag0,unknown
1610372509972,51,-355,-7.80029296875E-5,0,0,0,886095,126984,134903,146673,139749,291895,56964,34741,Tag0,unknown
1610372509995,51,1791,3.935302734375E-4,0,0,0,886095,126984,134903,146673,139749,291895,56964,34741,Tag0,unknown
1610372510005,51,1791,3.935302734375E-4,0,0,0,886095,126984,134903,146673,139749,291895,56964,34741,Tag0,unknown
1610372510033,51,-2048,-4.5E-4,0,0,0,886095,126984,134903,146673,139749,291895,56964,34741,Tag0,unknown
1610372510043,51,-2048,-4.5E-4,0,0,0,886095,126984,134903,146673,139749,291895,56964,34741,Tag0,unknown
1610372510067,51,-1690,-3.71337890625E-4,0,0,0,886095,126984,134903,146673,139749,291895,56964,34741,Tag0,unknown
1610372510077,51,-1449,-3.183837890625E-4,0,0,0,886095,126984,134903,146673,139749,291895,56964,34741,Tag0,unknown
1610372510090,51,-1193,-2.621337890625E-4,0,0,0,886095,126984,134903,146673,139749,291895,56964,34741,Tag0,unknown
1610372510100,51,-708,-1.5556640625000002E-4,0,0,0,886095,126984,134903,146673,139749,291895,56964,34741,Tag0,unknown
1610372510123,51,-857,-1.8830566406250002E-4,0,0,0,886095,126984,134903,146673,139749,291895,56964,34741,Tag0,unknown
1610372510141,51,-630,-1.38427734375E-4,0,0,0,886095,126984,134903,146673,139749,291895,56964,34741,Tag0,unknown
1610372510159,51,-617,-1.355712890625E-4,0,0,0,886095,126984,134903,146673,139749,291895,56964,34741,Tag0,unknown
1610372510169,51,-192,-4.21875E-5,0,0,0,886095,126984,134903,146673,139749,291895,56964,34741,Tag0,unknown
1610372510180,51,-362,-7.954101562500001E-5,0,0,0,886095,126984,134903,146673,139749,291895,56964,34741,Tag0,unknown
1610372510190,51,-341,-7.492675781250002E-5,0,0,0,886095,126984,134903,146673,139749,291895,56964,34741,Tag0,unknown
1610372510218,51,439,9.64599609375E-5,0,0,0,886095,126984,134903,146673,139749,291895,56964,34741,Tag0,unknown
1610372510239,51,1791,3.935302734375E-4,0,0,0,886095,126984,134903,146673,139749,291895,56964,34741,Tag0,unknown
1610372510249,51,1791,3.935302734375E-4,0,0,0,886095,126984,134903,146673,139749,291895,56964,34741,Tag0,unknown
1610372510260,51,1410,3.09814453125E-4,0,0,0,886095,126984,134903,146673,139749,291895,56964,34741,Tag0,unknown
1610372510274,51,913,2.0061035156250002E-4,0,0,0,886095,126984,134903,146673,139749,291895,56964,34741,Tag0,unknown
1610372510292,51,1089,2.392822265625E-4,0,0,0,886095,126984,134903,146673,139749,291895,56964,34741,Tag0,unknown
1610372510307,51,853,1.874267578125E-4,0,0,0,886095,126984,134903,146673,139749,291895,56964,34741,Tag0,unknown
1610372510317,51,568,1.248046875E-4,0,0,0,886095,126984,134903,146673,139749,291895,56964,34741,Tag0,unknown
1610372510342,51,212,4.6582031250000006E-5,0,0,0,886095,126984,134903,146673,139749,291895,56964,34741,Tag0,unknown
1610372510355,51,198,4.3505859375000006E-5,0,0,0,886095,126984,134903,146673,139749,291895,56964,34741,Tag0,unknown
1610372510381,51,-31,-6.8115234375E-6,0,0,0,886095,126984,134903,146673,139749,291895,56964,34741,Tag0,unknown
1610372510391,51,-44,-9.66796875E-6,0,0,0,886095,126984,134903,146673,139749,291895,56964,34741,Tag0,unknown
1610372510401,51,-78,-1.7138671875E-5,0,0,0,886095,126984,134903,146673,139749,291895,56964,34741,Tag0,unknown
1610372510416,51,-93,-2.04345703125E-5,0,0,0,886095,126984,134903,146673,139749,291895,56964,34741,Tag0,unknown
1610372510426,51,-105,-2.30712890625E-5,0,0,0,886095,126984,134903,146673,139749,291895,56964,34741,Tag0,unknown
1610372510442,51,123,2.70263671875E-5,0,0,0,886095,126984,134903,146673,139749,291895,56964,34741,Tag0,unknown
1610372510457,51,102,2.2412109374999998E-5,0,0,0,886095,126984,134903,146673,139749,291895,56964,34741,Tag0,unknown
1610372510472,51,91,1.99951171875E-5,0,0,0,886095,126984,134903,146673,139749,291895,56964,34741,Tag0,unknown
1610372510489,51,88,1.93359375E-5,0,0,0,886095,126984,134903,146673,139749,291895,56964,34741,Tag0,unknown
1610372510506,51,-2048,-4.5E-4,0,0,0,886095,126984,134903,146673,139749,291895,56964,34741,Tag0,unknown
1610372510522,51,-2048,-4.5E-4,0,0,0,886095,126984,134903,146673,139749,291895,56964,34741,Tag0,unknown
1610372510540,51,-2048,-4.5E-4,0,0,0,886095,126984,134903,146673,139749,291895,56964,34741,Tag0,unknown
1610372510558,51,-1737,-3.816650390625E-4,0,0,0,886095,126984,134903,146673,139749,291895,56964,34741,Tag0,unknown
1610372510575,51,-1803,-3.961669921875E-4,0,0,0,886095,126984,134903,146673,139749,291895,56964,34741,Tag0,unknown
1610372510585,51,-926,-2.03466796875E-4,0,0,0,886095,126984,134903,146673,139749,291895,56964,34741,Tag0,unknown
1610372510595,51,-645,-1.417236328125E-4,0,0,0,886095,126984,134903,146673,139749,291895,56964,34741,Tag0,unknown
1610372510607,51,-873,-1.9182128906250002E-4,0,0,0,886095,126984,134903,146673,139749,291895,56964,34741,Tag0,unknown
1610372510629,51,-387,-8.50341796875E-5,0,0,0,886095,126984,134903,146673,139749,291895,56964,34741,Tag0,unknown
1610372510640,51,-626,-1.37548828125E-4,0,0,0,886095,126984,134903,146673,139749,291895,56964,34741,Tag0,unknown
1610372510650,51,-139,-3.0541992187500004E-5,0,0,0,886095,126984,134903,146673,139749,291895,56964,34741,Tag0,unknown
1610372510666,51,1791,3.935302734375E-4,0,0,0,886095,126984,134903,146673,139749,291895,56964,34741,Tag0,unknown
1610372510676,51,-1495,-3.284912109375E-4,0,0,0,886095,126984,134903,146673,139749,291895,56964,34741,Tag0,unknown
1610372510699,51,-1438,-3.15966796875E-4,0,0,0,886095,126984,134903,146673,139749,291895,56964,34741,Tag0,unknown
1610372510709,51,-931,-2.045654296875E-4,0,0,0,886095,126984,134903,146673,139749,291895,56964,34741,Tag0,unknown
1610372510724,51,-1049,-2.304931640625E-4,0,0,0,886095,126984,134903,146673,139749,291895,56964,34741,Tag0,unknown
1610372510743,51,-1082,-2.3774414062500003E-4,0,0,0,886095,126984,134903,146673,139749,291895,56964,34741,Tag0,unknown
1610372510758,51,-1695,-3.724365234375E-4,0,0,0,886095,126984,134903,146673,139749,291895,56964,34741,Tag0,unknown
1610372510775,51,-1934,-4.2495117187500004E-4,0,0,0,886095,126984,134903,146673,139749,291895,56964,34741,Tag0,unknown
1610372510792,51,1791,3.935302734375E-4,0,0,0,886095,126984,134903,146673,139749,291895,56964,34741,Tag0,unknown
1610372510802,51,1791,3.935302734375E-4,0,0,0,597169,257218,16753497,16744440,28798,16770684,24883,16744936,Tag0,unknown
1610372510819,51,1791,3.935302734375E-4,0,0,0,597169,257218,16753497,16744440,28798,16770684,24883,16744936,Tag0,unknown
1610372510829,51,1604,3.5244140625000005E-4,0,0,0,597169,257218,16753497,16744440,28798,16770684,24883,16744936,Tag0,unknown
1610372510844,51,1672,3.673828125E-4,0,0,0,597169,257218,16753497,16744440,28798,16770684,24883,16744936,Tag0,unknown
1610372510856,51,1858,4.0825195312500003E-4,0,0,0,597169,257218,16753497,16744440,28798,16770684,24883,16744936,Tag0,unknown
1610372510879,51,-2048,-4.5E-4,0,0,0,597169,257218,16753497,16744440,28798,16770684,24883,16744936,Tag0,unknown
1610372510893,51,-2048,-4.5E-4,0,0,0,597169,257218,16753497,16744440,28798,16770684,24883,16744936,Tag0,unknown
1610372510907,51,1791,3.935302734375E-4,0,0,0,597169,257218,16753497,16744440,28798,16770684,24883,16744936,Tag0,unknown
1610372510927,51,1681,3.6936035156250003E-4,0,0,0,597169,257218,16753497,16744440,28798,16770684,24883,16744936,Tag0,unknown
1610372510937,51,967,2.1247558593750002E-4,0,0,0,597169,257218,16753497,16744440,28798,16770684,24883,16744936,Tag0,unknown
1610372510950,51,1791,3.935302734375E-4,0,0,0,597169,257218,16753497,16744440,28798,16770684,24883,16744936,Tag0,unknown
1610372510960,51,1791,3.935302734375E-4,0,0,0,597169,257218,16753497,16744440,28798,16770684,24883,16744936,Tag0,unknown
1610372510976,51,-2048,-4.5E-4,0,0,0,597169,257218,16753497,16744440,28798,16770684,24883,16744936,Tag0,unknown
1610372510993,51,1791,3.935302734375E-4,0,0,0,597169,257218,16753497,16744440,28798,16770684,24883,16744936,Tag0,unknown
1610372511003,51,-1011,-2.2214355468749998E-4,0,0,0,597169,257218,16753497,16744440,28798,16770684,24883,16744936,Tag0,unknown
1610372511013,51,1791,3.935302734375E-4,0,0,0,597169,257218,16753497,16744440,28798,16770684,24883,16744936,Tag0,unknown
1610372511025,51,1473,3.236572265625E-4,0,0,0,597169,257218,16753497,16744440,28798,16770684,24883,16744936,Tag0,unknown
1610372511040,51,979,2.151123046875E-4,0,0,0,597169,257218,16753497,16744440,28798,16770684,24883,16744936,Tag0,unknown
1610372511059,51,-2048,-4.5E-4,0,0,0,597169,257218,16753497,16744440,28798,16770684,24883,16744936,Tag0,unknown
1610372511073,51,-2048,-4.5E-4,0,0,0,597169,257218,16753497,16744440,28798,16770684,24883,16744936,Tag0,unknown
1610372511098,51,1203,2.643310546875E-4,0,0,0,597169,257218,16753497,16744440,28798,16770684,24883,16744936,Tag0,unknown
1610372511108,51,1106,2.43017578125E-4,0,0,0,597169,257218,16753497,16744440,28798,16770684,24883,16744936,Tag0,unknown
1610372511131,51,699,1.535888671875E-4,0,0,0,597169,257218,16753497,16744440,28798,16770684,24883,16744936,Tag0,unknown
1610372511141,51,892,1.9599609375000002E-4,0,0,0,597169,257218,16753497,16744440,28798,16770684,24883,16744936,Tag0,unknown
1610372511169,51,161,3.53759765625E-5,0,0,0,597169,257218,16753497,16744440,28798,16770684,24883,16744936,Tag0,unknown
1610372511203,51,-2048,-4.5E-4,0,0,0,597169,257218,16753497,16744440,28798,16770684,24883,16744936,Tag0,unknown
1610372511226,51,1791,3.935302734375E-4,0,0,0,597169,257218,16753497,16744440,28798,16770684,24883,16744936,Tag0,unknown
1610372511242,51,1428,3.1376953125000003E-4,0,0,0,597169,257218,16753497,16744440,28798,16770684,24883,16744936,Tag0,unknown
1610372511258,51,1624,3.5683593750000006E-4,0,0,0,597169,257218,16753497,16744440,28798,16770684,24883,16744936,Tag0,unknown
1610372511276,51,992,2.1796875E-4,0,0,0,597169,257218,16753497,16744440,28798,16770684,24883,16744936,Tag0,unknown
1610372511292,51,901,1.979736328125E-4,0,0,0,597169,257218,16753497,16744440,28798,16770684,24883,16744936,Tag0,unknown
1610372511314,51,-2048,-4.5E-4,0,0,0,597169,257218,16753497,16744440,28798,16770684,24883,16744936,Tag0,unknown
1610372511325,51,-2048,-4.5E-4,0,0,0,597169,257218,16753497,16744440,28798,16770684,24883,16744936,Tag0,unknown
1610372511388,51,-2048,-4.5E-4,0,0,0,597169,257218,16753497,16744440,28798,16770684,24883,16744936,Tag0,unknown
1610372511408,51,-2048,-4.5E-4,0,0,0,597169,257218,16753497,16744440,28798,16770684,24883,16744936,Tag0,unknown
1610372511458,51,-2085,-4.581298828125E-4,0,0,0,597169,257218,16753497,16744440,28798,16770684,24883,16744936,Tag0,unknown
1610372511474,51,-1739,-3.8210449218750004E-4,0,0,0,597169,257218,16753497,16744440,28798,16770684,24883,16744936,Tag0,unknown
1610372511594,51,-1575,-3.460693359375E-4,0,0,0,597169,257218,16753497,16744440,28798,16770684,24883,16744936,Tag0,unknown
1610372511608,51,-1269,-2.7883300781250003E-4,0,0,0,597169,257218,16753497,16744440,28798,16770684,24883,16744936,Tag0,unknown
1610372511618,51,1791,3.935302734375E-4,0,0,0,597169,257218,16753497,16744440,28798,16770684,24883,16744936,Tag0,unknown
1610372511663,51,1791,3.935302734375E-4,0,0,0,597169,257218,16753497,16744440,28798,16770684,24883,16744936,Tag0,unknown
1610372511675,51,1791,3.935302734375E-4,0,0,0,597169,257218,16753497,16744440,28798,16770684,24883,16744936,Tag0,unknown
1610372511799,51,-2048,-4.5E-4,0,0,0,597169,257218,16753497,16744440,28798,16770684,24883,16744936,Tag0,unknown
1610372511811,51,-2048,-4.5E-4,0,0,0,597169,257218,16753497,16744440,28798,16770684,24883,16744936,Tag0,unknown
1610372511821,51,1791,3.935302734375E-4,0,0,0,597169,257218,16753497,16744440,28798,16770684,24883,16744936,Tag0,unknown
1610372511871,51,1540,3.3837890625E-4,0,0,0,597169,257218,16753497,16744440,28798,16770684,24883,16744936,Tag0,unknown
1610372511892,51,1239,2.7224121093750005E-4,0,0,0,597169,257218,16753497,16744440,28798,16770684,24883,16744936,Tag0,unknown
1610372511911,51,-2048,-4.5E-4,0,0,0,597169,257218,16753497,16744440,28798,16770684,24883,16744936,Tag0,unknown
1610372511926,51,1791,3.935302734375E-4,0,0,0,597169,257218,16753497,16744440,28798,16770684,24883,16744936,Tag0,unknown
1610372511936,51,-2048,-4.5E-4,0,0,0,597169,257218,16753497,16744440,28798,16770684,24883,16744936,Tag0,unknown
1610372511958,51,-2048,-4.5E-4,0,0,0,597169,257218,16753497,16744440,28798,16770684,24883,16744936,Tag0,unknown
1610372511975,51,-2048,-4.5E-4,0,0,0,597169,257218,16753497,16744440,28798,16770684,24883,16744936,Tag0,unknown
1610372511994,51,-2048,-4.5E-4,0,0,0,597169,257218,16753497,16744440,28798,16770684,24883,16744936,Tag0,unknown
1610372512008,51,-2048,-4.5E-4,0,0,0,597169,257218,16753497,16744440,28798,16770684,24883,16744936,Tag0,unknown
1610372512028,51,-2048,-4.5E-4,0,0,0,597169,257218,16753497,16744440,28798,16770684,24883,16744936,Tag0,unknown
1610372512041,51,-2048,-4.5E-4,0,0,0,597169,257218,16753497,16744440,28798,16770684,24883,16744936,Tag0,unknown
1610372512066,51,-2048,-4.5E-4,0,0,0,597169,257218,16753497,16744440,28798,16770684,24883,16744936,Tag0,unknown
1610372512076,51,1791,3.935302734375E-4,0,0,0,597169,257218,16753497,16744440,28798,16770684,24883,16744936,Tag0,unknown
1610372512101,51,-2048,-4.5E-4,0,0,0,597169,257218,16753497,16744440,28798,16770684,24883,16744936,Tag0,unknown
1610372512111,51,727,1.5974121093750003E-4,0,0,0,597169,257218,16753497,16744440,28798,16770684,24883,16744936,Tag0,unknown
1610372512138,51,1791,3.935302734375E-4,0,0,0,597169,257218,16753497,16744440,28798,16770684,24883,16744936,Tag0,unknown
1610372512162,51,-2048,-4.5E-4,0,0,0,597169,257218,16753497,16744440,28798,16770684,24883,16744936,Tag0,unknown
1610372512188,51,-1542,-3.38818359375E-4,0,0,0,597169,257218,16753497,16744440,28798,16770684,24883,16744936,Tag0,unknown
1610372512198,51,1791,3.935302734375E-4,0,0,0,597169,257218,16753497,16744440,28798,16770684,24883,16744936,Tag0,unknown
1610372512210,51,-2048,-4.5E-4,0,0,0,597169,257218,16753497,16744440,28798,16770684,24883,16744936,Tag0,unknown
1610372512227,51,-2048,-4.5E-4,0,0,0,597169,257218,16753497,16744440,28798,16770684,24883,16744936,Tag0,unknown
1610372512243,51,-2025,-4.449462890625E-4,0,0,0,597169,257218,16753497,16744440,28798,16770684,24883,16744936,Tag0,unknown
1610372512263,51,1791,3.935302734375E-4,0,0,0,597169,257218,16753497,16744440,28798,16770684,24883,16744936,Tag0,unknown
1610372512276,51,1791,3.935302734375E-4,0,0,0,597169,257218,16753497,16744440,28798,16770684,24883,16744936,Tag0,unknown
1610372512297,51,380,8.349609375E-5,0,0,0,597169,257218,16753497,16744440,28798,16770684,24883,16744936,Tag0,unknown
1610372512310,51,-2048,-4.5E-4,0,0,0,597169,257218,16753497,16744440,28798,16770684,24883,16744936,Tag0,unknown
1610372512320,51,-1817,-3.992431640625E-4,0,0,0,597169,257218,16753497,16744440,28798,16770684,24883,16744936,Tag0,unknown
1610372512333,51,-1505,-3.306884765625E-4,0,0,0,597169,257218,16753497,16744440,28798,16770684,24883,16744936,Tag0,unknown
1610372512344,51,-1445,-3.175048828125E-4,0,0,0,597169,257218,16753497,16744440,28798,16770684,24883,16744936,Tag0,unknown
1610372512393,51,-937,-2.058837890625E-4,0,0,0,597169,257218,16753497,16744440,28798,16770684,24883,16744936,Tag0,unknown
1610372512412,51,-901,-1.979736328125E-4,0,0,0,597169,257218,16753497,16744440,28798,16770684,24883,16744936,Tag0,unknown
1610372512422,51,-445,-9.77783203125E-5,0,0,0,597169,257218,16753497,16744440,28798,16770684,24883,16744936,Tag0,unknown
1610372512459,51,-177,-3.8891601562500006E-5,0,0,0,597169,257218,16753497,16744440,28798,16770684,24883,16744936,Tag0,unknown
1610372512477,51,-167,-3.6694335937500004E-5,0,0,0,597169,257218,16753497,16744440,28798,16770684,24883,16744936,Tag0,unknown
1610372512487,51,-296,-6.50390625E-5,0,0,0,597169,257218,16753497,16744440,28798,16770684,24883,16744936,Tag0,unknown
1610372512524,51,-284,-6.240234375E-5,0,0,0,597169,257218,16753497,16744440,28798,16770684,24883,16744936,Tag0,unknown
1610372512545,51,-281,-6.17431640625E-5,0,0,0,597169,257218,16753497,16744440,28798,16770684,24883,16744936,Tag0,unknown
1610372512555,51,1,2.197265625E-7,0,0,0,597169,257218,16753497,16744440,28798,16770684,24883,16744936,Tag0,unknown
1610372512565,51,17,3.7353515625000003E-6,0,0,0,597169,257218,16753497,16744440,28798,16770684,24883,16744936,Tag0,unknown
1610372512575,51,27,5.9326171875000005E-6,0,0,0,597169,257218,16753497,16744440,28798,16770684,24883,16744936,Tag0,unknown
1610372512591,51,41,9.008789062499999E-6,0,0,0,597169,257218,16753497,16744440,28798,16770684,24883,16744936,Tag0,unknown
1610372512601,51,50,1.0986328125E-5,0,0,0,597169,257218,16753497,16744440,28798,16770684,24883,16744936,Tag0,unknown
1610372512614,51,57,1.2524414062500001E-5,0,0,0,597169,257218,16753497,16744440,28798,16770684,24883,16744936,Tag0,unknown
1610372512634,51,59,1.29638671875E-5,0,0,0,597169,257218,16753497,16744440,28798,16770684,24883,16744936,Tag0,unknown
1610372512644,51,60,1.318359375E-5,0,0,0,597169,257218,16753497,16744440,28798,16770684,24883,16744936,Tag0,unknown
1610372512660,51,64,1.40625E-5,0,0,0,597169,257218,16753497,16744440,28798,16770684,24883,16744936,Tag0,unknown
1610372512677,51,65,1.42822265625E-5,0,0,0,597169,257218,16753497,16744440,28798,16770684,24883,16744936,Tag0,unknown
1610372512694,51,66,1.4501953125E-5,0,0,0,597169,257218,16753497,16744440,28798,16770684,24883,16744936,Tag0,unknown
1610372512713,51,65,1.42822265625E-5,0,0,0,597169,257218,16753497,16744440,28798,16770684,24883,16744936,Tag0,unknown
1610372512729,51,65,1.42822265625E-5,0,0,0,597169,257218,16753497,16744440,28798,16770684,24883,16744936,Tag0,unknown
1610372512739,51,66,1.4501953125E-5,0,0,0,597169,257218,16753497,16744440,28798,16770684,24883,16744936,Tag0,unknown
1610372512761,51,65,1.42822265625E-5,0,0,0,597169,257218,16753497,16744440,28798,16770684,24883,16744936,Tag0,unknown
1610372512782,51,67,1.4721679687500002E-5,0,0,0,1142232,421158,16753787,86472,212738,16759005,136000,16761820,Tag0,unknown
1610372512793,51,66,1.4501953125E-5,0,0,0,1142232,421158,16753787,86472,212738,16759005,136000,16761820,Tag0,unknown
1610372512817,51,66,1.4501953125E-5,0,0,0,1142232,421158,16753787,86472,212738,16759005,136000,16761820,Tag0,unknown
1610372512827,51,65,1.42822265625E-5,0,0,0,1142232,421158,16753787,86472,212738,16759005,136000,16761820,Tag0,unknown
1610372512844,51,1791,3.935302734375E-4,0,0,0,1142232,421158,16753787,86472,212738,16759005,136000,16761820,Tag0,unknown
1610372512861,51,1791,3.935302734375E-4,0,0,0,1142232,421158,16753787,86472,212738,16759005,136000,16761820,Tag0,unknown
1610372512880,51,-1547,-3.3991699218749997E-4,0,0,0,1142232,421158,16753787,86472,212738,16759005,136000,16761820,Tag0,unknown
1610372512903,51,-1101,-2.419189453125E-4,0,0,0,1142232,421158,16753787,86472,212738,16759005,136000,16761820,Tag0,unknown
1610372512914,51,-1068,-2.3466796875E-4,0,0,0,1142232,421158,16753787,86472,212738,16759005,136000,16761820,Tag0,unknown
1610372512925,51,-455,-9.99755859375E-5,0,0,0,1142232,421158,16753787,86472,212738,16759005,136000,16761820,Tag0,unknown
1610372512935,51,1791,3.935302734375E-4,0,0,0,1142232,421158,16753787,86472,212738,16759005,136000,16761820,Tag0,unknown
1610372512945,51,1791,3.935302734375E-4,0,0,0,1142232,421158,16753787,86472,212738,16759005,136000,16761820,Tag0,unknown
1610372512961,51,1791,3.935302734375E-4,0,0,0,1142232,421158,16753787,86472,212738,16759005,136000,16761820,Tag0,unknown
1610372512982,51,1189,2.612548828125E-4,0,0,0,1142232,421158,16753787,86472,212738,16759005,136000,16761820,Tag0,unknown
1610372512994,51,1395,3.065185546875E-4,0,0,0,1142232,421158,16753787,86472,212738,16759005,136000,16761820,Tag0,unknown
1610372513016,51,691,1.518310546875E-4,0,0,0,1142232,421158,16753787,86472,212738,16759005,136000,16761820,Tag0,unknown
1610372513026,51,659,1.4479980468750002E-4,0,0,0,1142232,421158,16753787,86472,212738,16759005,136000,16761820,Tag0,unknown
1610372513054,51,156,3.427734375E-5,0,0,0,1142232,421158,16753787,86472,212738,16759005,136000,16761820,Tag0,unknown
1610372513064,51,131,2.87841796875E-5,0,0,0,1142232,421158,16753787,86472,212738,16759005,136000,16761820,Tag0,unknown
1610372513089,51,279,6.13037109375E-5,0,0,0,1142232,421158,16753787,86472,212738,16759005,136000,16761820,Tag0,unknown
1610372513099,51,-7,-1.5380859375E-6,0,0,0,1142232,421158,16753787,86472,212738,16759005,136000,16761820,Tag0,unknown
1610372513112,51,-55,-1.20849609375E-5,0,0,0,1142232,421158,16753787,86472,212738,16759005,136000,16761820,Tag0,unknown
1610372513128,51,-107,-2.35107421875E-5,0,0,0,1142232,421158,16753787,86472,212738,16759005,136000,16761820,Tag0,unknown
1610372513145,51,-119,-2.6147460937500004E-5,0,0,0,1142232,421158,16753787,86472,212738,16759005,136000,16761820,Tag0,unknown
1610372513165,51,-101,-2.2192382812500002E-5,0,0,0,1142232,421158,16753787,86472,212738,16759005,136000,16761820,Tag0,unknown
1610372513180,51,-2048,-4.5E-4,0,0,0,1142232,421158,16753787,86472,212738,16759005,136000,16761820,Tag0,unknown
1610372513190,51,1651,3.627685546875E-4,0,0,0,1142232,421158,16753787,86472,212738,16759005,136000,16761820,Tag0,unknown
1610372513200,51,1537,3.377197265625E-4,0,0,0,1142232,421158,16753787,86472,212738,16759005,136000,16761820,Tag0,unknown
1610372513211,51,1228,2.6982421875E-4,0,0,0,1142232,421158,16753787,86472,212738,16759005,136000,16761820,Tag0,unknown
1610372513234,51,1791,3.935302734375E-4,0,0,0,1142232,421158,16753787,86472,212738,16759005,136000,16761820,Tag0,unknown
1610372513244,51,1791,3.935302734375E-4,0,0,0,1142232,421158,16753787,86472,212738,16759005,136000,16761820,Tag0,unknown
1610372513261,51,-2048,-4.5E-4,0,0,0,1142232,421158,16753787,86472,212738,16759005,136000,16761820,Tag0,unknown
1610372513280,51,-2048,-4.5E-4,0,0,0,1142232,421158,16753787,86472,212738,16759005,136000,16761820,Tag0,unknown
1610372513296,51,-2115,-4.647216796875E-4,0,0,0,1142232,421158,16753787,86472,212738,16759005,136000,16761820,Tag0,unknown
1610372513314,51,-1789,-3.930908203125E-4,0,0,0,1142232,421158,16753787,86472,212738,16759005,136000,16761820,Tag0,unknown
1610372513330,51,-1571,-3.4519042968750004E-4,0,0,0,1142232,421158,16753787,86472,212738,16759005,136000,16761820,Tag0,unknown
1610372513340,51,-753,-1.6545410156250002E-4,0,0,0,1142232,421158,16753787,86472,212738,16759005,136000,16761820,Tag0,unknown
1610372513351,51,-665,-1.461181640625E-4,0,0,0,1142232,421158,16753787,86472,212738,16759005,136000,16761820,Tag0,unknown
1610372513364,51,-893,-1.9621582031250002E-4,0,0,0,1142232,421158,16753787,86472,212738,16759005,136000,16761820,Tag0,unknown
1610372513374,51,-622,-1.3666992187500002E-4,0,0,0,1142232,421158,16753787,86472,212738,16759005,136000,16761820,Tag0,unknown
1610372513384,51,-243,-5.33935546875E-5,0,0,0,1142232,421158,16753787,86472,212738,16759005,136000,16761820,Tag0,unknown
1610372513394,51,-220,-4.833984375E-5,0,0,0,1142232,421158,16753787,86472,212738,16759005,136000,16761820,Tag0,unknown
1610372513419,51,-365,-8.02001953125E-5,0,0,0,1142232,421158,16753787,86472,212738,16759005,136000,16761820,Tag0,unknown
1610372513429,51,-337,-7.40478515625E-5,0,0,0,1142232,421158,16753787,86472,212738,16759005,136000,16761820,Tag0,unknown
1610372513453,51,-300,-6.591796875E-5,0,0,0,1142232,421158,16753787,86472,212738,16759005,136000,16761820,Tag0,unknown
1610372513466,51,-296,-6.50390625E-5,0,0,0,1142232,421158,16753787,86472,212738,16759005,136000,16761820,Tag0,unknown
1610372513476,51,1095,2.406005859375E-4,0,0,0,1142232,421158,16753787,86472,212738,16759005,136000,16761820,Tag0,unknown
1610372513486,51,1791,3.935302734375E-4,0,0,0,1142232,421158,16753787,86472,212738,16759005,136000,16761820,Tag0,unknown
1610372513497,51,1791,3.935302734375E-4,0,0,0,1142232,421158,16753787,86472,212738,16759005,136000,16761820,Tag0,unknown
1610372513513,51,1791,3.935302734375E-4,0,0,0,1142232,421158,16753787,86472,212738,16759005,136000,16761820,Tag0,unknown
1610372513530,51,1791,3.935302734375E-4,0,0,0,1142232,421158,16753787,86472,212738,16759005,136000,16761820,Tag0,unknown
1610372513546,51,-2048,-4.5E-4,0,0,0,1142232,421158,16753787,86472,212738,16759005,136000,16761820,Tag0,unknown
1610372513556,51,1791,3.935302734375E-4,0,0,0,1142232,421158,16753787,86472,212738,16759005,136000,16761820,Tag0,unknown
1610372513572,51,1791,3.935302734375E-4,0,0,0,1142232,421158,16753787,86472,212738,16759005,136000,16761820,Tag0,unknown
1610372513582,51,-2048,-4.5E-4,0,0,0,1142232,421158,16753787,86472,212738,16759005,136000,16761820,Tag0,unknown
1610372513595,51,-2048,-4.5E-4,0,0,0,1142232,421158,16753787,86472,212738,16759005,136000,16761820,Tag0,unknown
1610372513614,51,-2048,-4.5E-4,0,0,0,1142232,421158,16753787,86472,212738,16759005,136000,16761820,Tag0,unknown
1610372513628,51,-2048,-4.5E-4,0,0,0,1142232,421158,16753787,86472,212738,16759005,136000,16761820,Tag0,unknown
1610372513648,51,-1874,-4.11767578125E-4,0,0,0,1142232,421158,16753787,86472,212738,16759005,136000,16761820,Tag0,unknown
1610372513664,51,-1813,-3.9836425781250004E-4,0,0,0,1142232,421158,16753787,86472,212738,16759005,136000,16761820,Tag0,unknown
1610372513674,51,-970,-2.13134765625E-4,0,0,0,1142232,421158,16753787,86472,212738,16759005,136000,16761820,Tag0,unknown
1610372513692,51,-853,-1.874267578125E-4,0,0,0,1142232,421158,16753787,86472,212738,16759005,136000,16761820,Tag0,unknown
1610372513713,51,-827,-1.8171386718750002E-4,0,0,0,1142232,421158,16753787,86472,212738,16759005,136000,16761820,Tag0,unknown
1610372513723,51,-553,-1.215087890625E-4,0,0,0,1142232,421158,16753787,86472,212738,16759005,136000,16761820,Tag0,unknown
1610372513735,51,-195,-4.28466796875E-5,0,0,0,1142232,421158,16753787,86472,212738,16759005,136000,16761820,Tag0,unknown
1610372513745,51,-359,-7.88818359375E-5,0,0,0,1142232,421158,16753787,86472,212738,16759005,136000,16761820,Tag0,unknown
1610372513760,51,-348,-7.646484375E-5,0,0,0,1142232,421158,16753787,86472,212738,16759005,136000,16761820,Tag0,unknown
1610372513780,51,-343,-7.53662109375E-5,0,0,0,1142232,421158,16753787,86472,212738,16759005,136000,16761820,Tag0,unknown
1610372513790,51,-289,-6.35009765625E-5,0,0,0,2171340,862920,725809,119661,337860,165922,131132,185952,Tag0,unknown
1610372513806,51,-263,-5.7788085937500005E-5,0,0,0,2171340,862920,725809,119661,337860,165922,131132,185952,Tag0,unknown
1610372513833,51,19,4.1748046875E-6,0,0,0,2171340,862920,725809,119661,337860,165922,131132,185952,Tag0,unknown
1610372513846,51,21,4.614257812500001E-6,0,0,0,2171340,862920,725809,119661,337860,165922,131132,185952,Tag0,unknown
1610372513862,51,43,9.448242187500001E-6,0,0,0,2171340,862920,725809,119661,337860,165922,131132,185952,Tag0,unknown
1610372513879,51,48,1.0546875E-5,0,0,0,2171340,862920,725809,119661,337860,165922,131132,185952,Tag0,unknown
1610372513897,51,53,1.1645507812500002E-5,0,0,0,2171340,862920,725809,119661,337860,165922,131132,185952,Tag0,unknown
1610372513915,51,54,1.1865234375000001E-5,0,0,0,2171340,862920,725809,119661,337860,165922,131132,185952,Tag0,unknown
1610372513931,51,58,1.2744140625E-5,0,0,0,2171340,862920,725809,119661,337860,165922,131132,185952,Tag0,unknown
1610372513941,51,60,1.318359375E-5,0,0,0,2171340,862920,725809,119661,337860,165922,131132,185952,Tag0,unknown
1610372513963,51,60,1.318359375E-5,0,0,0,2171340,862920,725809,119661,337860,165922,131132,185952,Tag0,unknown
1610372513980,51,64,1.40625E-5,0,0,0,2171340,862920,725809,119661,337860,165922,131132,185952,Tag0,unknown
1610372513996,51,65,1.42822265625E-5,0,0,0,2171340,862920,725809,119661,337860,165922,131132,185952,Tag0,unknown
1610372514006,51,65,1.42822265625E-5,0,0,0,2171340,862920,725809,119661,337860,165922,131132,185952,Tag0,unknown
1610372514019,51,68,1.4941406250000001E-5,0,0,0,2171340,862920,725809,119661,337860,165922,131132,185952,Tag0,unknown
1610372514030,51,66,1.4501953125E-5,0,0,0,2171340,862920,725809,119661,337860,165922,131132,185952,Tag0,unknown
1610372514053,51,65,1.42822265625E-5,0,0,0,2171340,862920,725809,119661,337860,165922,131132,185952,Tag0,unknown
1610372514068,51,66,1.4501953125E-5,0,0,0,2171340,862920,725809,119661,337860,165922,131132,185952,Tag0,unknown
1610372514078,51,65,1.42822265625E-5,0,0,0,2171340,862920,725809,119661,337860,165922,131132,185952,Tag0,unknown
1610372514097,51,67,1.4721679687500002E-5,0,0,0,2171340,862920,725809,119661,337860,165922,131132,185952,Tag0,unknown
1610372514128,51,-1575,-3.460693359375E-4,0,0,0,2171340,862920,725809,119661,337860,165922,131132,185952,Tag0,unknown
1610372514150,51,-1257,-2.761962890625E-4,0,0,0,2171340,862920,725809,119661,337860,165922,131132,185952,Tag0,unknown
1610372514160,51,1791,3.935302734375E-4,0,0,0,2171340,862920,725809,119661,337860,165922,131132,185952,Tag0,unknown
1610372514184,51,1791,3.935302734375E-4,0,0,0,2171340,862920,725809,119661,337860,165922,131132,185952,Tag0,unknown
1610372514198,51,1791,3.935302734375E-4,0,0,0,2171340,862920,725809,119661,337860,165922,131132,185952,Tag0,unknown
1610372514208,51,1545,3.394775390625E-4,0,0,0,2171340,862920,725809,119661,337860,165922,131132,185952,Tag0,unknown
1610372514219,51,1047,2.300537109375E-4,0,0,0,2171340,862920,725809,119661,337860,165922,131132,185952,Tag0,unknown
1610372514231,51,756,1.6611328125E-4,0,0,0,2171340,862920,725809,119661,337860,165922,131132,185952,Tag0,unknown
1610372514241,51,459,1.008544921875E-4,0,0,0,2171340,862920,725809,119661,337860,165922,131132,185952,Tag0,unknown
1610372514258,51,438,9.6240234375E-5,0,0,0,2171340,862920,725809,119661,337860,165922,131132,185952,Tag0,unknown
1610372514269,51,-364,-7.998046875E-5,0,0,0,2171340,862920,725809,119661,337860,165922,131132,185952,Tag0,unknown
1610372514291,51,-2048,-4.5E-4,0,0,0,2171340,862920,725809,119661,337860,165922,131132,185952,Tag0,unknown
1610372514325,51,-2048,-4.5E-4,0,0,0,2171340,862920,725809,119661,337860,165922,131132,185952,Tag0,unknown
1610372514336,51,-2048,-4.5E-4,0,0,0,2171340,862920,725809,119661,337860,165922,131132,185952,Tag0,unknown
1610372514347,51,-2048,-4.5E-4,0,0,0,2171340,862920,725809,119661,337860,165922,131132,185952,Tag0,unknown
1610372514357,51,1791,3.935302734375E-4,0,0,0,2171340,862920,725809,119661,337860,165922,131132,185952,Tag0,unknown
1610372514371,51,1791,3.935302734375E-4,0,0,0,2171340,862920,725809,119661,337860,165922,131132,185952,Tag0,unknown
1610372514395,51,-994,-2.1840820312500002E-4,0,0,0,2171340,862920,725809,119661,337860,165922,131132,185952,Tag0,unknown
1610372514414,51,1791,3.935302734375E-4,0,0,0,2171340,862920,725809,119661,337860,165922,131132,185952,Tag0,unknown
1610372514424,51,-2048,-4.5E-4,0,0,0,2171340,862920,725809,119661,337860,165922,131132,185952,Tag0,unknown
1610372514435,51,1876,4.1220703125000003E-4,0,0,0,2171340,862920,725809,119661,337860,165922,131132,185952,Tag0,unknown
1610372514449,51,1791,3.935302734375E-4,0,0,0,2171340,862920,725809,119661,337860,165922,131132,185952,Tag0,unknown
1610372514470,51,-1705,-3.746337890625E-4,0,0,0,2171340,862920,725809,119661,337860,165922,131132,185952,Tag0,unknown
1610372514483,51,1791,3.935302734375E-4,0,0,0,2171340,862920,725809,119661,337860,165922,131132,185952,Tag0,unknown
1610372514493,51,-2048,-4.5E-4,0,0,0,2171340,862920,725809,119661,337860,165922,131132,185952,Tag0,unknown
1610372514505,51,1791,3.935302734375E-4,0,0,0,2171340,862920,725809,119661,337860,165922,131132,185952,Tag0,unknown
1610372514515,51,1843,4.049560546875E-4,0,0,0,2171340,862920,725809,119661,337860,165922,131132,185952,Tag0,unknown
1610372514539,51,1234,2.71142578125E-4,0,0,0,2171340,862920,725809,119661,337860,165922,131132,185952,Tag0,unknown
1610372514549,51,949,2.085205078125E-4,0,0,0,2171340,862920,725809,119661,337860,165922,131132,185952,Tag0,unknown
1610372514563,51,1083,2.379638671875E-4,0,0,0,2171340,862920,725809,119661,337860,165922,131132,185952,Tag0,unknown
1610372514579,51,-2048,-4.5E-4,0,0,0,2171340,862920,725809,119661,337860,165922,131132,185952,Tag0,unknown
1610372514598,51,-2048,-4.5E-4,0,0,0,2171340,862920,725809,119661,337860,165922,131132,185952,Tag0,unknown
1610372514620,51,-2048,-4.5E-4,0,0,0,2171340,862920,725809,119661,337860,165922,131132,185952,Tag0,unknown
1610372514633,51,1674,3.6782226562500004E-4,0,0,0,2171340,862920,725809,119661,337860,165922,131132,185952,Tag0,unknown
1610372514643,51,-2048,-4.5E-4,0,0,0,2171340,862920,725809,119661,337860,165922,131132,185952,Tag0,unknown
1610372514664,51,1791,3.935302734375E-4,0,0,0,2171340,862920,725809,119661,337860,165922,131132,185952,Tag0,unknown
1610372514685,51,1791,3.935302734375E-4,0,0,0,2171340,862920,725809,119661,337860,165922,131132,185952,Tag0,unknown
1610372514698,51,-2048,-4.5E-4,0,0,0,2171340,862920,725809,119661,337860,165922,131132,185952,Tag0,unknown
1610372514708,51,-1672,-3.673828125E-4,0,0,0,2171340,862920,725809,119661,337860,165922,131132,185952,Tag0,unknown
1610372514726,51,-1635,-3.592529296875E-4,0,0,0,2171340,862920,725809,119661,337860,165922,131132,185952,Tag0,unknown
1610372514746,51,-967,-2.1247558593750002E-4,0,0,0,2171340,862920,725809,119661,337860,165922,131132,185952,Tag0,unknown
1610372514763,51,-1080,-2.373046875E-4,0,0,0,2171340,862920,725809,119661,337860,165922,131132,185952,Tag0,unknown
1610372514783,51,-874,-1.9204101562500002E-4,0,0,0,639353,217476,83858,88389,59980,56748,16748674,16769398,Tag0,unknown
1610372514809,51,-611,-1.3425292968749999E-4,0,0,0,639353,217476,83858,88389,59980,56748,16748674,16769398,Tag0,unknown
1610372514819,51,-193,-4.2407226562500005E-5,0,0,0,639353,217476,83858,88389,59980,56748,16748674,16769398,Tag0,unknown
1610372514829,51,-380,-8.349609375E-5,0,0,0,639353,217476,83858,88389,59980,56748,16748674,16769398,Tag0,unknown
1610372514839,51,-325,-7.14111328125E-5,0,0,0,639353,217476,83858,88389,59980,56748,16748674,16769398,Tag0,unknown
1610372514864,51,-1694,-3.7221679687500004E-4,0,0,0,639353,217476,83858,88389,59980,56748,16748674,16769398,Tag0,unknown
1610372514881,51,-1484,-3.2607421875000003E-4,0,0,0,639353,217476,83858,88389,59980,56748,16748674,16769398,Tag0,unknown
1610372514898,51,1791,3.935302734375E-4,0,0,0,639353,217476,83858,88389,59980,56748,16748674,16769398,Tag0,unknown
1610372514916,51,1791,3.935302734375E-4,0,0,0,639353,217476,83858,88389,59980,56748,16748674,16769398,Tag0,unknown
1610372514926,51,-2048,-4.5E-4,0,0,0,639353,217476,83858,88389,59980,56748,16748674,16769398,Tag0,unknown
1610372514939,51,-2048,-4.5E-4,0,0,0,639353,217476,83858,88389,59980,56748,16748674,16769398,Tag0,unknown
1610372514949,51,1791,3.935302734375E-4,0,0,0,639353,217476,83858,88389,59980,56748,16748674,16769398,Tag0,unknown
1610372514971,51,1791,3.935302734375E-4,0,0,0,639353,217476,83858,88389,59980,56748,16748674,16769398,Tag0,unknown
1610372514983,51,-1229,-2.700439453125E-4,0,0,0,639353,217476,83858,88389,59980,56748,16748674,16769398,Tag0,unknown
1610372514993,51,1791,3.935302734375E-4,0,0,0,639353,217476,83858,88389,59980,56748,16748674,16769398,Tag0,unknown
1610372515010,51,-2048,-4.5E-4,0,0,0,639353,217476,83858,88389,59980,56748,16748674,16769398,Tag0,unknown
1610372515034,51,1791,3.935302734375E-4,0,0,0,639353,217476,83858,88389,59980,56748,16748674,16769398,Tag0,unknown
1610372515051,51,-2048,-4.5E-4,0,0,0,639353,217476,83858,88389,59980,56748,16748674,16769398,Tag0,unknown
1610372515067,51,-2048,-4.5E-4,0,0,0,639353,217476,83858,88389,59980,56748,16748674,16769398,Tag0,unknown
1610372515083,51,1791,3.935302734375E-4,0,0,0,639353,217476,83858,88389,59980,56748,16748674,16769398,Tag0,unknown
1610372515097,51,1791,3.935302734375E-4,0,0,0,639353,217476,83858,88389,59980,56748,16748674,16769398,Tag0,unknown
1610372515116,51,1791,3.935302734375E-4,0,0,0,639353,217476,83858,88389,59980,56748,16748674,16769398,Tag0,unknown
1610372515131,51,-2048,-4.5E-4,0,0,0,639353,217476,83858,88389,59980,56748,16748674,16769398,Tag0,unknown
1610372515154,51,-1772,-3.8935546875E-4,0,0,0,639353,217476,83858,88389,59980,56748,16748674,16769398,Tag0,unknown
1610372515169,51,-1705,-3.746337890625E-4,0,0,0,639353,217476,83858,88389,59980,56748,16748674,16769398,Tag0,unknown
1610372515179,51,-1156,-2.5400390625E-4,0,0,0,639353,217476,83858,88389,59980,56748,16748674,16769398,Tag0,unknown
1610372515201,51,-1323,-2.906982421875E-4,0,0,0,639353,217476,83858,88389,59980,56748,16748674,16769398,Tag0,unknown
1610372515211,51,1791,3.935302734375E-4,0,0,0,639353,217476,83858,88389,59980,56748,16748674,16769398,Tag0,unknown
1610372515221,51,1791,3.935302734375E-4,0,0,0,639353,217476,83858,88389,59980,56748,16748674,16769398,Tag0,unknown
1610372515236,51,1791,3.935302734375E-4,0,0,0,639353,217476,83858,88389,59980,56748,16748674,16769398,Tag0,unknown
1610372515249,51,1791,3.935302734375E-4,0,0,0,639353,217476,83858,88389,59980,56748,16748674,16769398,Tag0,unknown
1610372515259,51,953,2.093994140625E-4,0,0,0,639353,217476,83858,88389,59980,56748,16748674,16769398,Tag0,unknown
1610372515275,51,755,1.658935546875E-4,0,0,0,639353,217476,83858,88389,59980,56748,16748674,16769398,Tag0,unknown
1610372515285,51,438,9.6240234375E-5,0,0,0,639353,217476,83858,88389,59980,56748,16748674,16769398,Tag0,unknown
1610372515309,51,748,1.6435546875E-4,0,0,0,639353,217476,83858,88389,59980,56748,16748674,16769398,Tag0,unknown
1610372515319,51,713,1.566650390625E-4,0,0,0,639353,217476,83858,88389,59980,56748,16748674,16769398,Tag0,unknown
1610372515329,51,-2048,-4.5E-4,0,0,0,639353,217476,83858,88389,59980,56748,16748674,16769398,Tag0,unknown
1610372515348,51,-2048,-4.5E-4,0,0,0,639353,217476,83858,88389,59980,56748,16748674,16769398,Tag0,unknown
1610372515365,51,-2048,-4.5E-4,0,0,0,639353,217476,83858,88389,59980,56748,16748674,16769398,Tag0,unknown
1610372515382,51,1791,3.935302734375E-4,0,0,0,639353,217476,83858,88389,59980,56748,16748674,16769398,Tag0,unknown
1610372515397,51,-2048,-4.5E-4,0,0,0,639353,217476,83858,88389,59980,56748,16748674,16769398,Tag0,unknown
1610372515419,51,-2048,-4.5E-4,0,0,0,639353,217476,83858,88389,59980,56748,16748674,16769398,Tag0,unknown
1610372515430,51,-2045,-4.493408203125E-4,0,0,0,639353,217476,83858,88389,59980,56748,16748674,16769398,Tag0,unknown
1610372515462,51,1791,3.935302734375E-4,0,0,0,639353,217476,83858,88389,59980,56748,16748674,16769398,Tag0,unknown
1610372515480,51,-2048,-4.5E-4,0,0,0,639353,217476,83858,88389,59980,56748,16748674,16769398,Tag0,unknown
1610372515500,51,-2048,-4.5E-4,0,0,0,639353,217476,83858,88389,59980,56748,16748674,16769398,Tag0,unknown
1610372515513,51,-2048,-4.5E-4,0,0,0,639353,217476,83858,88389,59980,56748,16748674,16769398,Tag0,unknown
1610372515542,51,-2048,-4.5E-4,0,0,0,639353,217476,83858,88389,59980,56748,16748674,16769398,Tag0,unknown
1610372515552,51,-1859,-4.084716796875E-4,0,0,0,639353,217476,83858,88389,59980,56748,16748674,16769398,Tag0,unknown
1610372515575,51,-1576,-3.462890625E-4,0,0,0,639353,217476,83858,88389,59980,56748,16748674,16769398,Tag0,unknown
1610372515585,51,-1339,-2.942138671875E-4,0,0,0,639353,217476,83858,88389,59980,56748,16748674,16769398,Tag0,unknown
1610372515599,51,-696,-1.529296875E-4,0,0,0,639353,217476,83858,88389,59980,56748,16748674,16769398,Tag0,unknown
1610372515616,51,-477,-1.048095703125E-4,0,0,0,639353,217476,83858,88389,59980,56748,16748674,16769398,Tag0,unknown
1610372515632,51,-421,-9.25048828125E-5,0,0,0,639353,217476,83858,88389,59980,56748,16748674,16769398,Tag0,unknown
1610372515649,51,-523,-1.149169921875E-4,0,0,0,639353,217476,83858,88389,59980,56748,16748674,16769398,Tag0,unknown
1610372515665,51,-513,-1.127197265625E-4,0,0,0,639353,217476,83858,88389,59980,56748,16748674,16769398,Tag0,unknown
1610372515675,51,-340,-7.470703125E-5,0,0,0,639353,217476,83858,88389,59980,56748,16748674,16769398,Tag0,unknown
1610372515688,51,-321,-7.053222656250001E-5,0,0,0,639353,217476,83858,88389,59980,56748,16748674,16769398,Tag0,unknown
1610372515699,51,-314,-6.8994140625E-5,0,0,0,639353,217476,83858,88389,59980,56748,16748674,16769398,Tag0,unknown
1610372515722,51,-274,-6.0205078124999997E-5,0,0,0,639353,217476,83858,88389,59980,56748,16748674,16769398,Tag0,unknown
1610372515732,51,-269,-5.9106445312499996E-5,0,0,0,639353,217476,83858,88389,59980,56748,16748674,16769398,Tag0,unknown
1610372515742,51,28,6.15234375E-6,0,0,0,639353,217476,83858,88389,59980,56748,16748674,16769398,Tag0,unknown
1610372515772,51,33,7.2509765625E-6,0,0,0,877383,311798,16773234,55566,568263,187872,40163,59780,Tag0,unknown
1610372515783,51,51,1.1206054687499999E-5,0,0,0,877383,311798,16773234,55566,568263,187872,40163,59780,Tag0,unknown
1610372515802,51,51,1.1206054687499999E-5,0,0,0,877383,311798,16773234,55566,568263,187872,40163,59780,Tag0,unknown
1610372515814,51,51,1.1206054687499999E-5,0,0,0,877383,311798,16773234,55566,568263,187872,40163,59780,Tag0,unknown
1610372515836,51,1791,3.935302734375E-4,0,0,0,877383,311798,16773234,55566,568263,187872,40163,59780,Tag0,unknown
1610372515850,51,1791,3.935302734375E-4,0,0,0,877383,311798,16773234,55566,568263,187872,40163,59780,Tag0,unknown
1610372515860,51,-1190,-2.61474609375E-4,0,0,0,877383,311798,16773234,55566,568263,187872,40163,59780,Tag0,unknown
1610372515874,51,-1355,-2.977294921875E-4,0,0,0,877383,311798,16773234,55566,568263,187872,40163,59780,Tag0,unknown
1610372515884,51,-978,-2.1489257812500002E-4,0,0,0,877383,311798,16773234,55566,568263,187872,40163,59780,Tag0,unknown
1610372515911,51,1791,3.935302734375E-4,0,0,0,877383,311798,16773234,55566,568263,187872,40163,59780,Tag0,unknown
1610372515932,51,1791,3.935302734375E-4,0,0,0,877383,311798,16773234,55566,568263,187872,40163,59780,Tag0,unknown
1610372515949,51,1193,2.621337890625E-4,0,0,0,877383,311798,16773234,55566,568263,187872,40163,59780,Tag0,unknown
1610372515965,51,915,2.010498046875E-4,0,0,0,877383,311798,16773234,55566,568263,187872,40163,59780,Tag0,unknown
1610372515983,51,693,1.522705078125E-4,0,0,0,877383,311798,16773234,55566,568263,187872,40163,59780,Tag0,unknown
1610372515999,51,-2048,-4.5E-4,0,0,0,877383,311798,16773234,55566,568263,187872,40163,59780,Tag0,unknown
1610372516009,51,-2048,-4.5E-4,0,0,0,877383,311798,16773234,55566,568263,187872,40163,59780,Tag0,unknown
1610372516020,51,-2048,-4.5E-4,0,0,0,877383,311798,16773234,55566,568263,187872,40163,59780,Tag0,unknown
1610372516031,51,-2048,-4.5E-4,0,0,0,877383,311798,16773234,55566,568263,187872,40163,59780,Tag0,unknown
1610372516053,51,1791,3.935302734375E-4,0,0,0,877383,311798,16773234,55566,568263,187872,40163,59780,Tag0,unknown
1610372516065,51,1791,3.935302734375E-4,0,0,0,877383,311798,16773234,55566,568263,187872,40163,59780,Tag0,unknown
1610372516075,51,1689,3.7111816406250006E-4,0,0,0,877383,311798,16773234,55566,568263,187872,40163,59780,Tag0,unknown
1610372516092,51,1791,3.935302734375E-4,0,0,0,877383,311798,16773234,55566,568263,187872,40163,59780,Tag0,unknown
1610372516102,51,1791,3.935302734375E-4,0,0,0,877383,311798,16773234,55566,568263,187872,40163,59780,Tag0,unknown
1610372516125,51,1884,4.1396484375000005E-4,0,0,0,877383,311798,16773234,55566,568263,187872,40163,59780,Tag0,unknown
1610372516135,51,1635,3.592529296875E-4,0,0,0,877383,311798,16773234,55566,568263,187872,40163,59780,Tag0,unknown
1610372516150,51,936,2.0566406249999998E-4,0,0,0,877383,311798,16773234,55566,568263,187872,40163,59780,Tag0,unknown
1610372516167,51,1791,3.935302734375E-4,0,0,0,877383,311798,16773234,55566,568263,187872,40163,59780,Tag0,unknown
1610372516182,51,1779,3.9089355468750005E-4,0,0,0,877383,311798,16773234,55566,568263,187872,40163,59780,Tag0,unknown
1610372516201,51,563,1.237060546875E-4,0,0,0,877383,311798,16773234,55566,568263,187872,40163,59780,Tag0,unknown
1610372516215,51,-2048,-4.5E-4,0,0,0,877383,311798,16773234,55566,568263,187872,40163,59780,Tag0,unknown
1610372516225,51,1791,3.935302734375E-4,0,0,0,877383,311798,16773234,55566,568263,187872,40163,59780,Tag0,unknown
1610372516238,51,1791,3.935302734375E-4,0,0,0,877383,311798,16773234,55566,568263,187872,40163,59780,Tag0,unknown
1610372516249,51,1791,3.935302734375E-4,0,0,0,877383,311798,16773234,55566,568263,187872,40163,59780,Tag0,unknown
1610372516272,51,1857,4.080322265625E-4,0,0,0,877383,311798,16773234,55566,568263,187872,40163,59780,Tag0,unknown
1610372516283,51,1793,3.9396972656250003E-4,0,0,0,877383,311798,16773234,55566,568263,187872,40163,59780,Tag0,unknown
1610372516300,51,-2048,-4.5E-4,0,0,0,877383,311798,16773234,55566,568263,187872,40163,59780,Tag0,unknown
1610372516316,51,-2048,-4.5E-4,0,0,0,877383,311798,16773234,55566,568263,187872,40163,59780,Tag0,unknown
1610372516333,51,-2048,-4.5E-4,0,0,0,877383,311798,16773234,55566,568263,187872,40163,59780,Tag0,unknown
1610372516386,51,-2048,-4.5E-4,0,0,0,877383,311798,16773234,55566,568263,187872,40163,59780,Tag0,unknown
1610372516401,51,-1981,-4.3527832031250004E-4,0,0,0,877383,311798,16773234,55566,568263,187872,40163,59780,Tag0,unknown
1610372516457,51,1791,3.935302734375E-4,0,0,0,877383,311798,16773234,55566,568263,187872,40163,59780,Tag0,unknown
1610372516467,51,1791,3.935302734375E-4,0,0,0,877383,311798,16773234,55566,568263,187872,40163,59780,Tag0,unknown
1610372516525,51,1791,3.935302734375E-4,0,0,0,877383,311798,16773234,55566,568263,187872,40163,59780,Tag0,unknown
1610372516535,51,1791,3.935302734375E-4,0,0,0,877383,311798,16773234,55566,568263,187872,40163,59780,Tag0,unknown
1610372516592,51,1451,3.188232421875E-4,0,0,0,877383,311798,16773234,55566,568263,187872,40163,59780,Tag0,unknown
1610372516602,51,1277,2.805908203125E-4,0,0,0,877383,311798,16773234,55566,568263,187872,40163,59780,Tag0,unknown
1610372516729,51,1080,2.373046875E-4,0,0,0,877383,311798,16773234,55566,568263,187872,40163,59780,Tag0,unknown
1610372516739,51,649,1.4260253906250002E-4,0,0,0,877383,311798,16773234,55566,568263,187872,40163,59780,Tag0,unknown
1610372516752,51,137,3.0102539062499998E-5,0,0,0,877383,311798,16773234,55566,568263,187872,40163,59780,Tag0,unknown
1610372516800,51,-2048,-4.5E-4,0,0,0,877383,311798,16773234,55566,568263,187872,40163,59780,Tag0,unknown
1610372516817,51,-2048,-4.5E-4,0,0,0,877383,311798,16773234,55566,568263,187872,40163,59780,Tag0,unknown
1610372516867,51,979,2.151123046875E-4,0,0,0,877383,311798,16773234,55566,568263,187872,40163,59780,Tag0,unknown
1610372516884,51,1267,2.7839355468749997E-4,0,0,0,877383,311798,16773234,55566,568263,187872,40163,59780,Tag0,unknown
1610372516905,51,-1829,-4.0187988281250003E-4,0,0,0,877383,311798,16773234,55566,568263,187872,40163,59780,Tag0,unknown
1610372516917,51,-1512,-3.322265625E-4,0,0,0,877383,311798,16773234,55566,568263,187872,40163,59780,Tag0,unknown
1610372516927,51,-1541,-3.385986328125E-4,0,0,0,877383,311798,16773234,55566,568263,187872,40163,59780,Tag0,unknown
1610372516937,51,-1353,-2.972900390625E-4,0,0,0,877383,311798,16773234,55566,568263,187872,40163,59780,Tag0,unknown
1610372516947,51,1791,3.935302734375E-4,0,0,0,877383,311798,16773234,55566,568263,187872,40163,59780,Tag0,unknown
1610372516957,51,1791,3.935302734375E-4,0,0,0,1137866,172396,63069,201220,64888,108584,223065,206801,Tag0,unknown
1610372516967,51,513,1.127197265625E-4,0,0,0,1137866,172396,63069,201220,64888,108584,223065,206801,Tag0,unknown
1610372516982,51,1635,3.592529296875E-4,0,0,0,1137866,172396,63069,201220,64888,108584,223065,206801,Tag0,unknown
1610372516999,51,1791,3.935302734375E-4,0,0,0,1137866,172396,63069,201220,64888,108584,223065,206801,Tag0,unknown
1610372517016,51,-2048,-4.5E-4,0,0,0,1137866,172396,63069,201220,64888,108584,223065,206801,Tag0,unknown
1610372517040,51,-2068,-4.5439453125E-4,0,0,0,1137866,172396,63069,201220,64888,108584,223065,206801,Tag0,unknown
1610372517051,51,-1747,-3.838623046875E-4,0,0,0,1137866,172396,63069,201220,64888,108584,223065,206801,Tag0,unknown
1610372517073,51,-1393,-3.060791015625E-4,0,0,0,1137866,172396,63069,201220,64888,108584,223065,206801,Tag0,unknown
1610372517085,51,-1350,-2.96630859375E-4,0,0,0,1137866,172396,63069,201220,64888,108584,223065,206801,Tag0,unknown
1610372517095,51,-483,-1.061279296875E-4,0,0,0,1137866,172396,63069,201220,64888,108584,223065,206801,Tag0,unknown
1610372517117,51,-406,-8.920898437500001E-5,0,0,0,1137866,172396,63069,201220,64888,108584,223065,206801,Tag0,unknown
1610372517134,51,-525,-1.153564453125E-4,0,0,0,1137866,172396,63069,201220,64888,108584,223065,206801,Tag0,unknown
1610372517151,51,-225,-4.94384765625E-5,0,0,0,1137866,172396,63069,201220,64888,108584,223065,206801,Tag0,unknown
1610372517170,51,-155,-3.40576171875E-5,0,0,0,1137866,172396,63069,201220,64888,108584,223065,206801,Tag0,unknown
1610372517180,51,-1004,-2.2060546875000002E-4,0,0,0,1137866,172396,63069,201220,64888,108584,223065,206801,Tag0,unknown
1610372517202,51,-1146,-2.51806640625E-4,0,0,0,1137866,172396,63069,201220,64888,108584,223065,206801,Tag0,unknown
1610372517219,51,-849,-1.865478515625E-4,0,0,0,1137866,172396,63069,201220,64888,108584,223065,206801,Tag0,unknown
1610372517235,51,-824,-1.810546875E-4,0,0,0,1137866,172396,63069,201220,64888,108584,223065,206801,Tag0,unknown
1610372517259,51,-2048,-4.5E-4,0,0,0,1137866,172396,63069,201220,64888,108584,223065,206801,Tag0,unknown
1610372517269,51,-2020,-4.4384765625E-4,0,0,0,1137866,172396,63069,201220,64888,108584,223065,206801,Tag0,unknown
1610372517292,51,1791,3.935302734375E-4,0,0,0,1137866,172396,63069,201220,64888,108584,223065,206801,Tag0,unknown
1610372517302,51,1791,3.935302734375E-4,0,0,0,1137866,172396,63069,201220,64888,108584,223065,206801,Tag0,unknown
1610372517318,51,-2048,-4.5E-4,0,0,0,1137866,172396,63069,201220,64888,108584,223065,206801,Tag0,unknown
1610372517334,51,1791,3.935302734375E-4,0,0,0,1137866,172396,63069,201220,64888,108584,223065,206801,Tag0,unknown
1610372517351,51,1791,3.935302734375E-4,0,0,0,1137866,172396,63069,201220,64888,108584,223065,206801,Tag0,unknown
1610372517400,51,1851,4.0671386718750004E-4,0,0,0,1137866,172396,63069,201220,64888,108584,223065,206801,Tag0,unknown
1610372517417,51,1529,3.359619140625E-4,0,0,0,1137866,172396,63069,201220,64888,108584,223065,206801,Tag0,unknown
1610372517427,51,1791,3.935302734375E-4,0,0,0,1137866,172396,63069,201220,64888,108584,223065,206801,Tag0,unknown
1610372517466,51,-2048,-4.5E-4,0,0,0,1137866,172396,63069,201220,64888,108584,223065,206801,Tag0,unknown
1610372517484,51,-2048,-4.5E-4,0,0,0,1137866,172396,63069,201220,64888,108584,223065,206801,Tag0,unknown
1610372517494,51,-2048,-4.5E-4,0,0,0,1137866,172396,63069,201220,64888,108584,223065,206801,Tag0,unknown
1610372517531,51,-2048,-4.5E-4,0,0,0,1137866,172396,63069,201220,64888,108584,223065,206801,Tag0,unknown
1610372517551,51,-2048,-4.5E-4,0,0,0,1137866,172396,63069,201220,64888,108584,223065,206801,Tag0,unknown
1610372517561,51,-1923,-4.2253417968750003E-4,0,0,0,1137866,172396,63069,201220,64888,108584,223065,206801,Tag0,unknown
1610372517582,51,1791,3.935302734375E-4,0,0,0,1137866,172396,63069,201220,64888,108584,223065,206801,Tag0,unknown
1610372517600,51,1791,3.935302734375E-4,0,0,0,1137866,172396,63069,201220,64888,108584,223065,206801,Tag0,unknown
1610372517622,51,1791,3.935302734375E-4,0,0,0,1137866,172396,63069,201220,64888,108584,223065,206801,Tag0,unknown
1610372517634,51,1791,3.935302734375E-4,0,0,0,1137866,172396,63069,201220,64888,108584,223065,206801,Tag0,unknown
1610372517656,51,-2048,-4.5E-4,0,0,0,1137866,172396,63069,201220,64888,108584,223065,206801,Tag0,unknown
1610372517668,51,-2035,-4.471435546875E-4,0,0,0,1137866,172396,63069,201220,64888,108584,223065,206801,Tag0,unknown
1610372517678,51,-967,-2.1247558593750002E-4,0,0,0,1137866,172396,63069,201220,64888,108584,223065,206801,Tag0,unknown
1610372517696,51,-1044,-2.2939453125E-4,0,0,0,1137866,172396,63069,201220,64888,108584,223065,206801,Tag0,unknown
1610372517706,51,-850,-1.86767578125E-4,0,0,0,1137866,172396,63069,201220,64888,108584,223065,206801,Tag0,unknown
1610372517729,51,-460,-1.0107421875E-4,0,0,0,1137866,172396,63069,201220,64888,108584,223065,206801,Tag0,unknown
1610372517739,51,-627,-1.377685546875E-4,0,0,0,1137866,172396,63069,201220,64888,108584,223065,206801,Tag0,unknown
1610372517753,51,-525,-1.153564453125E-4,0,0,0,1137866,172396,63069,201220,64888,108584,223065,206801,Tag0,unknown
1610372517771,51,-183,-4.02099609375E-5,0,0,0,758301,41957,16771947,16747898,18010,25807,26686,30078,Tag0,unknown
1610372517784,51,-343,-7.53662109375E-5,0,0,0,758301,41957,16771947,16747898,18010,25807,26686,30078,Tag0,unknown
1610372517801,51,-286,-6.2841796875E-5,0,0,0,758301,41957,16771947,16747898,18010,25807,26686,30078,Tag0,unknown
1610372517817,51,-273,-5.998535156250001E-5,0,0,0,758301,41957,16771947,16747898,18010,25807,26686,30078,Tag0,unknown
1610372517837,51,6,1.318359375E-6,0,0,0,758301,41957,16771947,16747898,18010,25807,26686,30078,Tag0,unknown
1610372517853,51,22,4.833984375E-6,0,0,0,758301,41957,16771947,16747898,18010,25807,26686,30078,Tag0,unknown
1610372517869,51,26,5.712890625E-6,0,0,0,758301,41957,16771947,16747898,18010,25807,26686,30078,Tag0,unknown
1610372517886,51,33,7.2509765625E-6,0,0,0,758301,41957,16771947,16747898,18010,25807,26686,30078,Tag0,unknown
1610372517907,51,51,1.1206054687499999E-5,0,0,0,758301,41957,16771947,16747898,18010,25807,26686,30078,Tag0,unknown
1610372517918,51,51,1.1206054687499999E-5,0,0,0,758301,41957,16771947,16747898,18010,25807,26686,30078,Tag0,unknown
1610372517941,51,57,1.2524414062500001E-5,0,0,0,758301,41957,16771947,16747898,18010,25807,26686,30078,Tag0,unknown
1610372517951,51,56,1.23046875E-5,0,0,0,758301,41957,16771947,16747898,18010,25807,26686,30078,Tag0,unknown
1610372517978,51,62,1.3623046875E-5,0,0,0,758301,41957,16771947,16747898,18010,25807,26686,30078,Tag0,unknown
1610372517988,51,61,1.34033203125E-5,0,0,0,758301,41957,16771947,16747898,18010,25807,26686,30078,Tag0,unknown
1610372518022,51,65,1.42822265625E-5,0,0,0,758301,41957,16771947,16747898,18010,25807,26686,30078,Tag0,unknown
1610372518035,51,64,1.40625E-5,0,0,0,758301,41957,16771947,16747898,18010,25807,26686,30078,Tag0,unknown
1610372518045,51,66,1.4501953125E-5,0,0,0,758301,41957,16771947,16747898,18010,25807,26686,30078,Tag0,unknown
1610372518061,51,65,1.42822265625E-5,0,0,0,758301,41957,16771947,16747898,18010,25807,26686,30078,Tag0,unknown
1610372518071,51,66,1.4501953125E-5,0,0,0,758301,41957,16771947,16747898,18010,25807,26686,30078,Tag0,unknown
1610372518085,51,68,1.4941406250000001E-5,0,0,0,758301,41957,16771947,16747898,18010,25807,26686,30078,Tag0,unknown
1610372518102,51,68,1.4941406250000001E-5,0,0,0,758301,41957,16771947,16747898,18010,25807,26686,30078,Tag0,unknown
1610372518119,51,67,1.4721679687500002E-5,0,0,0,758301,41957,16771947,16747898,18010,25807,26686,30078,Tag0,unknown
1610372518136,51,66,1.4501953125E-5,0,0,0,758301,41957,16771947,16747898,18010,25807,26686,30078,Tag0,unknown
1610372518151,51,66,1.4501953125E-5,0,0,0,758301,41957,16771947,16747898,18010,25807,26686,30078,Tag0,unknown
1610372518173,51,66,1.4501953125E-5,0,0,0,758301,41957,16771947,16747898,18010,25807,26686,30078,Tag0,unknown
1610372518184,51,66,1.4501953125E-5,0,0,0,758301,41957,16771947,16747898,18010,25807,26686,30078,Tag0,unknown
1610372518207,51,66,1.4501953125E-5,0,0,0,758301,41957,16771947,16747898,18010,25807,26686,30078,Tag0,unknown
1610372518219,51,68,1.4941406250000001E-5,0,0,0,758301,41957,16771947,16747898,18010,25807,26686,30078,Tag0,unknown
1610372518229,51,66,1.4501953125E-5,0,0,0,758301,41957,16771947,16747898,18010,25807,26686,30078,Tag0,unknown
1610372518247,51,66,1.4501953125E-5,0,0,0,758301,41957,16771947,16747898,18010,25807,26686,30078,Tag0,unknown
1610372518257,51,66,1.4501953125E-5,0,0,0,758301,41957,16771947,16747898,18010,25807,26686,30078,Tag0,unknown
1610372518282,51,66,1.4501953125E-5,0,0,0,758301,41957,16771947,16747898,18010,25807,26686,30078,Tag0,unknown
1610372518302,51,67,1.4721679687500002E-5,0,0,0,758301,41957,16771947,16747898,18010,25807,26686,30078,Tag0,unknown
1610372518312,51,66,1.4501953125E-5,0,0,0,758301,41957,16771947,16747898,18010,25807,26686,30078,Tag0,unknown
1610372518322,51,67,1.4721679687500002E-5,0,0,0,758301,41957,16771947,16747898,18010,25807,26686,30078,Tag0,unknown
1610372518336,51,67,1.4721679687500002E-5,0,0,0,758301,41957,16771947,16747898,18010,25807,26686,30078,Tag0,unknown
1610372518353,51,67,1.4721679687500002E-5,0,0,0,758301,41957,16771947,16747898,18010,25807,26686,30078,Tag0,unknown
1610372518369,51,67,1.4721679687500002E-5,0,0,0,758301,41957,16771947,16747898,18010,25807,26686,30078,Tag0,unknown
1610372518379,51,67,1.4721679687500002E-5,0,0,0,758301,41957,16771947,16747898,18010,25807,26686,30078,Tag0,unknown
1610372518393,51,67,1.4721679687500002E-5,0,0,0,758301,41957,16771947,16747898,18010,25807,26686,30078,Tag0,unknown
1610372518403,51,67,1.4721679687500002E-5,0,0,0,758301,41957,16771947,16747898,18010,25807,26686,30078,Tag0,unknown
1610372518427,51,66,1.4501953125E-5,0,0,0,758301,41957,16771947,16747898,18010,25807,26686,30078,Tag0,unknown
1610372518437,51,66,1.4501953125E-5,0,0,0,758301,41957,16771947,16747898,18010,25807,26686,30078,Tag0,unknown
1610372518453,51,67,1.4721679687500002E-5,0,0,0,758301,41957,16771947,16747898,18010,25807,26686,30078,Tag0,unknown
1610372518468,51,67,1.4721679687500002E-5,0,0,0,758301,41957,16771947,16747898,18010,25807,26686,30078,Tag0,unknown
1610372518485,51,67,1.4721679687500002E-5,0,0,0,758301,41957,16771947,16747898,18010,25807,26686,30078,Tag0,unknown
1610372518502,51,67,1.4721679687500002E-5,0,0,0,758301,41957,16771947,16747898,18010,25807,26686,30078,Tag0,unknown
1610372518518,51,66,1.4501953125E-5,0,0,0,758301,41957,16771947,16747898,18010,25807,26686,30078,Tag0,unknown
1610372518540,51,66,1.4501953125E-5,0,0,0,758301,41957,16771947,16747898,18010,25807,26686,30078,Tag0,unknown
1610372518553,51,67,1.4721679687500002E-5,0,0,0,758301,41957,16771947,16747898,18010,25807,26686,30078,Tag0,unknown
1610372518573,51,67,1.4721679687500002E-5,0,0,0,758301,41957,16771947,16747898,18010,25807,26686,30078,Tag0,unknown
1610372518586,51,66,1.4501953125E-5,0,0,0,758301,41957,16771947,16747898,18010,25807,26686,30078,Tag0,unknown
1610372518596,51,66,1.4501953125E-5,0,0,0,758301,41957,16771947,16747898,18010,25807,26686,30078,Tag0,unknown
1610372518610,51,67,1.4721679687500002E-5,0,0,0,758301,41957,16771947,16747898,18010,25807,26686,30078,Tag0,unknown
1610372518620,51,67,1.4721679687500002E-5,0,0,0,758301,41957,16771947,16747898,18010,25807,26686,30078,Tag0,unknown
1610372518644,51,66,1.4501953125E-5,0,0,0,758301,41957,16771947,16747898,18010,25807,26686,30078,Tag0,unknown
1610372518654,51,67,1.4721679687500002E-5,0,0,0,758301,41957,16771947,16747898,18010,25807,26686,30078,Tag0,unknown
1610372518664,51,66,1.4501953125E-5,0,0,0,758301,41957,16771947,16747898,18010,25807,26686,30078,Tag0,unknown
1610372518685,51,67,1.4721679687500002E-5,0,0,0,758301,41957,16771947,16747898,18010,25807,26686,30078,Tag0,unknown
1610372518702,51,66,1.4501953125E-5,0,0,0,758301,41957,16771947,16747898,18010,25807,26686,30078,Tag0,unknown
1610372518719,51,66,1.4501953125E-5,0,0,0,758301,41957,16771947,16747898,18010,25807,26686,30078,Tag0,unknown
1610372518737,51,66,1.4501953125E-5,0,0,0,758301,41957,16771947,16747898,18010,25807,26686,30078,Tag0,unknown
1610372518760,54,67,1.4721679687500002E-5,0,0,0,45791,16755254,15143,10237,6226,3410,1014,441,Tag0,unknown
1610372518788,54,67,1.4721679687500002E-5,0,0,0,45791,16755254,15143,10237,6226,3410,1014,441,Tag0,unknown
1610372518802,54,67,1.4721679687500002E-5,0,0,0,45791,16755254,15143,10237,6226,3410,1014,441,Tag0,unknown
1610372518824,54,67,1.4721679687500002E-5,0,0,0,45791,16755254,15143,10237,6226,3410,1014,441,Tag0,unknown
1610372518837,54,67,1.4721679687500002E-5,0,0,0,45791,16755254,15143,10237,6226,3410,1014,441,Tag0,unknown
1610372518858,54,67,1.4721679687500002E-5,0,0,0,45791,16755254,15143,10237,6226,3410,1014,441,Tag0,unknown
1610372518871,54,67,1.4721679687500002E-5,0,0,0,45791,16755254,15143,10237,6226,3410,1014,441,Tag0,unknown
1610372518896,54,67,1.4721679687500002E-5,0,0,0,45791,16755254,15143,10237,6226,3410,1014,441,Tag0,unknown
1610372518906,54,68,1.4941406250000001E-5,0,0,0,45791,16755254,15143,10237,6226,3410,1014,441,Tag0,unknown
1610372518930,54,66,1.4501953125E-5,0,0,0,45791,16755254,15143,10237,6226,3410,1014,441,Tag0,unknown
1610372518940,54,67,1.4721679687500002E-5,0,0,0,45791,16755254,15143,10237,6226,3410,1014,441,Tag0,unknown
1610372518954,54,66,1.4501953125E-5,0,0,0,45791,16755254,15143,10237,6226,3410,1014,441,Tag0,unknown
1610372518969,54,67,1.4721679687500002E-5,0,0,0,45791,16755254,15143,10237,6226,3410,1014,441,Tag0,unknown
1610372518986,54,67,1.4721679687500002E-5,0,0,0,45791,16755254,15143,10237,6226,3410,1014,441,Tag0,unknown
1610372519002,54,67,1.4721679687500002E-5,0,0,0,45791,16755254,15143,10237,6226,3410,1014,441,Tag0,unknown
1610372519019,54,67,1.4721679687500002E-5,0,0,0,45791,16755254,15143,10237,6226,3410,1014,441,Tag0,unknown
1610372519037,54,68,1.4941406250000001E-5,0,0,0,45791,16755254,15143,10237,6226,3410,1014,441,Tag0,unknown
1610372519064,54,66,1.4501953125E-5,0,0,0,45791,16755254,15143,10237,6226,3410,1014,441,Tag0,unknown
1610372519074,54,67,1.4721679687500002E-5,0,0,0,45791,16755254,15143,10237,6226,3410,1014,441,Tag0,unknown
1610372519099,54,68,1.4941406250000001E-5,0,0,0,45791,16755254,15143,10237,6226,3410,1014,441,Tag0,unknown
1610372519109,54,1791,3.935302734375E-4,0,0,0,45791,16755254,15143,10237,6226,3410,1014,441,Tag0,unknown
1610372519121,54,1791,3.935302734375E-4,0,0,0,45791,16755254,15143,10237,6226,3410,1014,441,Tag0,unknown
1610372519139,54,1791,3.935302734375E-4,0,0,0,45791,16755254,15143,10237,6226,3410,1014,441,Tag0,unknown
1610372519154,54,1791,3.935302734375E-4,0,0,0,45791,16755254,15143,10237,6226,3410,1014,441,Tag0,unknown
1610372519173,54,1186,2.6059570312500003E-4,0,0,0,45791,16755254,15143,10237,6226,3410,1014,441,Tag0,unknown
1610372519188,54,1341,2.946533203125E-4,0,0,0,45791,16755254,15143,10237,6226,3410,1014,441,Tag0,unknown
1610372519198,54,391,8.591308593750001E-5,0,0,0,45791,16755254,15143,10237,6226,3410,1014,441,Tag0,unknown
1610372519211,54,604,1.3271484375E-4,0,0,0,45791,16755254,15143,10237,6226,3410,1014,441,Tag0,unknown
1610372519221,54,585,1.285400390625E-4,0,0,0,45791,16755254,15143,10237,6226,3410,1014,441,Tag0,unknown
1610372519244,54,153,3.3618164062500004E-5,0,0,0,45791,16755254,15143,10237,6226,3410,1014,441,Tag0,unknown
1610372519254,54,144,3.1640625E-5,0,0,0,45791,16755254,15143,10237,6226,3410,1014,441,Tag0,unknown
1610372519270,54,-51,-1.1206054687499999E-5,0,0,0,45791,16755254,15143,10237,6226,3410,1014,441,Tag0,unknown
1610372519302,54,-56,-1.23046875E-5,0,0,0,45791,16755254,15143,10237,6226,3410,1014,441,Tag0,unknown
1610372519321,54,-61,-1.34033203125E-5,0,0,0,45791,16755254,15143,10237,6226,3410,1014,441,Tag0,unknown
1610372519331,54,-127,-2.79052734375E-5,0,0,0,45791,16755254,15143,10237,6226,3410,1014,441,Tag0,unknown
1610372519341,54,120,2.63671875E-5,0,0,0,45791,16755254,15143,10237,6226,3410,1014,441,Tag0,unknown
1610372519355,54,113,2.48291015625E-5,0,0,0,45791,16755254,15143,10237,6226,3410,1014,441,Tag0,unknown
1610372519365,54,88,1.93359375E-5,0,0,0,45791,16755254,15143,10237,6226,3410,1014,441,Tag0,unknown
1610372519386,54,87,1.91162109375E-5,0,0,0,45791,16755254,15143,10237,6226,3410,1014,441,Tag0,unknown
1610372519406,54,78,1.7138671875E-5,0,0,0,45791,16755254,15143,10237,6226,3410,1014,441,Tag0,unknown
1610372519420,54,77,1.69189453125E-5,0,0,0,45791,16755254,15143,10237,6226,3410,1014,441,Tag0,unknown
1610372519440,54,75,1.64794921875E-5,0,0,0,45791,16755254,15143,10237,6226,3410,1014,441,Tag0,unknown
1610372519454,54,75,1.64794921875E-5,0,0,0,45791,16755254,15143,10237,6226,3410,1014,441,Tag0,unknown
1610372519464,54,69,1.51611328125E-5,0,0,0,45791,16755254,15143,10237,6226,3410,1014,441,Tag0,unknown
1610372519479,54,71,1.56005859375E-5,0,0,0,45791,16755254,15143,10237,6226,3410,1014,441,Tag0,unknown
1610372519489,54,70,1.5380859375E-5,0,0,0,45791,16755254,15143,10237,6226,3410,1014,441,Tag0,unknown
1610372519513,54,67,1.4721679687500002E-5,0,0,0,45791,16755254,15143,10237,6226,3410,1014,441,Tag0,unknown
1610372519523,54,72,1.58203125E-5,0,0,0,45791,16755254,15143,10237,6226,3410,1014,441,Tag0,unknown
1610372519538,54,69,1.51611328125E-5,0,0,0,45791,16755254,15143,10237,6226,3410,1014,441,Tag0,unknown
1610372519555,54,65,1.42822265625E-5,0,0,0,45791,16755254,15143,10237,6226,3410,1014,441,Tag0,unknown
1610372519571,54,66,1.4501953125E-5,0,0,0,45791,16755254,15143,10237,6226,3410,1014,441,Tag0,unknown
1610372519588,54,68,1.4941406250000001E-5,0,0,0,45791,16755254,15143,10237,6226,3410,1014,441,Tag0,unknown
1610372519605,54,68,1.4941406250000001E-5,0,0,0,45791,16755254,15143,10237,6226,3410,1014,441,Tag0,unknown
1610372519623,54,71,1.56005859375E-5,0,0,0,45791,16755254,15143,10237,6226,3410,1014,441,Tag0,unknown
1610372519637,54,68,1.4941406250000001E-5,0,0,0,45791,16755254,15143,10237,6226,3410,1014,441,Tag0,unknown
1610372519657,54,42,9.228515625000002E-6,0,0,0,45791,16755254,15143,10237,6226,3410,1014,441,Tag0,unknown
1610372519671,54,83,1.82373046875E-5,0,0,0,45791,16755254,15143,10237,6226,3410,1014,441,Tag0,unknown
1610372519681,54,65,1.42822265625E-5,0,0,0,45791,16755254,15143,10237,6226,3410,1014,441,Tag0,unknown
1610372519700,54,-267,-5.86669921875E-5,0,0,0,45791,16755254,15143,10237,6226,3410,1014,441,Tag0,unknown
1610372519710,54,-321,-7.053222656250001E-5,0,0,0,45791,16755254,15143,10237,6226,3410,1014,441,Tag0,unknown
1610372519722,54,106,2.3291015625000003E-5,0,0,0,45791,16755254,15143,10237,6226,3410,1014,441,Tag0,unknown
1610372519738,25,-300,-6.591796875E-5,0,0,0,330212,82199,16924,24082,20615,11742,3080,1848,Tag0,unknown
1610372519757,25,-321,-7.053222656250001E-5,0,0,0,330212,82199,16924,24082,20615,11742,3080,1848,Tag0,unknown
1610372519771,25,-334,-7.338867187500001E-5,0,0,0,330212,82199,16924,24082,20615,11742,3080,1848,Tag0,unknown
1610372519787,25,106,2.3291015625000003E-5,0,0,0,330212,82199,16924,24082,20615,11742,3080,1848,Tag0,unknown
1610372519812,25,29,6.3720703125E-6,0,0,0,330212,82199,16924,24082,20615,11742,3080,1848,Tag0,unknown
1610372519822,25,-301,-6.613769531250001E-5,0,0,0,330212,82199,16924,24082,20615,11742,3080,1848,Tag0,unknown
1610372519846,25,94,2.0654296875000002E-5,0,0,0,330212,82199,16924,24082,20615,11742,3080,1848,Tag0,unknown
1610372519856,25,-106,-2.3291015625000003E-5,0,0,0,330212,82199,16924,24082,20615,11742,3080,1848,Tag0,unknown
1610372519872,25,-381,-8.371582031250001E-5,0,0,0,330212,82199,16924,24082,20615,11742,3080,1848,Tag0,unknown
1610372519889,25,-293,-6.43798828125E-5,0,0,0,330212,82199,16924,24082,20615,11742,3080,1848,Tag0,unknown
1610372519905,25,-125,-2.74658203125E-5,0,0,0,330212,82199,16924,24082,20615,11742,3080,1848,Tag0,unknown
1610372519922,25,53,1.1645507812500002E-5,0,0,0,330212,82199,16924,24082,20615,11742,3080,1848,Tag0,unknown
1610372519939,25,-110,-2.4169921875E-5,0,0,0,330212,82199,16924,24082,20615,11742,3080,1848,Tag0,unknown
1610372519949,25,-25,-5.4931640625E-6,0,0,0,330212,82199,16924,24082,20615,11742,3080,1848,Tag0,unknown
1610372519972,25,106,2.3291015625000003E-5,0,0,0,330212,82199,16924,24082,20615,11742,3080,1848,Tag0,unknown
1610372519990,25,-195,-4.28466796875E-5,0,0,0,330212,82199,16924,24082,20615,11742,3080,1848,Tag0,unknown
1610372520006,25,-375,-8.23974609375E-5,0,0,0,330212,82199,16924,24082,20615,11742,3080,1848,Tag0,unknown
1610372520016,25,-374,-8.2177734375E-5,0,0,0,330212,82199,16924,24082,20615,11742,3080,1848,Tag0,unknown
1610372520029,25,-299,-6.56982421875E-5,0,0,0,330212,82199,16924,24082,20615,11742,3080,1848,Tag0,unknown
1610372520039,25,265,5.82275390625E-5,0,0,0,330212,82199,16924,24082,20615,11742,3080,1848,Tag0,unknown
1610372520062,25,-29,-6.3720703125E-6,0,0,0,330212,82199,16924,24082,20615,11742,3080,1848,Tag0,unknown
1610372520072,25,-96,-2.109375E-5,0,0,0,330212,82199,16924,24082,20615,11742,3080,1848,Tag0,unknown
1610372520088,25,-44,-9.66796875E-6,0,0,0,330212,82199,16924,24082,20615,11742,3080,1848,Tag0,unknown
1610372520105,25,-59,-1.29638671875E-5,0,0,0,330212,82199,16924,24082,20615,11742,3080,1848,Tag0,unknown
1610372520134,25,-66,-1.4501953125E-5,0,0,0,330212,82199,16924,24082,20615,11742,3080,1848,Tag0,unknown
1610372520144,25,-95,-2.08740234375E-5,0,0,0,330212,82199,16924,24082,20615,11742,3080,1848,Tag0,unknown
1610372520155,25,-100,-2.197265625E-5,0,0,0,330212,82199,16924,24082,20615,11742,3080,1848,Tag0,unknown
1610372520175,25,1207,2.652099609375E-4,0,0,0,330212,82199,16924,24082,20615,11742,3080,1848,Tag0,unknown
1610372520188,25,229,5.03173828125E-5,0,0,0,330212,82199,16924,24082,20615,11742,3080,1848,Tag0,unknown
1610372520211,25,-2048,-4.5E-4,0,0,0,330212,82199,16924,24082,20615,11742,3080,1848,Tag0,unknown
1610372520221,25,-2048,-4.5E-4,0,0,0,330212,82199,16924,24082,20615,11742,3080,1848,Tag0,unknown
1610372520247,25,-1574,-3.45849609375E-4,0,0,0,330212,82199,16924,24082,20615,11742,3080,1848,Tag0,unknown
1610372520257,25,-1267,-2.7839355468749997E-4,0,0,0,330212,82199,16924,24082,20615,11742,3080,1848,Tag0,unknown
1610372520281,25,-1074,-2.35986328125E-4,0,0,0,330212,82199,16924,24082,20615,11742,3080,1848,Tag0,unknown
1610372520291,25,-725,-1.593017578125E-4,0,0,0,330212,82199,16924,24082,20615,11742,3080,1848,Tag0,unknown
1610372520306,25,-625,-1.373291015625E-4,0,0,0,330212,82199,16924,24082,20615,11742,3080,1848,Tag0,unknown
1610372520323,25,-536,-1.1777343750000001E-4,0,0,0,330212,82199,16924,24082,20615,11742,3080,1848,Tag0,unknown
1610372520339,25,-523,-1.149169921875E-4,0,0,0,330212,82199,16924,24082,20615,11742,3080,1848,Tag0,unknown
1610372520357,25,-148,-3.251953125E-5,0,0,0,330212,82199,16924,24082,20615,11742,3080,1848,Tag0,unknown
1610372520372,25,-136,-2.9882812500000002E-5,0,0,0,330212,82199,16924,24082,20615,11742,3080,1848,Tag0,unknown
1610372520382,25,-276,-6.064453125E-5,0,0,0,330212,82199,16924,24082,20615,11742,3080,1848,Tag0,unknown
1610372520393,25,-273,-5.998535156250001E-5,0,0,0,330212,82199,16924,24082,20615,11742,3080,1848,Tag0,unknown
1610372520406,25,-269,-5.9106445312499996E-5,0,0,0,330212,82199,16924,24082,20615,11742,3080,1848,Tag0,unknown
1610372520427,25,11,2.4169921875E-6,0,0,0,330212,82199,16924,24082,20615,11742,3080,1848,Tag0,unknown
1610372520440,25,13,2.8564453125E-6,0,0,0,330212,82199,16924,24082,20615,11742,3080,1848,Tag0,unknown
1610372520450,25,40,8.7890625E-6,0,0,0,330212,82199,16924,24082,20615,11742,3080,1848,Tag0,unknown
1610372520468,25,43,9.448242187500001E-6,0,0,0,330212,82199,16924,24082,20615,11742,3080,1848,Tag0,unknown
1610372520478,25,51,1.1206054687499999E-5,0,0,0,330212,82199,16924,24082,20615,11742,3080,1848,Tag0,unknown
1610372520490,25,53,1.1645507812500002E-5,0,0,0,330212,82199,16924,24082,20615,11742,3080,1848,Tag0,unknown
1610372520506,25,53,1.1645507812500002E-5,0,0,0,330212,82199,16924,24082,20615,11742,3080,1848,Tag0,unknown
1610372520523,25,55,1.20849609375E-5,0,0,0,330212,82199,16924,24082,20615,11742,3080,1848,Tag0,unknown
1610372520540,25,1791,3.935302734375E-4,0,0,0,330212,82199,16924,24082,20615,11742,3080,1848,Tag0,unknown
1610372520557,25,1791,3.935302734375E-4,0,0,0,330212,82199,16924,24082,20615,11742,3080,1848,Tag0,unknown
1610372520582,25,1791,3.935302734375E-4,0,0,0,330212,82199,16924,24082,20615,11742,3080,1848,Tag0,unknown
1610372520592,25,1791,3.935302734375E-4,0,0,0,330212,82199,16924,24082,20615,11742,3080,1848,Tag0,unknown
1610372520606,25,-2048,-4.5E-4,0,0,0,330212,82199,16924,24082,20615,11742,3080,1848,Tag0,unknown
1610372520622,25,-2048,-4.5E-4,0,0,0,330212,82199,16924,24082,20615,11742,3080,1848,Tag0,unknown
1610372520639,25,-2027,-4.453857421875E-4,0,0,0,330212,82199,16924,24082,20615,11742,3080,1848,Tag0,unknown
1610372520663,25,1791,3.935302734375E-4,0,0,0,330212,82199,16924,24082,20615,11742,3080,1848,Tag0,unknown
1610372520673,25,-2046,-4.4956054687500004E-4,0,0,0,330212,82199,16924,24082,20615,11742,3080,1848,Tag0,unknown
1610372520697,25,-1268,-2.7861328125E-4,0,0,0,330212,82199,16924,24082,20615,11742,3080,1848,Tag0,unknown
1610372520707,25,-1219,-2.6784667968750005E-4,0,0,0,330212,82199,16924,24082,20615,11742,3080,1848,Tag0,unknown
1610372520717,25,-1918,-4.21435546875E-4,0,0,0,330212,82199,16924,24082,20615,11742,3080,1848,Tag0,unknown
1610372520733,25,1791,3.935302734375E-4,0,0,0,330212,82199,16924,24082,20615,11742,3080,1848,Tag0,unknown
1610372520744,51,-2060,-4.5263671875E-4,0,0,0,1297436,457682,88076,231175,472914,122901,416186,58742,Tag0,unknown
1610372520762,51,-1545,-3.394775390625E-4,0,0,0,1297436,457682,88076,231175,472914,122901,416186,58742,Tag0,unknown
1610372520773,51,1791,3.935302734375E-4,0,0,0,1297436,457682,88076,231175,472914,122901,416186,58742,Tag0,unknown
1610372520789,51,1791,3.935302734375E-4,0,0,0,1297436,457682,88076,231175,472914,122901,416186,58742,Tag0,unknown
1610372520807,51,-1213,-2.6652832031250003E-4,0,0,0,1297436,457682,88076,231175,472914,122901,416186,58742,Tag0,unknown
1610372520823,51,1791,3.935302734375E-4,0,0,0,1297436,457682,88076,231175,472914,122901,416186,58742,Tag0,unknown
1610372520833,51,-2048,-4.5E-4,0,0,0,1297436,457682,88076,231175,472914,122901,416186,58742,Tag0,unknown
1610372520847,51,-2048,-4.5E-4,0,0,0,1297436,457682,88076,231175,472914,122901,416186,58742,Tag0,unknown
1610372520857,51,-2048,-4.5E-4,0,0,0,1297436,457682,88076,231175,472914,122901,416186,58742,Tag0,unknown
1610372520881,51,1791,3.935302734375E-4,0,0,0,1297436,457682,88076,231175,472914,122901,416186,58742,Tag0,unknown
1610372520891,51,1791,3.935302734375E-4,0,0,0,1297436,457682,88076,231175,472914,122901,416186,58742,Tag0,unknown
1610372520907,51,-2048,-4.5E-4,0,0,0,1297436,457682,88076,231175,472914,122901,416186,58742,Tag0,unknown
1610372520923,51,-1993,-4.379150390625E-4,0,0,0,1297436,457682,88076,231175,472914,122901,416186,58742,Tag0,unknown
1610372520939,51,1791,3.935302734375E-4,0,0,0,1297436,457682,88076,231175,472914,122901,416186,58742,Tag0,unknown
1610372520956,51,1791,3.935302734375E-4,0,0,0,1297436,457682,88076,231175,472914,122901,416186,58742,Tag0,unknown
1610372520975,51,-2048,-4.5E-4,0,0,0,1297436,457682,88076,231175,472914,122901,416186,58742,Tag0,unknown
1610372520992,51,-2048,-4.5E-4,0,0,0,1297436,457682,88076,231175,472914,122901,416186,58742,Tag0,unknown
1610372521007,51,-2048,-4.5E-4,0,0,0,1297436,457682,88076,231175,472914,122901,416186,58742,Tag0,unknown
1610372521026,51,-1880,-4.130859375E-4,0,0,0,1297436,457682,88076,231175,472914,122901,416186,58742,Tag0,unknown
1610372521041,51,-1819,-3.9968261718750005E-4,0,0,0,1297436,457682,88076,231175,472914,122901,416186,58742,Tag0,unknown
1610372521051,51,-2048,-4.5E-4,0,0,0,1297436,457682,88076,231175,472914,122901,416186,58742,Tag0,unknown
1610372521074,51,-2048,-4.5E-4,0,0,0,1297436,457682,88076,231175,472914,122901,416186,58742,Tag0,unknown
1610372521090,51,-2048,-4.5E-4,0,0,0,1297436,457682,88076,231175,472914,122901,416186,58742,Tag0,unknown
1610372521100,51,1791,3.935302734375E-4,0,0,0,1297436,457682,88076,231175,472914,122901,416186,58742,Tag0,unknown
1610372521114,51,1031,2.265380859375E-4,0,0,0,1297436,457682,88076,231175,472914,122901,416186,58742,Tag0,unknown
1610372521125,51,112,2.4609375E-5,0,0,0,1297436,457682,88076,231175,472914,122901,416186,58742,Tag0,unknown
1610372521149,51,1791,3.935302734375E-4,0,0,0,1297436,457682,88076,231175,472914,122901,416186,58742,Tag0,unknown
1610372521159,51,-2048,-4.5E-4,0,0,0,1297436,457682,88076,231175,472914,122901,416186,58742,Tag0,unknown
1610372521176,51,-2048,-4.5E-4,0,0,0,1297436,457682,88076,231175,472914,122901,416186,58742,Tag0,unknown
1610372521190,51,1791,3.935302734375E-4,0,0,0,1297436,457682,88076,231175,472914,122901,416186,58742,Tag0,unknown
1610372521206,51,1791,3.935302734375E-4,0,0,0,1297436,457682,88076,231175,472914,122901,416186,58742,Tag0,unknown
1610372521224,51,-2048,-4.5E-4,0,0,0,1297436,457682,88076,231175,472914,122901,416186,58742,Tag0,unknown
1610372521242,51,-2048,-4.5E-4,0,0,0,1297436,457682,88076,231175,472914,122901,416186,58742,Tag0,unknown
1610372521252,51,-1829,-4.0187988281250003E-4,0,0,0,1297436,457682,88076,231175,472914,122901,416186,58742,Tag0,unknown
1610372521262,51,-1512,-3.322265625E-4,0,0,0,1297436,457682,88076,231175,472914,122901,416186,58742,Tag0,unknown
1610372521275,51,-1451,-3.188232421875E-4,0,0,0,1297436,457682,88076,231175,472914,122901,416186,58742,Tag0,unknown
1610372521296,51,1791,3.935302734375E-4,0,0,0,1297436,457682,88076,231175,472914,122901,416186,58742,Tag0,unknown
1610372521307,51,1791,3.935302734375E-4,0,0,0,1297436,457682,88076,231175,472914,122901,416186,58742,Tag0,unknown
1610372521317,51,1791,3.935302734375E-4,0,0,0,1297436,457682,88076,231175,472914,122901,416186,58742,Tag0,unknown
1610372521333,51,-2048,-4.5E-4,0,0,0,1297436,457682,88076,231175,472914,122901,416186,58742,Tag0,unknown
1610372521343,51,1791,3.935302734375E-4,0,0,0,1297436,457682,88076,231175,472914,122901,416186,58742,Tag0,unknown
1610372521476,51,-2048,-4.5E-4,0,0,0,1297436,457682,88076,231175,472914,122901,416186,58742,Tag0,unknown
1610372521491,51,-2048,-4.5E-4,0,0,0,1297436,457682,88076,231175,472914,122901,416186,58742,Tag0,unknown
1610372521501,51,-1825,-4.010009765625E-4,0,0,0,1297436,457682,88076,231175,472914,122901,416186,58742,Tag0,unknown
1610372521551,51,1791,3.935302734375E-4,0,0,0,1297436,457682,88076,231175,472914,122901,416186,58742,Tag0,unknown
1610372521561,51,-2048,-4.5E-4,0,0,0,1297436,457682,88076,231175,472914,122901,416186,58742,Tag0,unknown
1610372521619,51,1791,3.935302734375E-4,0,0,0,1297436,457682,88076,231175,472914,122901,416186,58742,Tag0,unknown
1610372521629,51,-364,-7.998046875E-5,0,0,0,1297436,457682,88076,231175,472914,122901,416186,58742,Tag0,unknown
1610372521689,51,1791,3.935302734375E-4,0,0,0,1297436,457682,88076,231175,472914,122901,416186,58742,Tag0,unknown
1610372521710,51,1798,3.95068359375E-4,0,0,0,1297436,457682,88076,231175,472914,122901,416186,58742,Tag0,unknown
1610372521823,51,-2048,-4.5E-4,0,0,0,1297436,457682,88076,231175,472914,122901,416186,58742,Tag0,unknown
1610372521842,51,-2048,-4.5E-4,0,0,0,1297436,457682,88076,231175,472914,122901,416186,58742,Tag0,unknown
1610372521852,51,1791,3.935302734375E-4,0,0,0,1297436,457682,88076,231175,472914,122901,416186,58742,Tag0,unknown
1610372521910,51,-2048,-4.5E-4,0,0,0,1297436,457682,88076,231175,472914,122901,416186,58742,Tag0,unknown
1610372521928,51,-2048,-4.5E-4,0,0,0,1297436,457682,88076,231175,472914,122901,416186,58742,Tag0,unknown
1610372521938,51,1791,3.935302734375E-4,0,0,0,1297436,457682,88076,231175,472914,122901,416186,58742,Tag0,unknown
1610372521948,51,1289,2.8322753906250003E-4,0,0,0,1297436,457682,88076,231175,472914,122901,416186,58742,Tag0,unknown
1610372521958,51,1791,3.935302734375E-4,0,0,0,1297436,457682,88076,231175,472914,122901,416186,58742,Tag0,unknown
1610372521968,51,-2048,-4.5E-4,0,0,0,1297436,457682,88076,231175,472914,122901,416186,58742,Tag0,unknown
1610372521995,51,-2034,-4.4692382812500006E-4,0,0,0,1297436,457682,88076,231175,472914,122901,416186,58742,Tag0,unknown
1610372522009,51,-1939,-4.260498046875E-4,0,0,0,1297436,457682,88076,231175,472914,122901,416186,58742,Tag0,unknown
1610372522036,51,1791,3.935302734375E-4,0,0,0,1297436,457682,88076,231175,472914,122901,416186,58742,Tag0,unknown
1610372522046,51,1791,3.935302734375E-4,0,0,0,1297436,457682,88076,231175,472914,122901,416186,58742,Tag0,unknown
1610372522070,51,-2077,-4.563720703125E-4,0,0,0,1297436,457682,88076,231175,472914,122901,416186,58742,Tag0,unknown
1610372522080,51,1791,3.935302734375E-4,0,0,0,1297436,457682,88076,231175,472914,122901,416186,58742,Tag0,unknown
1610372522093,51,-2048,-4.5E-4,0,0,0,1297436,457682,88076,231175,472914,122901,416186,58742,Tag0,unknown
1610372522111,51,-2048,-4.5E-4,0,0,0,1297436,457682,88076,231175,472914,122901,416186,58742,Tag0,unknown
1610372522126,51,1791,3.935302734375E-4,0,0,0,1297436,457682,88076,231175,472914,122901,416186,58742,Tag0,unknown
1610372522143,51,1791,3.935302734375E-4,0,0,0,1297436,457682,88076,231175,472914,122901,416186,58742,Tag0,unknown
1610372522160,51,1791,3.935302734375E-4,0,0,0,1297436,457682,88076,231175,472914,122901,416186,58742,Tag0,unknown
1610372522182,51,-137,-3.0102539062499998E-5,0,0,0,1297436,457682,88076,231175,472914,122901,416186,58742,Tag0,unknown
1610372522192,51,1791,3.935302734375E-4,0,0,0,1297436,457682,88076,231175,472914,122901,416186,58742,Tag0,unknown
1610372522216,51,1417,3.1135253906249997E-4,0,0,0,1297436,457682,88076,231175,472914,122901,416186,58742,Tag0,unknown
1610372522226,51,1617,3.552978515625E-4,0,0,0,1297436,457682,88076,231175,472914,122901,416186,58742,Tag0,unknown
1610372522242,51,-2048,-4.5E-4,0,0,0,1297436,457682,88076,231175,472914,122901,416186,58742,Tag0,unknown
1610372522260,51,-2048,-4.5E-4,0,0,0,1297436,457682,88076,231175,472914,122901,416186,58742,Tag0,unknown
1610372522276,51,-2042,-4.4868164062499997E-4,0,0,0,1297436,457682,88076,231175,472914,122901,416186,58742,Tag0,unknown
1610372522294,51,-805,-1.768798828125E-4,0,0,0,1297436,457682,88076,231175,472914,122901,416186,58742,Tag0,unknown
1610372522311,51,1791,3.935302734375E-4,0,0,0,1297436,457682,88076,231175,472914,122901,416186,58742,Tag0,unknown
1610372522329,51,-1769,-3.886962890625E-4,0,0,0,1297436,457682,88076,231175,472914,122901,416186,58742,Tag0,unknown
1610372522344,51,1791,3.935302734375E-4,0,0,0,1297436,457682,88076,231175,472914,122901,416186,58742,Tag0,unknown
1610372522362,51,1791,3.935302734375E-4,0,0,0,1297436,457682,88076,231175,472914,122901,416186,58742,Tag0,unknown
1610372522376,51,1791,3.935302734375E-4,0,0,0,1297436,457682,88076,231175,472914,122901,416186,58742,Tag0,unknown
1610372522425,51,-1301,-2.858642578125E-4,0,0,0,1297436,457682,88076,231175,472914,122901,416186,58742,Tag0,unknown
1610372522443,51,-2048,-4.5E-4,0,0,0,1297436,457682,88076,231175,472914,122901,416186,58742,Tag0,unknown
1610372522453,51,1791,3.935302734375E-4,0,0,0,1297436,457682,88076,231175,472914,122901,416186,58742,Tag0,unknown
1610372522490,51,1791,3.935302734375E-4,0,0,0,1297436,457682,88076,231175,472914,122901,416186,58742,Tag0,unknown
1610372522510,51,1791,3.935302734375E-4,0,0,0,1297436,457682,88076,231175,472914,122901,416186,58742,Tag0,unknown
1610372522520,51,-2048,-4.5E-4,0,0,0,1297436,457682,88076,231175,472914,122901,416186,58742,Tag0,unknown
1610372522555,51,1141,2.5070800781250004E-4,0,0,0,1297436,457682,88076,231175,472914,122901,416186,58742,Tag0,unknown
1610372522579,51,-1239,-2.7224121093750005E-4,0,0,0,1297436,457682,88076,231175,472914,122901,416186,58742,Tag0,unknown
1610372522589,51,-2048,-4.5E-4,0,0,0,1297436,457682,88076,231175,472914,122901,416186,58742,Tag0,unknown
1610372522600,51,1791,3.935302734375E-4,0,0,0,1297436,457682,88076,231175,472914,122901,416186,58742,Tag0,unknown
1610372522610,51,-2048,-4.5E-4,0,0,0,1297436,457682,88076,231175,472914,122901,416186,58742,Tag0,unknown
1610372522630,51,-2048,-4.5E-4,0,0,0,1297436,457682,88076,231175,472914,122901,416186,58742,Tag0,unknown
1610372522643,51,-2048,-4.5E-4,0,0,0,1297436,457682,88076,231175,472914,122901,416186,58742,Tag0,unknown
1610372522669,51,1791,3.935302734375E-4,0,0,0,1297436,457682,88076,231175,472914,122901,416186,58742,Tag0,unknown
1610372522679,51,-2048,-4.5E-4,0,0,0,1297436,457682,88076,231175,472914,122901,416186,58742,Tag0,unknown
1610372522702,51,1791,3.935302734375E-4,0,0,0,1297436,457682,88076,231175,472914,122901,416186,58742,Tag0,unknown
1610372522712,51,1791,3.935302734375E-4,0,0,0,1297436,457682,88076,231175,472914,122901,416186,58742,Tag0,unknown
1610372522741,51,-2048,-4.5E-4,0,0,0,802827,314427,68711,44413,321220,343407,177293,16768553,Tag0,unknown
1610372522762,51,-2048,-4.5E-4,0,0,0,802827,314427,68711,44413,321220,343407,177293,16768553,Tag0,unknown
1610372522781,51,1791,3.935302734375E-4,0,0,0,802827,314427,68711,44413,321220,343407,177293,16768553,Tag0,unknown
1610372522794,51,1791,3.935302734375E-4,0,0,0,802827,314427,68711,44413,321220,343407,177293,16768553,Tag0,unknown
1610372522814,51,-2048,-4.5E-4,0,0,0,802827,314427,68711,44413,321220,343407,177293,16768553,Tag0,unknown
1610372522828,51,-2048,-4.5E-4,0,0,0,802827,314427,68711,44413,321220,343407,177293,16768553,Tag0,unknown
1610372522838,51,-2048,-4.5E-4,0,0,0,802827,314427,68711,44413,321220,343407,177293,16768553,Tag0,unknown
1610372522854,51,-2048,-4.5E-4,0,0,0,802827,314427,68711,44413,321220,343407,177293,16768553,Tag0,unknown
1610372522888,51,-2109,-4.6340332031250003E-4,0,0,0,802827,314427,68711,44413,321220,343407,177293,16768553,Tag0,unknown
1610372522912,51,1484,3.2607421875000003E-4,0,0,0,802827,314427,68711,44413,321220,343407,177293,16768553,Tag0,unknown
1610372522929,51,1261,2.770751953125E-4,0,0,0,802827,314427,68711,44413,321220,343407,177293,16768553,Tag0,unknown
1610372522945,51,-2048,-4.5E-4,0,0,0,802827,314427,68711,44413,321220,343407,177293,16768553,Tag0,unknown
1610372522961,51,1737,3.816650390625E-4,0,0,0,802827,314427,68711,44413,321220,343407,177293,16768553,Tag0,unknown
1610372522978,51,1791,3.935302734375E-4,0,0,0,802827,314427,68711,44413,321220,343407,177293,16768553,Tag0,unknown
1610372522988,51,1791,3.935302734375E-4,0,0,0,802827,314427,68711,44413,321220,343407,177293,16768553,Tag0,unknown
1610372523001,51,-2048,-4.5E-4,0,0,0,802827,314427,68711,44413,321220,343407,177293,16768553,Tag0,unknown
1610372523012,51,-2048,-4.5E-4,0,0,0,802827,314427,68711,44413,321220,343407,177293,16768553,Tag0,unknown
1610372523034,51,1791,3.935302734375E-4,0,0,0,802827,314427,68711,44413,321220,343407,177293,16768553,Tag0,unknown
1610372523046,51,1791,3.935302734375E-4,0,0,0,802827,314427,68711,44413,321220,343407,177293,16768553,Tag0,unknown
1610372523056,51,-1953,-4.291259765625E-4,0,0,0,802827,314427,68711,44413,321220,343407,177293,16768553,Tag0,unknown
1610372523073,51,-2048,-4.5E-4,0,0,0,802827,314427,68711,44413,321220,343407,177293,16768553,Tag0,unknown
1610372523107,51,-2048,-4.5E-4,0,0,0,802827,314427,68711,44413,321220,343407,177293,16768553,Tag0,unknown
1610372523128,51,1681,3.6936035156250003E-4,0,0,0,802827,314427,68711,44413,321220,343407,177293,16768553,Tag0,unknown
1610372523146,51,1791,3.935302734375E-4,0,0,0,802827,314427,68711,44413,321220,343407,177293,16768553,Tag0,unknown
1610372523162,51,-2048,-4.5E-4,0,0,0,802827,314427,68711,44413,321220,343407,177293,16768553,Tag0,unknown
1610372523181,51,-2048,-4.5E-4,0,0,0,802827,314427,68711,44413,321220,343407,177293,16768553,Tag0,unknown
1610372523195,51,-2022,-4.4428710937499997E-4,0,0,0,802827,314427,68711,44413,321220,343407,177293,16768553,Tag0,unknown
1610372523214,51,-2059,-4.5241699218750005E-4,0,0,0,802827,314427,68711,44413,321220,343407,177293,16768553,Tag0,unknown
1610372523229,51,1791,3.935302734375E-4,0,0,0,802827,314427,68711,44413,321220,343407,177293,16768553,Tag0,unknown
1610372523246,51,-363,-7.97607421875E-5,0,0,0,802827,314427,68711,44413,321220,343407,177293,16768553,Tag0,unknown
1610372523261,51,-2048,-4.5E-4,0,0,0,802827,314427,68711,44413,321220,343407,177293,16768553,Tag0,unknown
1610372523282,51,1791,3.935302734375E-4,0,0,0,802827,314427,68711,44413,321220,343407,177293,16768553,Tag0,unknown
1610372523295,51,1791,3.935302734375E-4,0,0,0,802827,314427,68711,44413,321220,343407,177293,16768553,Tag0,unknown
1610372523321,51,-1569,-3.4475097656250003E-4,0,0,0,802827,314427,68711,44413,321220,343407,177293,16768553,Tag0,unknown
1610372523331,51,1791,3.935302734375E-4,0,0,0,802827,314427,68711,44413,321220,343407,177293,16768553,Tag0,unknown
1610372523354,51,1791,3.935302734375E-4,0,0,0,802827,314427,68711,44413,321220,343407,177293,16768553,Tag0,unknown
1610372523364,51,1791,3.935302734375E-4,0,0,0,802827,314427,68711,44413,321220,343407,177293,16768553,Tag0,unknown
1610372523379,51,1791,3.935302734375E-4,0,0,0,802827,314427,68711,44413,321220,343407,177293,16768553,Tag0,unknown
1610372523396,51,-2048,-4.5E-4,0,0,0,802827,314427,68711,44413,321220,343407,177293,16768553,Tag0,unknown
1610372523424,51,-2048,-4.5E-4,0,0,0,802827,314427,68711,44413,321220,343407,177293,16768553,Tag0,unknown
1610372523434,51,-1961,-4.3088378906250003E-4,0,0,0,802827,314427,68711,44413,321220,343407,177293,16768553,Tag0,unknown
1610372523446,51,-2074,-4.55712890625E-4,0,0,0,802827,314427,68711,44413,321220,343407,177293,16768553,Tag0,unknown
1610372523465,51,1791,3.935302734375E-4,0,0,0,802827,314427,68711,44413,321220,343407,177293,16768553,Tag0,unknown
1610372523477,51,1791,3.935302734375E-4,0,0,0,802827,314427,68711,44413,321220,343407,177293,16768553,Tag0,unknown
1610372523499,51,1457,3.201416015625E-4,0,0,0,802827,314427,68711,44413,321220,343407,177293,16768553,Tag0,unknown
1610372523511,51,1654,3.6342773437500004E-4,0,0,0,802827,314427,68711,44413,321220,343407,177293,16768553,Tag0,unknown
1610372523536,51,1576,3.462890625E-4,0,0,0,802827,314427,68711,44413,321220,343407,177293,16768553,Tag0,unknown
1610372523546,51,1266,2.7817382812500005E-4,0,0,0,802827,314427,68711,44413,321220,343407,177293,16768553,Tag0,unknown
1610372523571,51,1373,3.016845703125E-4,0,0,0,802827,314427,68711,44413,321220,343407,177293,16768553,Tag0,unknown
1610372523581,51,1021,2.2434082031249999E-4,0,0,0,802827,314427,68711,44413,321220,343407,177293,16768553,Tag0,unknown
1610372523596,51,1437,3.157470703125E-4,0,0,0,802827,314427,68711,44413,321220,343407,177293,16768553,Tag0,unknown
1610372523613,51,1622,3.56396484375E-4,0,0,0,802827,314427,68711,44413,321220,343407,177293,16768553,Tag0,unknown
1610372523629,51,1101,2.419189453125E-4,0,0,0,802827,314427,68711,44413,321220,343407,177293,16768553,Tag0,unknown
1610372523667,51,-1079,-2.3708496093750002E-4,0,0,0,802827,314427,68711,44413,321220,343407,177293,16768553,Tag0,unknown
1610372523679,51,-1471,-3.232177734375E-4,0,0,0,802827,314427,68711,44413,321220,343407,177293,16768553,Tag0,unknown
1610372523689,51,-1546,-3.3969726562500005E-4,0,0,0,802827,314427,68711,44413,321220,343407,177293,16768553,Tag0,unknown
1610372523731,51,1791,3.935302734375E-4,0,0,0,802827,314427,68711,44413,321220,343407,177293,16768553,Tag0,unknown
1610372523746,51,1791,3.935302734375E-4,0,0,0,802827,314427,68711,44413,321220,343407,177293,16768553,Tag0,unknown
1610372523756,51,-2048,-4.5E-4,0,0,0,676342,16774197,109171,108755,287312,234786,51011,16775446,Tag0,unknown
1610372523797,51,1791,3.935302734375E-4,0,0,0,676342,16774197,109171,108755,287312,234786,51011,16775446,Tag0,unknown
1610372523812,51,-451,-9.909667968750001E-5,0,0,0,676342,16774197,109171,108755,287312,234786,51011,16775446,Tag0,unknown
1610372523828,51,-2048,-4.5E-4,0,0,0,676342,16774197,109171,108755,287312,234786,51011,16775446,Tag0,unknown
1610372523857,51,-2048,-4.5E-4,0,0,0,676342,16774197,109171,108755,287312,234786,51011,16775446,Tag0,unknown
1610372523867,51,-1921,-4.220947265625E-4,0,0,0,676342,16774197,109171,108755,287312,234786,51011,16775446,Tag0,unknown
1610372523880,51,1791,3.935302734375E-4,0,0,0,676342,16774197,109171,108755,287312,234786,51011,16775446,Tag0,unknown
1610372523896,51,1791,3.935302734375E-4,0,0,0,676342,16774197,109171,108755,287312,234786,51011,16775446,Tag0,unknown
1610372523913,51,1791,3.935302734375E-4,0,0,0,676342,16774197,109171,108755,287312,234786,51011,16775446,Tag0,unknown
1610372523923,51,-2048,-4.5E-4,0,0,0,676342,16774197,109171,108755,287312,234786,51011,16775446,Tag0,unknown
1610372523947,51,1791,3.935302734375E-4,0,0,0,676342,16774197,109171,108755,287312,234786,51011,16775446,Tag0,unknown
1610372523966,51,1791,3.935302734375E-4,0,0,0,676342,16774197,109171,108755,287312,234786,51011,16775446,Tag0,unknown
1610372523979,51,1791,3.935302734375E-4,0,0,0,676342,16774197,109171,108755,287312,234786,51011,16775446,Tag0,unknown
1610372524000,51,1478,3.24755859375E-4,0,0,0,676342,16774197,109171,108755,287312,234786,51011,16775446,Tag0,unknown
1610372524012,51,1417,3.1135253906249997E-4,0,0,0,676342,16774197,109171,108755,287312,234786,51011,16775446,Tag0,unknown
1610372524022,51,-2048,-4.5E-4,0,0,0,676342,16774197,109171,108755,287312,234786,51011,16775446,Tag0,unknown
1610372524037,51,-2048,-4.5E-4,0,0,0,676342,16774197,109171,108755,287312,234786,51011,16775446,Tag0,unknown
1610372524047,51,-2048,-4.5E-4,0,0,0,676342,16774197,109171,108755,287312,234786,51011,16775446,Tag0,unknown
1610372524071,51,-2048,-4.5E-4,0,0,0,676342,16774197,109171,108755,287312,234786,51011,16775446,Tag0,unknown
1610372524081,51,-2048,-4.5E-4,0,0,0,676342,16774197,109171,108755,287312,234786,51011,16775446,Tag0,unknown
1610372524097,51,1805,3.966064453125E-4,0,0,0,676342,16774197,109171,108755,287312,234786,51011,16775446,Tag0,unknown
1610372524114,51,-2048,-4.5E-4,0,0,0,676342,16774197,109171,108755,287312,234786,51011,16775446,Tag0,unknown
1610372524130,51,1791,3.935302734375E-4,0,0,0,676342,16774197,109171,108755,287312,234786,51011,16775446,Tag0,unknown
1610372524147,51,-2048,-4.5E-4,0,0,0,676342,16774197,109171,108755,287312,234786,51011,16775446,Tag0,unknown
1610372524163,51,-2048,-4.5E-4,0,0,0,676342,16774197,109171,108755,287312,234786,51011,16775446,Tag0,unknown
1610372524184,51,-2048,-4.5E-4,0,0,0,676342,16774197,109171,108755,287312,234786,51011,16775446,Tag0,unknown
1610372524196,51,-2048,-4.5E-4,0,0,0,676342,16774197,109171,108755,287312,234786,51011,16775446,Tag0,unknown
1610372524218,51,-1789,-3.930908203125E-4,0,0,0,676342,16774197,109171,108755,287312,234786,51011,16775446,Tag0,unknown
1610372524229,51,-1721,-3.7814941406250004E-4,0,0,0,676342,16774197,109171,108755,287312,234786,51011,16775446,Tag0,unknown
1610372524239,51,1791,3.935302734375E-4,0,0,0,676342,16774197,109171,108755,287312,234786,51011,16775446,Tag0,unknown
1610372524256,51,1791,3.935302734375E-4,0,0,0,676342,16774197,109171,108755,287312,234786,51011,16775446,Tag0,unknown
1610372524266,51,-2048,-4.5E-4,0,0,0,676342,16774197,109171,108755,287312,234786,51011,16775446,Tag0,unknown
1610372524290,51,1791,3.935302734375E-4,0,0,0,676342,16774197,109171,108755,287312,234786,51011,16775446,Tag0,unknown
1610372524300,51,1791,3.935302734375E-4,0,0,0,676342,16774197,109171,108755,287312,234786,51011,16775446,Tag0,unknown
1610372524314,51,-1313,-2.885009765625E-4,0,0,0,676342,16774197,109171,108755,287312,234786,51011,16775446,Tag0,unknown
1610372524333,51,1836,4.0341796875E-4,0,0,0,676342,16774197,109171,108755,287312,234786,51011,16775446,Tag0,unknown
1610372524348,51,-2048,-4.5E-4,0,0,0,676342,16774197,109171,108755,287312,234786,51011,16775446,Tag0,unknown
1610372524365,51,-2048,-4.5E-4,0,0,0,676342,16774197,109171,108755,287312,234786,51011,16775446,Tag0,unknown
1610372524379,51,1791,3.935302734375E-4,0,0,0,676342,16774197,109171,108755,287312,234786,51011,16775446,Tag0,unknown
1610372524422,51,-2048,-4.5E-4,0,0,0,676342,16774197,109171,108755,287312,234786,51011,16775446,Tag0,unknown
1610372524432,51,-2048,-4.5E-4,0,0,0,676342,16774197,109171,108755,287312,234786,51011,16775446,Tag0,unknown
1610372524458,51,1791,3.935302734375E-4,0,0,0,676342,16774197,109171,108755,287312,234786,51011,16775446,Tag0,unknown
1610372524468,51,1672,3.673828125E-4,0,0,0,676342,16774197,109171,108755,287312,234786,51011,16775446,Tag0,unknown
1610372524482,51,-2048,-4.5E-4,0,0,0,676342,16774197,109171,108755,287312,234786,51011,16775446,Tag0,unknown
1610372524500,51,1859,4.084716796875E-4,0,0,0,676342,16774197,109171,108755,287312,234786,51011,16775446,Tag0,unknown
1610372524513,51,-1068,-2.3466796875E-4,0,0,0,676342,16774197,109171,108755,287312,234786,51011,16775446,Tag0,unknown
1610372524533,51,1733,3.807861328125E-4,0,0,0,676342,16774197,109171,108755,287312,234786,51011,16775446,Tag0,unknown
1610372524547,51,1917,4.212158203125E-4,0,0,0,676342,16774197,109171,108755,287312,234786,51011,16775446,Tag0,unknown
1610372524557,51,-2048,-4.5E-4,0,0,0,676342,16774197,109171,108755,287312,234786,51011,16775446,Tag0,unknown
1610372524574,51,1791,3.935302734375E-4,0,0,0,676342,16774197,109171,108755,287312,234786,51011,16775446,Tag0,unknown
1610372524584,51,1791,3.935302734375E-4,0,0,0,676342,16774197,109171,108755,287312,234786,51011,16775446,Tag0,unknown
1610372524608,51,-2048,-4.5E-4,0,0,0,676342,16774197,109171,108755,287312,234786,51011,16775446,Tag0,unknown
1610372524618,51,-2048,-4.5E-4,0,0,0,676342,16774197,109171,108755,287312,234786,51011,16775446,Tag0,unknown
1610372524630,51,-2048,-4.5E-4,0,0,0,676342,16774197,109171,108755,287312,234786,51011,16775446,Tag0,unknown
1610372524649,51,1791,3.935302734375E-4,0,0,0,676342,16774197,109171,108755,287312,234786,51011,16775446,Tag0,unknown
1610372524664,51,1791,3.935302734375E-4,0,0,0,676342,16774197,109171,108755,287312,234786,51011,16775446,Tag0,unknown
1610372524682,51,1858,4.0825195312500003E-4,0,0,0,676342,16774197,109171,108755,287312,234786,51011,16775446,Tag0,unknown
1610372524697,51,1525,3.350830078125E-4,0,0,0,676342,16774197,109171,108755,287312,234786,51011,16775446,Tag0,unknown
1610372524707,51,-2048,-4.5E-4,0,0,0,676342,16774197,109171,108755,287312,234786,51011,16775446,Tag0,unknown
1610372524719,51,-2048,-4.5E-4,0,0,0,676342,16774197,109171,108755,287312,234786,51011,16775446,Tag0,unknown
1610372524731,51,1301,2.858642578125E-4,0,0,0,676342,16774197,109171,108755,287312,234786,51011,16775446,Tag0,unknown
1610372524758,51,1791,3.935302734375E-4,0,0,0,282021,25571,159814,83483,58758,16770140,16767654,16752218,Tag0,unknown
1610372524768,51,1718,3.77490234375E-4,0,0,0,282021,25571,159814,83483,58758,16770140,16767654,16752218,Tag0,unknown
1610372524792,51,-2048,-4.5E-4,0,0,0,282021,25571,159814,83483,58758,16770140,16767654,16752218,Tag0,unknown
1610372524815,51,1791,3.935302734375E-4,0,0,0,282021,25571,159814,83483,58758,16770140,16767654,16752218,Tag0,unknown
1610372524834,51,1748,3.8408203125000004E-4,0,0,0,282021,25571,159814,83483,58758,16770140,16767654,16752218,Tag0,unknown
1610372524849,51,-2048,-4.5E-4,0,0,0,282021,25571,159814,83483,58758,16770140,16767654,16752218,Tag0,unknown
1610372524869,51,-433,-9.51416015625E-5,0,0,0,282021,25571,159814,83483,58758,16770140,16767654,16752218,Tag0,unknown
1610372524882,51,-2048,-4.5E-4,0,0,0,282021,25571,159814,83483,58758,16770140,16767654,16752218,Tag0,unknown
1610372524892,51,1791,3.935302734375E-4,0,0,0,282021,25571,159814,83483,58758,16770140,16767654,16752218,Tag0,unknown
1610372524907,51,-1197,-2.630126953125E-4,0,0,0,282021,25571,159814,83483,58758,16770140,16767654,16752218,Tag0,unknown
1610372524917,51,-2048,-4.5E-4,0,0,0,282021,25571,159814,83483,58758,16770140,16767654,16752218,Tag0,unknown
1610372524941,51,-2048,-4.5E-4,0,0,0,282021,25571,159814,83483,58758,16770140,16767654,16752218,Tag0,unknown
1610372524951,51,-2048,-4.5E-4,0,0,0,282021,25571,159814,83483,58758,16770140,16767654,16752218,Tag0,unknown
1610372524964,51,-1738,-3.81884765625E-4,0,0,0,282021,25571,159814,83483,58758,16770140,16767654,16752218,Tag0,unknown
1610372524981,51,-2159,-4.743896484375E-4,0,0,0,282021,25571,159814,83483,58758,16770140,16767654,16752218,Tag0,unknown
1610372524997,51,-2048,-4.5E-4,0,0,0,282021,25571,159814,83483,58758,16770140,16767654,16752218,Tag0,unknown
1610372525014,51,1791,3.935302734375E-4,0,0,0,282021,25571,159814,83483,58758,16770140,16767654,16752218,Tag0,unknown
1610372525031,51,-2048,-4.5E-4,0,0,0,282021,25571,159814,83483,58758,16770140,16767654,16752218,Tag0,unknown
1610372525051,51,-2048,-4.5E-4,0,0,0,282021,25571,159814,83483,58758,16770140,16767654,16752218,Tag0,unknown
1610372525065,51,-2048,-4.5E-4,0,0,0,282021,25571,159814,83483,58758,16770140,16767654,16752218,Tag0,unknown
1610372525084,51,1791,3.935302734375E-4,0,0,0,282021,25571,159814,83483,58758,16770140,16767654,16752218,Tag0,unknown
1610372525099,51,1791,3.935302734375E-4,0,0,0,282021,25571,159814,83483,58758,16770140,16767654,16752218,Tag0,unknown
1610372525122,51,1791,3.935302734375E-4,0,0,0,282021,25571,159814,83483,58758,16770140,16767654,16752218,Tag0,unknown
1610372525132,51,1791,3.935302734375E-4,0,0,0,282021,25571,159814,83483,58758,16770140,16767654,16752218,Tag0,unknown
1610372525156,51,867,1.9050292968750003E-4,0,0,0,282021,25571,159814,83483,58758,16770140,16767654,16752218,Tag0,unknown
1610372525168,51,-2048,-4.5E-4,0,0,0,282021,25571,159814,83483,58758,16770140,16767654,16752218,Tag0,unknown
1610372525178,51,-2048,-4.5E-4,0,0,0,282021,25571,159814,83483,58758,16770140,16767654,16752218,Tag0,unknown
1610372525197,51,567,1.245849609375E-4,0,0,0,282021,25571,159814,83483,58758,16770140,16767654,16752218,Tag0,unknown
1610372525216,51,-2048,-4.5E-4,0,0,0,282021,25571,159814,83483,58758,16770140,16767654,16752218,Tag0,unknown
1610372525234,51,1413,3.104736328125E-4,0,0,0,282021,25571,159814,83483,58758,16770140,16767654,16752218,Tag0,unknown
1610372525249,51,-1227,-2.696044921875E-4,0,0,0,282021,25571,159814,83483,58758,16770140,16767654,16752218,Tag0,unknown
1610372525277,51,-2048,-4.5E-4,0,0,0,282021,25571,159814,83483,58758,16770140,16767654,16752218,Tag0,unknown
1610372525287,51,-2048,-4.5E-4,0,0,0,282021,25571,159814,83483,58758,16770140,16767654,16752218,Tag0,unknown
1610372525299,51,-2048,-4.5E-4,0,0,0,282021,25571,159814,83483,58758,16770140,16767654,16752218,Tag0,unknown
1610372525317,51,-1531,-3.3640136718750003E-4,0,0,0,282021,25571,159814,83483,58758,16770140,16767654,16752218,Tag0,unknown
1610372525333,51,-1417,-3.1135253906249997E-4,0,0,0,282021,25571,159814,83483,58758,16770140,16767654,16752218,Tag0,unknown
1610372525351,51,1791,3.935302734375E-4,0,0,0,282021,25571,159814,83483,58758,16770140,16767654,16752218,Tag0,unknown
1610372525366,51,-2048,-4.5E-4,0,0,0,282021,25571,159814,83483,58758,16770140,16767654,16752218,Tag0,unknown
1610372525376,51,-2048,-4.5E-4,0,0,0,282021,25571,159814,83483,58758,16770140,16767654,16752218,Tag0,unknown
1610372525391,51,-2048,-4.5E-4,0,0,0,282021,25571,159814,83483,58758,16770140,16767654,16752218,Tag0,unknown
1610372525401,51,1791,3.935302734375E-4,0,0,0,282021,25571,159814,83483,58758,16770140,16767654,16752218,Tag0,unknown
1610372525416,51,-2048,-4.5E-4,0,0,0,282021,25571,159814,83483,58758,16770140,16767654,16752218,Tag0,unknown
1610372525452,51,-2048,-4.5E-4,0,0,0,282021,25571,159814,83483,58758,16770140,16767654,16752218,Tag0,unknown
1610372525466,51,-1970,-4.32861328125E-4,0,0,0,282021,25571,159814,83483,58758,16770140,16767654,16752218,Tag0,unknown
1610372525476,51,-2048,-4.5E-4,0,0,0,282021,25571,159814,83483,58758,16770140,16767654,16752218,Tag0,unknown
1610372525489,51,1791,3.935302734375E-4,0,0,0,282021,25571,159814,83483,58758,16770140,16767654,16752218,Tag0,unknown
1610372525499,51,1791,3.935302734375E-4,0,0,0,282021,25571,159814,83483,58758,16770140,16767654,16752218,Tag0,unknown
1610372525522,51,1705,3.746337890625E-4,0,0,0,282021,25571,159814,83483,58758,16770140,16767654,16752218,Tag0,unknown
1610372525534,51,1878,4.1264648437500004E-4,0,0,0,282021,25571,159814,83483,58758,16770140,16767654,16752218,Tag0,unknown
1610372525544,51,-1659,-3.645263671875E-4,0,0,0,282021,25571,159814,83483,58758,16770140,16767654,16752218,Tag0,unknown
1610372525562,51,1680,3.69140625E-4,0,0,0,282021,25571,159814,83483,58758,16770140,16767654,16752218,Tag0,unknown
1610372525596,51,1753,3.851806640625E-4,0,0,0,282021,25571,159814,83483,58758,16770140,16767654,16752218,Tag0,unknown
1610372525615,51,-2048,-4.5E-4,0,0,0,282021,25571,159814,83483,58758,16770140,16767654,16752218,Tag0,unknown
1610372525636,51,-2048,-4.5E-4,0,0,0,282021,25571,159814,83483,58758,16770140,16767654,16752218,Tag0,unknown
1610372525650,51,-2048,-4.5E-4,0,0,0,282021,25571,159814,83483,58758,16770140,16767654,16752218,Tag0,unknown
1610372525670,51,1791,3.935302734375E-4,0,0,0,282021,25571,159814,83483,58758,16770140,16767654,16752218,Tag0,unknown
1610372525683,51,1791,3.935302734375E-4,0,0,0,282021,25571,159814,83483,58758,16770140,16767654,16752218,Tag0,unknown
1610372525693,51,-1597,-3.509033203125E-4,0,0,0,282021,25571,159814,83483,58758,16770140,16767654,16752218,Tag0,unknown
1610372525717,51,1791,3.935302734375E-4,0,0,0,282021,25571,159814,83483,58758,16770140,16767654,16752218,Tag0,unknown
1610372525741,51,1791,3.935302734375E-4,0,0,0,470911,208031,187473,455925,53625,107010,254583,42769,Tag0,unknown
1610372525751,51,1791,3.935302734375E-4,0,0,0,470911,208031,187473,455925,53625,107010,254583,42769,Tag0,unknown
1610372525765,51,1846,4.05615234375E-4,0,0,0,470911,208031,187473,455925,53625,107010,254583,42769,Tag0,unknown
1610372525782,51,1275,2.801513671875E-4,0,0,0,470911,208031,187473,455925,53625,107010,254583,42769,Tag0,unknown
1610372525799,51,1377,3.0256347656249996E-4,0,0,0,470911,208031,187473,455925,53625,107010,254583,42769,Tag0,unknown
1610372525821,51,-2048,-4.5E-4,0,0,0,470911,208031,187473,455925,53625,107010,254583,42769,Tag0,unknown
1610372525832,51,-2048,-4.5E-4,0,0,0,470911,208031,187473,455925,53625,107010,254583,42769,Tag0,unknown
1610372525855,51,1895,4.163818359375E-4,0,0,0,470911,208031,187473,455925,53625,107010,254583,42769,Tag0,unknown
1610372525867,51,1830,4.02099609375E-4,0,0,0,470911,208031,187473,455925,53625,107010,254583,42769,Tag0,unknown
1610372525877,51,-2048,-4.5E-4,0,0,0,470911,208031,187473,455925,53625,107010,254583,42769,Tag0,unknown
1610372525892,51,913,2.0061035156250002E-4,0,0,0,470911,208031,187473,455925,53625,107010,254583,42769,Tag0,unknown
1610372525902,51,1791,3.935302734375E-4,0,0,0,470911,208031,187473,455925,53625,107010,254583,42769,Tag0,unknown
1610372525926,51,1791,3.935302734375E-4,0,0,0,470911,208031,187473,455925,53625,107010,254583,42769,Tag0,unknown
1610372525936,51,-2048,-4.5E-4,0,0,0,470911,208031,187473,455925,53625,107010,254583,42769,Tag0,unknown
1610372525951,51,-2048,-4.5E-4,0,0,0,470911,208031,187473,455925,53625,107010,254583,42769,Tag0,unknown
1610372525970,51,1791,3.935302734375E-4,0,0,0,470911,208031,187473,455925,53625,107010,254583,42769,Tag0,unknown
1610372525983,51,1791,3.935302734375E-4,0,0,0,470911,208031,187473,455925,53625,107010,254583,42769,Tag0,unknown
1610372526003,51,1728,3.7968750000000003E-4,0,0,0,470911,208031,187473,455925,53625,107010,254583,42769,Tag0,unknown
1610372526019,51,1910,4.19677734375E-4,0,0,0,470911,208031,187473,455925,53625,107010,254583,42769,Tag0,unknown
1610372526029,51,724,1.5908203125000002E-4,0,0,0,470911,208031,187473,455925,53625,107010,254583,42769,Tag0,unknown
1610372526040,51,825,1.812744140625E-4,0,0,0,470911,208031,187473,455925,53625,107010,254583,42769,Tag0,unknown
1610372526052,51,795,1.746826171875E-4,0,0,0,470911,208031,187473,455925,53625,107010,254583,42769,Tag0,unknown
1610372526073,51,-2048,-4.5E-4,0,0,0,470911,208031,187473,455925,53625,107010,254583,42769,Tag0,unknown
1610372526084,51,-2048,-4.5E-4,0,0,0,470911,208031,187473,455925,53625,107010,254583,42769,Tag0,unknown
1610372526100,51,-2048,-4.5E-4,0,0,0,470911,208031,187473,455925,53625,107010,254583,42769,Tag0,unknown
1610372526116,51,1791,3.935302734375E-4,0,0,0,470911,208031,187473,455925,53625,107010,254583,42769,Tag0,unknown
1610372526134,51,1791,3.935302734375E-4,0,0,0,470911,208031,187473,455925,53625,107010,254583,42769,Tag0,unknown
1610372526152,51,-2048,-4.5E-4,0,0,0,470911,208031,187473,455925,53625,107010,254583,42769,Tag0,unknown
1610372526167,51,-2048,-4.5E-4,0,0,0,470911,208031,187473,455925,53625,107010,254583,42769,Tag0,unknown
1610372526177,51,1681,3.6936035156250003E-4,0,0,0,470911,208031,187473,455925,53625,107010,254583,42769,Tag0,unknown
1610372526189,51,1313,2.885009765625E-4,0,0,0,470911,208031,187473,455925,53625,107010,254583,42769,Tag0,unknown
1610372526201,51,1011,2.2214355468749998E-4,0,0,0,470911,208031,187473,455925,53625,107010,254583,42769,Tag0,unknown
1610372526222,51,-2048,-4.5E-4,0,0,0,470911,208031,187473,455925,53625,107010,254583,42769,Tag0,unknown
1610372526233,51,-2048,-4.5E-4,0,0,0,470911,208031,187473,455925,53625,107010,254583,42769,Tag0,unknown
1610372526261,51,1791,3.935302734375E-4,0,0,0,470911,208031,187473,455925,53625,107010,254583,42769,Tag0,unknown
1610372526271,51,-2048,-4.5E-4,0,0,0,470911,208031,187473,455925,53625,107010,254583,42769,Tag0,unknown
1610372526294,51,1791,3.935302734375E-4,0,0,0,470911,208031,187473,455925,53625,107010,254583,42769,Tag0,unknown
1610372526304,51,1791,3.935302734375E-4,0,0,0,470911,208031,187473,455925,53625,107010,254583,42769,Tag0,unknown
1610372526318,51,1225,2.691650390625E-4,0,0,0,470911,208031,187473,455925,53625,107010,254583,42769,Tag0,unknown
1610372526334,51,940,2.0654296875E-4,0,0,0,470911,208031,187473,455925,53625,107010,254583,42769,Tag0,unknown
1610372526352,51,-2048,-4.5E-4,0,0,0,470911,208031,187473,455925,53625,107010,254583,42769,Tag0,unknown
1610372526406,51,-2048,-4.5E-4,0,0,0,470911,208031,187473,455925,53625,107010,254583,42769,Tag0,unknown
1610372526421,51,-2048,-4.5E-4,0,0,0,470911,208031,187473,455925,53625,107010,254583,42769,Tag0,unknown
1610372526473,51,837,1.8391113281250002E-4,0,0,0,470911,208031,187473,455925,53625,107010,254583,42769,Tag0,unknown
1610372526484,51,-2048,-4.5E-4,0,0,0,470911,208031,187473,455925,53625,107010,254583,42769,Tag0,unknown
1610372526611,51,1791,3.935302734375E-4,0,0,0,470911,208031,187473,455925,53625,107010,254583,42769,Tag0,unknown
1610372526621,51,-2048,-4.5E-4,0,0,0,470911,208031,187473,455925,53625,107010,254583,42769,Tag0,unknown
1610372526635,51,-2048,-4.5E-4,0,0,0,470911,208031,187473,455925,53625,107010,254583,42769,Tag0,unknown
1610372526683,51,-1734,-3.8100585937500005E-4,0,0,0,470911,208031,187473,455925,53625,107010,254583,42769,Tag0,unknown
1610372526701,51,-1670,-3.66943359375E-4,0,0,0,470911,208031,187473,455925,53625,107010,254583,42769,Tag0,unknown
1610372526751,51,1791,3.935302734375E-4,0,0,0,470911,208031,187473,455925,53625,107010,254583,42769,Tag0,unknown
1610372526768,51,1791,3.935302734375E-4,0,0,0,470911,208031,187473,455925,53625,107010,254583,42769,Tag0,unknown
1610372526819,51,1791,3.935302734375E-4,0,0,0,470911,208031,187473,455925,53625,107010,254583,42769,Tag0,unknown
1610372526835,51,1791,3.935302734375E-4,0,0,0,470911,208031,187473,455925,53625,107010,254583,42769,Tag0,unknown
1610372526877,51,-2048,-4.5E-4,0,0,0,470911,208031,187473,455925,53625,107010,254583,42769,Tag0,unknown
1610372526887,51,-2048,-4.5E-4,0,0,0,470911,208031,187473,455925,53625,107010,254583,42769,Tag0,unknown
1610372526897,51,-1206,-2.6499023437500003E-4,0,0,0,470911,208031,187473,455925,53625,107010,254583,42769,Tag0,unknown
1610372526907,51,-2048,-4.5E-4,0,0,0,470911,208031,187473,455925,53625,107010,254583,42769,Tag0,unknown
1610372526917,51,-2141,-4.704345703125E-4,0,0,0,470911,208031,187473,455925,53625,107010,254583,42769,Tag0,unknown
1610372526934,51,1791,3.935302734375E-4,0,0,0,470911,208031,187473,455925,53625,107010,254583,42769,Tag0,unknown
1610372526982,51,1791,3.935302734375E-4,0,0,0,470911,208031,187473,455925,53625,107010,254583,42769,Tag0,unknown
1610372527001,51,1784,3.9199218750000003E-4,0,0,0,470911,208031,187473,455925,53625,107010,254583,42769,Tag0,unknown
1610372527019,51,1201,2.6389160156250005E-4,0,0,0,470911,208031,187473,455925,53625,107010,254583,42769,Tag0,unknown
1610372527035,51,-2048,-4.5E-4,0,0,0,470911,208031,187473,455925,53625,107010,254583,42769,Tag0,unknown
1610372527057,51,-1954,-4.2934570312500004E-4,0,0,0,470911,208031,187473,455925,53625,107010,254583,42769,Tag0,unknown
1610372527069,51,-2137,-4.695556640625E-4,0,0,0,470911,208031,187473,455925,53625,107010,254583,42769,Tag0,unknown
1610372527091,51,1791,3.935302734375E-4,0,0,0,470911,208031,187473,455925,53625,107010,254583,42769,Tag0,unknown
1610372527102,51,-1926,-4.23193359375E-4,0,0,0,470911,208031,187473,455925,53625,107010,254583,42769,Tag0,unknown
1610372527129,51,1791,3.935302734375E-4,0,0,0,470911,208031,187473,455925,53625,107010,254583,42769,Tag0,unknown
1610372527139,51,1443,3.170654296875E-4,0,0,0,470911,208031,187473,455925,53625,107010,254583,42769,Tag0,unknown
