,timestampMs,poorSignal,eegRawValue,eegRawValueVolts,attention,meditation,blinkStrength,delta,theta,alphaLow,alphaHigh,betaLow,betaHigh,gammaLow,gammaMid,tagEvent,location
0,1611472934983,0,98,2.1533203125e-05,20,50,55,57423,86998,16766662,16750040,26249,13735,10892,9380,Tag0,unknown
1,1611472935002,0,-139,-3.0541992187500004e-05,20,50,55,57423,86998,16766662,16750040,26249,13735,10892,9380,Tag0,unknown
2,1611472935041,0,-54,-1.1865234375e-05,20,50,55,57423,86998,16766662,16750040,26249,13735,10892,9380,Tag0,unknown
3,1611472935052,0,-315,-6.92138671875e-05,20,50,55,57423,86998,16766662,16750040,26249,13735,10892,9380,Tag0,unknown
4,1611472935101,0,181,3.97705078125e-05,20,50,55,57423,86998,16766662,16750040,26249,13735,10892,9380,Tag0,unknown
5,1611472935119,0,-347,-7.62451171875e-05,20,50,55,57423,86998,16766662,16750040,26249,13735,10892,9380,Tag0,unknown
6,1611472935155,0,361,7.93212890625e-05,20,50,55,57423,86998,16766662,16750040,26249,13735,10892,9380,Tag0,unknown
7,1611472935169,0,359,7.88818359375e-05,20,50,55,57423,86998,16766662,16750040,26249,13735,10892,9380,Tag0,unknown
8,1611472935216,0,564,0.00012392578125,20,50,55,57423,86998,16766662,16750040,26249,13735,10892,9380,Tag0,unknown
9,1611472935273,0,26,5.712890625e-06,20,50,55,57423,86998,16766662,16750040,26249,13735,10892,9380,Tag0,unknown
10,1611472935286,0,-366,-8.0419921875e-05,20,50,55,57423,86998,16766662,16750040,26249,13735,10892,9380,Tag0,unknown
11,1611472935340,0,-69,-1.51611328125e-05,20,50,55,57423,86998,16766662,16750040,26249,13735,10892,9380,Tag0,unknown
12,1611472935353,0,547,0.0001201904296875,20,50,55,57423,86998,16766662,16750040,26249,13735,10892,9380,Tag0,unknown
13,1611472935390,0,1791,0.0003935302734375,20,50,55,57423,86998,16766662,16750040,26249,13735,10892,9380,Tag0,unknown
14,1611472935403,0,1791,0.0003935302734375,20,50,55,57423,86998,16766662,16750040,26249,13735,10892,9380,Tag0,unknown
15,1611472935450,0,490,0.000107666015625,20,50,55,57423,86998,16766662,16750040,26249,13735,10892,9380,Tag0,unknown
16,1611472935470,0,227,4.98779296875e-05,20,50,55,57423,86998,16766662,16750040,26249,13735,10892,9380,Tag0,unknown
17,1611472935510,0,-27,-5.932617187500001e-06,20,50,55,57423,86998,16766662,16750040,26249,13735,10892,9380,Tag0,unknown
18,1611472935520,0,-35,-7.6904296875e-06,20,50,55,57423,86998,16766662,16750040,26249,13735,10892,9380,Tag0,unknown
19,1611472935567,0,-2048,-0.00045,20,50,55,57423,86998,16766662,16750040,26249,13735,10892,9380,Tag0,unknown
20,1611472935587,0,-2048,-0.00045,20,50,55,57423,86998,16766662,16750040,26249,13735,10892,9380,Tag0,unknown
21,1611472935626,0,-1609,-0.00035354003906250004,20,50,55,57423,86998,16766662,16750040,26249,13735,10892,9380,Tag0,unknown
22,1611472935637,0,-1558,-0.00034233398437500003,20,50,55,57423,86998,16766662,16750040,26249,13735,10892,9380,Tag0,unknown
23,1611472935676,0,-493,-0.0001083251953125,20,50,55,57423,86998,16766662,16750040,26249,13735,10892,9380,Tag0,unknown
24,1611472935687,0,-473,-0.0001039306640625,20,50,55,57423,86998,16766662,16750040,26249,13735,10892,9380,Tag0,unknown
25,1611472935736,0,-330,-7.2509765625e-05,20,50,55,57423,86998,16766662,16750040,26249,13735,10892,9380,Tag0,unknown
26,1611472935754,0,-321,-7.053222656250001e-05,20,50,55,57423,86998,16766662,16750040,26249,13735,10892,9380,Tag0,unknown
27,1611472935797,51,23,5.0537109375e-06,20,50,55,315767,21223,8148,14660,7032,7692,5068,2984,Tag0,unknown
28,1611472935857,51,49,1.07666015625e-05,20,50,55,315767,21223,8148,14660,7032,7692,5068,2984,Tag0,unknown
29,1611472935871,51,50,1.0986328125e-05,20,50,55,315767,21223,8148,14660,7032,7692,5068,2984,Tag0,unknown
30,1611472935917,51,59,1.29638671875e-05,20,50,55,315767,21223,8148,14660,7032,7692,5068,2984,Tag0,unknown
31,1611472935937,51,61,1.34033203125e-05,20,50,55,315767,21223,8148,14660,7032,7692,5068,2984,Tag0,unknown
32,1611472935975,51,64,1.40625e-05,20,50,55,315767,21223,8148,14660,7032,7692,5068,2984,Tag0,unknown
33,1611472935987,51,64,1.40625e-05,20,50,55,315767,21223,8148,14660,7032,7692,5068,2984,Tag0,unknown
34,1611472936033,51,65,1.42822265625e-05,20,50,55,315767,21223,8148,14660,7032,7692,5068,2984,Tag0,unknown
35,1611472936070,51,65,1.42822265625e-05,20,50,55,315767,21223,8148,14660,7032,7692,5068,2984,Tag0,unknown
36,1611472936103,51,65,1.42822265625e-05,20,50,55,315767,21223,8148,14660,7032,7692,5068,2984,Tag0,unknown
37,1611472936121,51,66,1.4501953125e-05,20,50,55,315767,21223,8148,14660,7032,7692,5068,2984,Tag0,unknown
38,1611472936141,51,65,1.42822265625e-05,20,50,55,315767,21223,8148,14660,7032,7692,5068,2984,Tag0,unknown
39,1611472936154,51,66,1.4501953125e-05,20,50,55,315767,21223,8148,14660,7032,7692,5068,2984,Tag0,unknown
40,1611472936175,51,66,1.4501953125e-05,20,50,55,315767,21223,8148,14660,7032,7692,5068,2984,Tag0,unknown
41,1611472936188,51,65,1.42822265625e-05,20,50,55,315767,21223,8148,14660,7032,7692,5068,2984,Tag0,unknown
42,1611472936213,51,65,1.42822265625e-05,20,50,55,315767,21223,8148,14660,7032,7692,5068,2984,Tag0,unknown
43,1611472936223,51,65,1.42822265625e-05,20,50,55,315767,21223,8148,14660,7032,7692,5068,2984,Tag0,unknown
44,1611472936247,51,66,1.4501953125e-05,20,50,55,315767,21223,8148,14660,7032,7692,5068,2984,Tag0,unknown
45,1611472936271,51,67,1.4721679687500003e-05,20,50,55,315767,21223,8148,14660,7032,7692,5068,2984,Tag0,unknown
46,1611472936296,51,65,1.42822265625e-05,20,50,55,315767,21223,8148,14660,7032,7692,5068,2984,Tag0,unknown
47,1611472936306,51,65,1.42822265625e-05,20,50,55,315767,21223,8148,14660,7032,7692,5068,2984,Tag0,unknown
48,1611472936336,51,65,1.42822265625e-05,20,50,55,315767,21223,8148,14660,7032,7692,5068,2984,Tag0,unknown
49,1611472936370,51,66,1.4501953125e-05,20,50,55,315767,21223,8148,14660,7032,7692,5068,2984,Tag0,unknown
50,1611472936388,51,65,1.42822265625e-05,20,50,55,315767,21223,8148,14660,7032,7692,5068,2984,Tag0,unknown
51,1611472936408,51,65,1.42822265625e-05,20,50,55,315767,21223,8148,14660,7032,7692,5068,2984,Tag0,unknown
52,1611472936421,51,65,1.42822265625e-05,20,50,55,315767,21223,8148,14660,7032,7692,5068,2984,Tag0,unknown
53,1611472936442,51,66,1.4501953125e-05,20,50,55,315767,21223,8148,14660,7032,7692,5068,2984,Tag0,unknown
54,1611472936455,51,65,1.42822265625e-05,20,50,55,315767,21223,8148,14660,7032,7692,5068,2984,Tag0,unknown
55,1611472936483,51,66,1.4501953125e-05,20,50,55,315767,21223,8148,14660,7032,7692,5068,2984,Tag0,unknown
56,1611472936517,51,67,1.4721679687500003e-05,20,50,55,315767,21223,8148,14660,7032,7692,5068,2984,Tag0,unknown
57,1611472936557,51,66,1.4501953125e-05,20,50,55,315767,21223,8148,14660,7032,7692,5068,2984,Tag0,unknown
58,1611472936572,51,65,1.42822265625e-05,20,50,55,315767,21223,8148,14660,7032,7692,5068,2984,Tag0,unknown
59,1611472936591,51,65,1.42822265625e-05,20,50,55,315767,21223,8148,14660,7032,7692,5068,2984,Tag0,unknown
60,1611472936605,51,65,1.42822265625e-05,20,50,55,315767,21223,8148,14660,7032,7692,5068,2984,Tag0,unknown
61,1611472936630,51,65,1.42822265625e-05,20,50,55,315767,21223,8148,14660,7032,7692,5068,2984,Tag0,unknown
62,1611472936640,51,65,1.42822265625e-05,20,50,55,315767,21223,8148,14660,7032,7692,5068,2984,Tag0,unknown
63,1611472936663,51,65,1.42822265625e-05,20,50,55,315767,21223,8148,14660,7032,7692,5068,2984,Tag0,unknown
64,1611472936673,51,65,1.42822265625e-05,20,50,55,315767,21223,8148,14660,7032,7692,5068,2984,Tag0,unknown
65,1611472936703,51,64,1.40625e-05,20,50,55,315767,21223,8148,14660,7032,7692,5068,2984,Tag0,unknown
66,1611472936722,51,66,1.4501953125e-05,20,50,55,315767,21223,8148,14660,7032,7692,5068,2984,Tag0,unknown
67,1611472936742,25,66,1.4501953125e-05,20,50,55,12517,4714,1449,1066,487,375,16777092,77,Tag0,unknown
68,1611472936756,25,66,1.4501953125e-05,20,50,55,12517,4714,1449,1066,487,375,16777092,77,Tag0,unknown
69,1611472936776,25,66,1.4501953125e-05,20,50,55,12517,4714,1449,1066,487,375,16777092,77,Tag0,unknown
70,1611472936789,25,65,1.42822265625e-05,20,50,55,12517,4714,1449,1066,487,375,16777092,77,Tag0,unknown
71,1611472936813,25,65,1.42822265625e-05,20,50,55,12517,4714,1449,1066,487,375,16777092,77,Tag0,unknown
72,1611472936823,25,65,1.42822265625e-05,20,50,55,12517,4714,1449,1066,487,375,16777092,77,Tag0,unknown
73,1611472936850,25,65,1.42822265625e-05,20,50,55,12517,4714,1449,1066,487,375,16777092,77,Tag0,unknown
74,1611472936926,25,65,1.42822265625e-05,20,50,55,12517,4714,1449,1066,487,375,16777092,77,Tag0,unknown
75,1611472936939,25,65,1.42822265625e-05,20,50,55,12517,4714,1449,1066,487,375,16777092,77,Tag0,unknown
76,1611472937061,25,65,1.42822265625e-05,20,50,55,12517,4714,1449,1066,487,375,16777092,77,Tag0,unknown
77,1611472937073,25,65,1.42822265625e-05,20,50,55,12517,4714,1449,1066,487,375,16777092,77,Tag0,unknown
78,1611472937131,25,65,1.42822265625e-05,20,50,55,12517,4714,1449,1066,487,375,16777092,77,Tag0,unknown
79,1611472937141,25,65,1.42822265625e-05,20,50,55,12517,4714,1449,1066,487,375,16777092,77,Tag0,unknown
80,1611472937198,25,65,1.42822265625e-05,20,50,55,12517,4714,1449,1066,487,375,16777092,77,Tag0,unknown
81,1611472937208,25,65,1.42822265625e-05,20,50,55,12517,4714,1449,1066,487,375,16777092,77,Tag0,unknown
82,1611472937266,25,64,1.40625e-05,20,50,55,12517,4714,1449,1066,487,375,16777092,77,Tag0,unknown
83,1611472937333,25,65,1.42822265625e-05,20,50,55,12517,4714,1449,1066,487,375,16777092,77,Tag0,unknown
84,1611472937401,25,65,1.42822265625e-05,20,50,55,12517,4714,1449,1066,487,375,16777092,77,Tag0,unknown
85,1611472937463,25,66,1.4501953125e-05,20,50,55,12517,4714,1449,1066,487,375,16777092,77,Tag0,unknown
86,1611472937475,25,66,1.4501953125e-05,20,50,55,12517,4714,1449,1066,487,375,16777092,77,Tag0,unknown
87,1611472937518,25,58,1.2744140625e-05,20,50,55,12517,4714,1449,1066,487,375,16777092,77,Tag0,unknown
88,1611472937528,25,65,1.42822265625e-05,20,50,55,12517,4714,1449,1066,487,375,16777092,77,Tag0,unknown
89,1611472937542,25,65,1.42822265625e-05,20,50,55,12517,4714,1449,1066,487,375,16777092,77,Tag0,unknown
90,1611472937579,25,357,7.844238281250001e-05,20,50,55,12517,4714,1449,1066,487,375,16777092,77,Tag0,unknown
91,1611472937592,25,785,0.0001724853515625,20,50,55,12517,4714,1449,1066,487,375,16777092,77,Tag0,unknown
92,1611472937641,25,533,0.0001171142578125,20,50,55,12517,4714,1449,1066,487,375,16777092,77,Tag0,unknown
93,1611472937659,25,-57,-1.25244140625e-05,20,50,55,12517,4714,1449,1066,487,375,16777092,77,Tag0,unknown
94,1611472937686,25,525,0.0001153564453125,20,50,55,12517,4714,1449,1066,487,375,16777092,77,Tag0,unknown
95,1611472937708,25,569,0.0001250244140625,20,50,55,12517,4714,1449,1066,487,375,16777092,77,Tag0,unknown
96,1611472937725,25,-13,-2.8564453125e-06,20,50,55,12517,4714,1449,1066,487,375,16777092,77,Tag0,unknown
97,1611472937742,25,24,5.2734375e-06,20,50,55,2040065,1036650,85242,136707,16772157,164063,141030,8950,Tag0,unknown
98,1611472937765,25,24,5.2734375e-06,20,50,55,2040065,1036650,85242,136707,16772157,164063,141030,8950,Tag0,unknown
99,1611472937775,25,23,5.0537109375e-06,20,50,55,2040065,1036650,85242,136707,16772157,164063,141030,8950,Tag0,unknown
100,1611472937792,25,1533,0.00033684082031250004,20,50,55,2040065,1036650,85242,136707,16772157,164063,141030,8950,Tag0,unknown
101,1611472937809,25,1473,0.0003236572265625,20,50,55,2040065,1036650,85242,136707,16772157,164063,141030,8950,Tag0,unknown
102,1611472937832,25,1091,0.0002397216796875,20,50,55,2040065,1036650,85242,136707,16772157,164063,141030,8950,Tag0,unknown
103,1611472937842,25,1056,0.00023203125,20,50,55,2040065,1036650,85242,136707,16772157,164063,141030,8950,Tag0,unknown
104,1611472937869,25,467,0.0001026123046875,20,50,55,2040065,1036650,85242,136707,16772157,164063,141030,8950,Tag0,unknown
105,1611472937887,25,441,9.68994140625e-05,20,50,55,2040065,1036650,85242,136707,16772157,164063,141030,8950,Tag0,unknown
106,1611472937897,25,534,0.000117333984375,20,50,55,2040065,1036650,85242,136707,16772157,164063,141030,8950,Tag0,unknown
107,1611472937907,25,184,4.04296875e-05,20,50,55,2040065,1036650,85242,136707,16772157,164063,141030,8950,Tag0,unknown
108,1611472937921,25,323,7.09716796875e-05,20,50,55,2040065,1036650,85242,136707,16772157,164063,141030,8950,Tag0,unknown
109,1611472937931,25,-26,-5.712890625e-06,20,50,55,2040065,1036650,85242,136707,16772157,164063,141030,8950,Tag0,unknown
110,1611472937947,25,-30,-6.591796875e-06,20,50,55,2040065,1036650,85242,136707,16772157,164063,141030,8950,Tag0,unknown
111,1611472937962,25,-38,-8.349609375e-06,20,50,55,2040065,1036650,85242,136707,16772157,164063,141030,8950,Tag0,unknown
112,1611472937972,25,-106,-2.3291015625000006e-05,20,50,55,2040065,1036650,85242,136707,16772157,164063,141030,8950,Tag0,unknown
113,1611472937982,25,-122,-2.6806640625e-05,20,50,55,2040065,1036650,85242,136707,16772157,164063,141030,8950,Tag0,unknown
114,1611472937997,25,-127,-2.79052734375e-05,20,50,55,2040065,1036650,85242,136707,16772157,164063,141030,8950,Tag0,unknown
115,1611472938013,25,112,2.4609375e-05,20,50,55,2040065,1036650,85242,136707,16772157,164063,141030,8950,Tag0,unknown
116,1611472938028,25,90,1.9775390625e-05,20,50,55,2040065,1036650,85242,136707,16772157,164063,141030,8950,Tag0,unknown
117,1611472938046,25,88,1.93359375e-05,20,50,55,2040065,1036650,85242,136707,16772157,164063,141030,8950,Tag0,unknown
118,1611472938062,25,82,1.8017578125e-05,20,50,55,2040065,1036650,85242,136707,16772157,164063,141030,8950,Tag0,unknown
119,1611472938078,25,80,1.7578125e-05,20,50,55,2040065,1036650,85242,136707,16772157,164063,141030,8950,Tag0,unknown
120,1611472938102,25,71,1.56005859375e-05,20,50,55,2040065,1036650,85242,136707,16772157,164063,141030,8950,Tag0,unknown
121,1611472938113,25,71,1.56005859375e-05,20,50,55,2040065,1036650,85242,136707,16772157,164063,141030,8950,Tag0,unknown
122,1611472938129,25,70,1.5380859375e-05,20,50,55,2040065,1036650,85242,136707,16772157,164063,141030,8950,Tag0,unknown
123,1611472938153,25,69,1.51611328125e-05,20,50,55,2040065,1036650,85242,136707,16772157,164063,141030,8950,Tag0,unknown
124,1611472938163,25,69,1.51611328125e-05,20,50,55,2040065,1036650,85242,136707,16772157,164063,141030,8950,Tag0,unknown
125,1611472938188,25,68,1.494140625e-05,20,50,55,2040065,1036650,85242,136707,16772157,164063,141030,8950,Tag0,unknown
126,1611472938198,25,67,1.4721679687500003e-05,20,50,55,2040065,1036650,85242,136707,16772157,164063,141030,8950,Tag0,unknown
127,1611472938214,25,67,1.4721679687500003e-05,20,50,55,2040065,1036650,85242,136707,16772157,164063,141030,8950,Tag0,unknown
128,1611472938230,25,65,1.42822265625e-05,20,50,55,2040065,1036650,85242,136707,16772157,164063,141030,8950,Tag0,unknown
129,1611472938244,25,64,1.40625e-05,20,50,55,2040065,1036650,85242,136707,16772157,164063,141030,8950,Tag0,unknown
130,1611472938262,25,61,1.34033203125e-05,20,50,55,2040065,1036650,85242,136707,16772157,164063,141030,8950,Tag0,unknown
131,1611472938279,25,64,1.40625e-05,20,50,55,2040065,1036650,85242,136707,16772157,164063,141030,8950,Tag0,unknown
132,1611472938296,25,64,1.40625e-05,20,50,55,2040065,1036650,85242,136707,16772157,164063,141030,8950,Tag0,unknown
133,1611472938312,25,64,1.40625e-05,20,50,55,2040065,1036650,85242,136707,16772157,164063,141030,8950,Tag0,unknown
134,1611472938331,25,64,1.40625e-05,20,50,55,2040065,1036650,85242,136707,16772157,164063,141030,8950,Tag0,unknown
135,1611472938348,25,65,1.42822265625e-05,20,50,55,2040065,1036650,85242,136707,16772157,164063,141030,8950,Tag0,unknown
136,1611472938358,25,64,1.40625e-05,20,50,55,2040065,1036650,85242,136707,16772157,164063,141030,8950,Tag0,unknown
137,1611472938369,25,65,1.42822265625e-05,20,50,55,2040065,1036650,85242,136707,16772157,164063,141030,8950,Tag0,unknown
138,1611472938380,25,65,1.42822265625e-05,20,50,55,2040065,1036650,85242,136707,16772157,164063,141030,8950,Tag0,unknown
139,1611472938403,25,65,1.42822265625e-05,20,50,55,2040065,1036650,85242,136707,16772157,164063,141030,8950,Tag0,unknown
140,1611472938414,25,64,1.40625e-05,20,50,55,2040065,1036650,85242,136707,16772157,164063,141030,8950,Tag0,unknown
141,1611472938431,25,65,1.42822265625e-05,20,50,55,2040065,1036650,85242,136707,16772157,164063,141030,8950,Tag0,unknown
142,1611472938445,25,67,1.4721679687500003e-05,20,50,55,2040065,1036650,85242,136707,16772157,164063,141030,8950,Tag0,unknown
143,1611472938461,25,66,1.4501953125e-05,20,50,55,2040065,1036650,85242,136707,16772157,164063,141030,8950,Tag0,unknown
144,1611472938479,25,67,1.4721679687500003e-05,20,50,55,2040065,1036650,85242,136707,16772157,164063,141030,8950,Tag0,unknown
145,1611472938496,25,66,1.4501953125e-05,20,50,55,2040065,1036650,85242,136707,16772157,164063,141030,8950,Tag0,unknown
146,1611472938506,25,66,1.4501953125e-05,20,50,55,2040065,1036650,85242,136707,16772157,164063,141030,8950,Tag0,unknown
147,1611472938529,25,66,1.4501953125e-05,20,50,55,2040065,1036650,85242,136707,16772157,164063,141030,8950,Tag0,unknown
148,1611472938550,25,66,1.4501953125e-05,20,50,55,2040065,1036650,85242,136707,16772157,164063,141030,8950,Tag0,unknown
149,1611472938565,25,66,1.4501953125e-05,20,50,55,2040065,1036650,85242,136707,16772157,164063,141030,8950,Tag0,unknown
150,1611472938575,25,66,1.4501953125e-05,20,50,55,2040065,1036650,85242,136707,16772157,164063,141030,8950,Tag0,unknown
151,1611472938585,25,42,9.228515625000003e-06,20,50,55,2040065,1036650,85242,136707,16772157,164063,141030,8950,Tag0,unknown
152,1611472938597,25,7,1.5380859375e-06,20,50,55,2040065,1036650,85242,136707,16772157,164063,141030,8950,Tag0,unknown
153,1611472938622,25,-201,-4.41650390625e-05,20,50,55,2040065,1036650,85242,136707,16772157,164063,141030,8950,Tag0,unknown
154,1611472938632,25,-917,-0.0002014892578125,20,50,55,2040065,1036650,85242,136707,16772157,164063,141030,8950,Tag0,unknown
155,1611472938647,25,-1396,-0.00030673828125000004,20,50,55,2040065,1036650,85242,136707,16772157,164063,141030,8950,Tag0,unknown
156,1611472938663,25,-385,-8.45947265625e-05,20,50,55,2040065,1036650,85242,136707,16772157,164063,141030,8950,Tag0,unknown
157,1611472938679,25,-603,-0.00013249511718750002,20,50,55,2040065,1036650,85242,136707,16772157,164063,141030,8950,Tag0,unknown
158,1611472938697,25,-171,-3.75732421875e-05,20,50,55,2040065,1036650,85242,136707,16772157,164063,141030,8950,Tag0,unknown
159,1611472938713,25,-491,-0.0001078857421875,20,50,55,2040065,1036650,85242,136707,16772157,164063,141030,8950,Tag0,unknown
160,1611472938723,25,501,0.0001100830078125,20,50,55,2040065,1036650,85242,136707,16772157,164063,141030,8950,Tag0,unknown
161,1611472938741,25,283,6.218261718750001e-05,20,50,55,896699,428134,11675,72981,45772,16759022,9172,4692,Tag0,unknown
162,1611472938751,25,217,4.76806640625e-05,20,50,55,896699,428134,11675,72981,45772,16759022,9172,4692,Tag0,unknown
163,1611472938763,25,179,3.93310546875e-05,20,50,55,896699,428134,11675,72981,45772,16759022,9172,4692,Tag0,unknown
164,1611472938781,25,-450,-9.8876953125e-05,20,50,55,896699,428134,11675,72981,45772,16759022,9172,4692,Tag0,unknown
165,1611472938807,25,-1036,-0.00022763671875,20,50,55,896699,428134,11675,72981,45772,16759022,9172,4692,Tag0,unknown
166,1611472938817,25,-700,-0.00015380859375,20,50,55,896699,428134,11675,72981,45772,16759022,9172,4692,Tag0,unknown
167,1611472938831,25,-1124,-0.00024697265625,20,50,55,896699,428134,11675,72981,45772,16759022,9172,4692,Tag0,unknown
168,1611472938853,25,-1095,-0.0002406005859375,20,50,55,896699,428134,11675,72981,45772,16759022,9172,4692,Tag0,unknown
169,1611472938866,25,-1547,-0.0003399169921875,20,50,55,896699,428134,11675,72981,45772,16759022,9172,4692,Tag0,unknown
170,1611472938887,25,-2048,-0.00045,20,50,55,896699,428134,11675,72981,45772,16759022,9172,4692,Tag0,unknown
171,1611472938901,25,-2048,-0.00045,20,50,55,896699,428134,11675,72981,45772,16759022,9172,4692,Tag0,unknown
172,1611472938911,25,-1383,-0.00030388183593750003,20,50,55,896699,428134,11675,72981,45772,16759022,9172,4692,Tag0,unknown
173,1611472938936,25,-967,-0.0002124755859375,20,50,55,896699,428134,11675,72981,45772,16759022,9172,4692,Tag0,unknown
174,1611472938946,25,-453,-9.95361328125e-05,20,50,55,896699,428134,11675,72981,45772,16759022,9172,4692,Tag0,unknown
175,1611472938956,25,-701,-0.0001540283203125,20,50,55,896699,428134,11675,72981,45772,16759022,9172,4692,Tag0,unknown
176,1611472938970,25,-677,-0.00014875488281250002,20,50,55,896699,428134,11675,72981,45772,16759022,9172,4692,Tag0,unknown
177,1611472938980,25,-655,-0.0001439208984375,20,50,55,896699,428134,11675,72981,45772,16759022,9172,4692,Tag0,unknown
178,1611472939004,25,-421,-9.25048828125e-05,20,50,55,896699,428134,11675,72981,45772,16759022,9172,4692,Tag0,unknown
179,1611472939015,25,-594,-0.00013051757812500002,20,50,55,896699,428134,11675,72981,45772,16759022,9172,4692,Tag0,unknown
180,1611472939033,25,104,2.28515625e-05,20,50,55,896699,428134,11675,72981,45772,16759022,9172,4692,Tag0,unknown
181,1611472939050,25,-123,-2.70263671875e-05,20,50,55,896699,428134,11675,72981,45772,16759022,9172,4692,Tag0,unknown
182,1611472939066,25,315,6.92138671875e-05,20,50,55,896699,428134,11675,72981,45772,16759022,9172,4692,Tag0,unknown
183,1611472939085,25,378,8.3056640625e-05,20,50,55,896699,428134,11675,72981,45772,16759022,9172,4692,Tag0,unknown
184,1611472939102,25,139,3.0541992187500004e-05,20,50,55,896699,428134,11675,72981,45772,16759022,9172,4692,Tag0,unknown
185,1611472939115,25,-507,-0.0001114013671875,20,50,55,896699,428134,11675,72981,45772,16759022,9172,4692,Tag0,unknown
186,1611472939130,25,-620,-0.00013623046875,20,50,55,896699,428134,11675,72981,45772,16759022,9172,4692,Tag0,unknown
187,1611472939148,25,-129,-2.83447265625e-05,20,50,55,896699,428134,11675,72981,45772,16759022,9172,4692,Tag0,unknown
188,1611472939164,25,71,1.56005859375e-05,20,50,55,896699,428134,11675,72981,45772,16759022,9172,4692,Tag0,unknown
189,1611472939188,25,-357,-7.844238281250001e-05,20,50,55,896699,428134,11675,72981,45772,16759022,9172,4692,Tag0,unknown
190,1611472939200,25,-117,-2.57080078125e-05,20,50,55,896699,428134,11675,72981,45772,16759022,9172,4692,Tag0,unknown
191,1611472939224,25,368,8.0859375e-05,20,50,55,896699,428134,11675,72981,45772,16759022,9172,4692,Tag0,unknown
192,1611472939234,25,-288,-6.328125e-05,20,50,55,896699,428134,11675,72981,45772,16759022,9172,4692,Tag0,unknown
193,1611472939244,25,-83,-1.82373046875e-05,20,50,55,896699,428134,11675,72981,45772,16759022,9172,4692,Tag0,unknown
194,1611472939254,25,-269,-5.91064453125e-05,20,50,55,896699,428134,11675,72981,45772,16759022,9172,4692,Tag0,unknown
195,1611472939267,25,177,3.889160156250001e-05,20,50,55,896699,428134,11675,72981,45772,16759022,9172,4692,Tag0,unknown
196,1611472939284,25,529,0.0001162353515625,20,50,55,896699,428134,11675,72981,45772,16759022,9172,4692,Tag0,unknown
197,1611472939303,25,418,9.1845703125e-05,20,50,55,896699,428134,11675,72981,45772,16759022,9172,4692,Tag0,unknown
198,1611472939317,25,785,0.0001724853515625,20,50,55,896699,428134,11675,72981,45772,16759022,9172,4692,Tag0,unknown
199,1611472939334,25,464,0.000101953125,20,50,55,896699,428134,11675,72981,45772,16759022,9172,4692,Tag0,unknown
200,1611472939348,25,689,0.0001513916015625,20,50,55,896699,428134,11675,72981,45772,16759022,9172,4692,Tag0,unknown
201,1611472939369,25,848,0.000186328125,20,50,55,896699,428134,11675,72981,45772,16759022,9172,4692,Tag0,unknown
202,1611472939384,25,641,0.0001408447265625,20,50,55,896699,428134,11675,72981,45772,16759022,9172,4692,Tag0,unknown
203,1611472939398,25,768,0.00016875,20,50,55,896699,428134,11675,72981,45772,16759022,9172,4692,Tag0,unknown
204,1611472939417,25,738,0.000162158203125,20,50,55,896699,428134,11675,72981,45772,16759022,9172,4692,Tag0,unknown
205,1611472939469,25,437,9.60205078125e-05,20,50,55,896699,428134,11675,72981,45772,16759022,9172,4692,Tag0,unknown
206,1611472939487,25,380,8.349609375e-05,20,50,55,896699,428134,11675,72981,45772,16759022,9172,4692,Tag0,unknown
207,1611472939497,25,77,1.69189453125e-05,20,50,55,896699,428134,11675,72981,45772,16759022,9172,4692,Tag0,unknown
208,1611472939507,25,-205,-4.50439453125e-05,20,50,55,896699,428134,11675,72981,45772,16759022,9172,4692,Tag0,unknown
209,1611472939517,25,72,1.58203125e-05,20,50,55,896699,428134,11675,72981,45772,16759022,9172,4692,Tag0,unknown
210,1611472939527,25,197,4.32861328125e-05,20,50,55,896699,428134,11675,72981,45772,16759022,9172,4692,Tag0,unknown
211,1611472939540,25,555,0.0001219482421875,20,50,55,896699,428134,11675,72981,45772,16759022,9172,4692,Tag0,unknown
212,1611472939550,25,-52,-1.142578125e-05,20,50,55,896699,428134,11675,72981,45772,16759022,9172,4692,Tag0,unknown
213,1611472939568,25,701,0.0001540283203125,20,50,55,896699,428134,11675,72981,45772,16759022,9172,4692,Tag0,unknown
214,1611472939581,25,732,0.00016083984375,20,50,55,896699,428134,11675,72981,45772,16759022,9172,4692,Tag0,unknown
215,1611472939598,25,1045,0.0002296142578125,20,50,55,896699,428134,11675,72981,45772,16759022,9172,4692,Tag0,unknown
216,1611472939616,25,1051,0.0002309326171875,20,50,55,896699,428134,11675,72981,45772,16759022,9172,4692,Tag0,unknown
217,1611472939634,25,665,0.0001461181640625,20,50,55,896699,428134,11675,72981,45772,16759022,9172,4692,Tag0,unknown
218,1611472939650,25,212,4.658203125000001e-05,20,50,55,896699,428134,11675,72981,45772,16759022,9172,4692,Tag0,unknown
219,1611472939666,25,169,3.71337890625e-05,20,50,55,896699,428134,11675,72981,45772,16759022,9172,4692,Tag0,unknown
220,1611472939683,25,323,7.09716796875e-05,20,50,55,896699,428134,11675,72981,45772,16759022,9172,4692,Tag0,unknown
221,1611472939701,25,294,6.4599609375e-05,20,50,55,896699,428134,11675,72981,45772,16759022,9172,4692,Tag0,unknown
222,1611472939711,25,-78,-1.7138671875e-05,20,50,55,896699,428134,11675,72981,45772,16759022,9172,4692,Tag0,unknown
223,1611472939746,26,-118,-2.5927734375e-05,20,50,55,1152377,169927,86183,21746,20003,16753490,15338,2550,Tag0,unknown
224,1611472939764,26,-121,-2.6586914062500006e-05,20,50,55,1152377,169927,86183,21746,20003,16753490,15338,2550,Tag0,unknown
225,1611472939790,26,92,2.021484375e-05,20,50,55,1152377,169927,86183,21746,20003,16753490,15338,2550,Tag0,unknown
226,1611472939800,26,91,1.99951171875e-05,20,50,55,1152377,169927,86183,21746,20003,16753490,15338,2550,Tag0,unknown
227,1611472939824,26,83,1.82373046875e-05,20,50,55,1152377,169927,86183,21746,20003,16753490,15338,2550,Tag0,unknown
228,1611472939835,26,83,1.82373046875e-05,20,50,55,1152377,169927,86183,21746,20003,16753490,15338,2550,Tag0,unknown
229,1611472939845,26,76,1.669921875e-05,20,50,55,1152377,169927,86183,21746,20003,16753490,15338,2550,Tag0,unknown
230,1611472939855,26,59,1.29638671875e-05,20,50,55,1152377,169927,86183,21746,20003,16753490,15338,2550,Tag0,unknown
231,1611472939868,26,34,7.470703125e-06,20,50,55,1152377,169927,86183,21746,20003,16753490,15338,2550,Tag0,unknown
232,1611472939894,26,-211,-4.63623046875e-05,20,50,55,1152377,169927,86183,21746,20003,16753490,15338,2550,Tag0,unknown
233,1611472939904,26,-781,-0.0001716064453125,20,50,55,1152377,169927,86183,21746,20003,16753490,15338,2550,Tag0,unknown
234,1611472939917,26,-1257,-0.0002761962890625,20,50,55,1152377,169927,86183,21746,20003,16753490,15338,2550,Tag0,unknown
235,1611472939936,26,-1985,-0.0004361572265625,20,50,55,1152377,169927,86183,21746,20003,16753490,15338,2550,Tag0,unknown
236,1611472939951,26,-1754,-0.0003854003906250001,20,50,55,1152377,169927,86183,21746,20003,16753490,15338,2550,Tag0,unknown
237,1611472939970,26,-2048,-0.00045,20,50,55,1152377,169927,86183,21746,20003,16753490,15338,2550,Tag0,unknown
238,1611472939984,26,-2048,-0.00045,20,50,55,1152377,169927,86183,21746,20003,16753490,15338,2550,Tag0,unknown
239,1611472939994,26,-1708,-0.00037529296875,20,50,55,1152377,169927,86183,21746,20003,16753490,15338,2550,Tag0,unknown
240,1611472940008,26,-1560,-0.0003427734375,20,50,55,1152377,169927,86183,21746,20003,16753490,15338,2550,Tag0,unknown
241,1611472940018,26,-1389,-0.00030520019531250005,20,50,55,1152377,169927,86183,21746,20003,16753490,15338,2550,Tag0,unknown
242,1611472940042,26,-932,-0.00020478515625,20,50,55,1152377,169927,86183,21746,20003,16753490,15338,2550,Tag0,unknown
243,1611472940052,26,-641,-0.0001408447265625,20,50,55,1152377,169927,86183,21746,20003,16753490,15338,2550,Tag0,unknown
244,1611472940065,26,-829,-0.0001821533203125,20,50,55,1152377,169927,86183,21746,20003,16753490,15338,2550,Tag0,unknown
245,1611472940083,26,-609,-0.0001338134765625,20,50,55,1152377,169927,86183,21746,20003,16753490,15338,2550,Tag0,unknown
246,1611472940101,26,-581,-0.0001276611328125,20,50,55,1152377,169927,86183,21746,20003,16753490,15338,2550,Tag0,unknown
247,1611472940119,26,-216,-4.74609375e-05,20,50,55,1152377,169927,86183,21746,20003,16753490,15338,2550,Tag0,unknown
248,1611472940135,26,-167,-3.66943359375e-05,20,50,55,1152377,169927,86183,21746,20003,16753490,15338,2550,Tag0,unknown
249,1611472940151,26,-301,-6.613769531250001e-05,20,50,55,1152377,169927,86183,21746,20003,16753490,15338,2550,Tag0,unknown
250,1611472940167,26,-298,-6.5478515625e-05,20,50,55,1152377,169927,86183,21746,20003,16753490,15338,2550,Tag0,unknown
251,1611472940189,26,-260,-5.712890625e-05,20,50,55,1152377,169927,86183,21746,20003,16753490,15338,2550,Tag0,unknown
252,1611472940200,26,0,0.0,20,50,55,1152377,169927,86183,21746,20003,16753490,15338,2550,Tag0,unknown
253,1611472940210,26,21,4.614257812500002e-06,20,50,55,1152377,169927,86183,21746,20003,16753490,15338,2550,Tag0,unknown
254,1611472940226,26,38,8.349609375e-06,20,50,55,1152377,169927,86183,21746,20003,16753490,15338,2550,Tag0,unknown
255,1611472940236,26,40,8.7890625e-06,20,50,55,1152377,169927,86183,21746,20003,16753490,15338,2550,Tag0,unknown
256,1611472940258,26,51,1.12060546875e-05,20,50,55,1152377,169927,86183,21746,20003,16753490,15338,2550,Tag0,unknown
257,1611472940268,26,50,1.0986328125e-05,20,50,55,1152377,169927,86183,21746,20003,16753490,15338,2550,Tag0,unknown
258,1611472940284,26,55,1.20849609375e-05,20,50,55,1152377,169927,86183,21746,20003,16753490,15338,2550,Tag0,unknown
259,1611472940301,26,57,1.25244140625e-05,20,50,55,1152377,169927,86183,21746,20003,16753490,15338,2550,Tag0,unknown
260,1611472940316,26,60,1.318359375e-05,20,50,55,1152377,169927,86183,21746,20003,16753490,15338,2550,Tag0,unknown
261,1611472940332,26,60,1.318359375e-05,20,50,55,1152377,169927,86183,21746,20003,16753490,15338,2550,Tag0,unknown
262,1611472940349,26,61,1.34033203125e-05,20,50,55,1152377,169927,86183,21746,20003,16753490,15338,2550,Tag0,unknown
263,1611472940359,26,65,1.42822265625e-05,20,50,55,1152377,169927,86183,21746,20003,16753490,15338,2550,Tag0,unknown
264,1611472940370,26,64,1.40625e-05,20,50,55,1152377,169927,86183,21746,20003,16753490,15338,2550,Tag0,unknown
265,1611472940384,26,66,1.4501953125e-05,20,50,55,1152377,169927,86183,21746,20003,16753490,15338,2550,Tag0,unknown
266,1611472940405,26,67,1.4721679687500003e-05,20,50,55,1152377,169927,86183,21746,20003,16753490,15338,2550,Tag0,unknown
267,1611472940419,26,64,1.40625e-05,20,50,55,1152377,169927,86183,21746,20003,16753490,15338,2550,Tag0,unknown
268,1611472940429,26,66,1.4501953125e-05,20,50,55,1152377,169927,86183,21746,20003,16753490,15338,2550,Tag0,unknown
269,1611472940443,26,69,1.51611328125e-05,20,50,55,1152377,169927,86183,21746,20003,16753490,15338,2550,Tag0,unknown
270,1611472940453,26,66,1.4501953125e-05,20,50,55,1152377,169927,86183,21746,20003,16753490,15338,2550,Tag0,unknown
271,1611472940476,26,68,1.494140625e-05,20,50,55,1152377,169927,86183,21746,20003,16753490,15338,2550,Tag0,unknown
272,1611472940486,26,66,1.4501953125e-05,20,50,55,1152377,169927,86183,21746,20003,16753490,15338,2550,Tag0,unknown
273,1611472940496,26,66,1.4501953125e-05,20,50,55,1152377,169927,86183,21746,20003,16753490,15338,2550,Tag0,unknown
274,1611472940506,26,67,1.4721679687500003e-05,20,50,55,1152377,169927,86183,21746,20003,16753490,15338,2550,Tag0,unknown
275,1611472940519,26,68,1.494140625e-05,20,50,55,1152377,169927,86183,21746,20003,16753490,15338,2550,Tag0,unknown
276,1611472940535,26,70,1.5380859375e-05,20,50,55,1152377,169927,86183,21746,20003,16753490,15338,2550,Tag0,unknown
277,1611472940554,26,66,1.4501953125e-05,20,50,55,1152377,169927,86183,21746,20003,16753490,15338,2550,Tag0,unknown
278,1611472940570,26,69,1.51611328125e-05,20,50,55,1152377,169927,86183,21746,20003,16753490,15338,2550,Tag0,unknown
279,1611472940580,26,109,2.39501953125e-05,20,50,55,1152377,169927,86183,21746,20003,16753490,15338,2550,Tag0,unknown
280,1611472940602,26,101,2.21923828125e-05,20,50,55,1152377,169927,86183,21746,20003,16753490,15338,2550,Tag0,unknown
281,1611472940623,26,61,1.34033203125e-05,20,50,55,1152377,169927,86183,21746,20003,16753490,15338,2550,Tag0,unknown
282,1611472940635,26,67,1.4721679687500003e-05,20,50,55,1152377,169927,86183,21746,20003,16753490,15338,2550,Tag0,unknown
283,1611472940645,26,81,1.77978515625e-05,20,50,55,1152377,169927,86183,21746,20003,16753490,15338,2550,Tag0,unknown
284,1611472940664,26,21,4.614257812500002e-06,20,50,55,1152377,169927,86183,21746,20003,16753490,15338,2550,Tag0,unknown
285,1611472940684,26,20,4.39453125e-06,20,50,55,1152377,169927,86183,21746,20003,16753490,15338,2550,Tag0,unknown
286,1611472940701,26,34,7.470703125e-06,20,50,55,1152377,169927,86183,21746,20003,16753490,15338,2550,Tag0,unknown
287,1611472940718,26,59,1.29638671875e-05,20,50,55,1152377,169927,86183,21746,20003,16753490,15338,2550,Tag0,unknown
288,1611472940728,0,54,1.1865234375e-05,1,64,55,1072189,4796,4484,7529,1116,644,238,356,Tag0,unknown
289,1611472940750,0,59,1.29638671875e-05,1,64,55,1072189,4796,4484,7529,1116,644,238,356,Tag0,unknown
290,1611472940768,0,49,1.07666015625e-05,1,64,55,1072189,4796,4484,7529,1116,644,238,356,Tag0,unknown
291,1611472940778,0,50,1.0986328125e-05,1,64,55,1072189,4796,4484,7529,1116,644,238,356,Tag0,unknown
292,1611472940788,0,43,9.4482421875e-06,1,64,55,1072189,4796,4484,7529,1116,644,238,356,Tag0,unknown
293,1611472940802,0,44,9.66796875e-06,1,64,55,1072189,4796,4484,7529,1116,644,238,356,Tag0,unknown
294,1611472940812,0,60,1.318359375e-05,1,64,55,1072189,4796,4484,7529,1116,644,238,356,Tag0,unknown
295,1611472940822,0,57,1.25244140625e-05,1,64,55,1072189,4796,4484,7529,1116,644,238,356,Tag0,unknown
296,1611472940834,0,57,1.25244140625e-05,1,64,55,1072189,4796,4484,7529,1116,644,238,356,Tag0,unknown
297,1611472940856,0,65,1.42822265625e-05,1,64,55,1072189,4796,4484,7529,1116,644,238,356,Tag0,unknown
298,1611472940868,0,73,1.6040039062500002e-05,1,64,55,1072189,4796,4484,7529,1116,644,238,356,Tag0,unknown
299,1611472940885,0,-87,-1.91162109375e-05,1,64,55,1072189,4796,4484,7529,1116,644,238,356,Tag0,unknown
300,1611472940903,0,66,1.4501953125e-05,1,64,55,1072189,4796,4484,7529,1116,644,238,356,Tag0,unknown
301,1611472940930,0,71,1.56005859375e-05,1,64,55,1072189,4796,4484,7529,1116,644,238,356,Tag0,unknown
302,1611472940940,0,-109,-2.39501953125e-05,1,64,55,1072189,4796,4484,7529,1116,644,238,356,Tag0,unknown
303,1611472940953,0,73,1.6040039062500002e-05,1,64,55,1072189,4796,4484,7529,1116,644,238,356,Tag0,unknown
304,1611472940970,0,41,9.0087890625e-06,1,64,55,1072189,4796,4484,7529,1116,644,238,356,Tag0,unknown
305,1611472940986,0,48,1.0546875e-05,1,64,55,1072189,4796,4484,7529,1116,644,238,356,Tag0,unknown
306,1611472941006,0,-45,-9.8876953125e-06,1,64,55,1072189,4796,4484,7529,1116,644,238,356,Tag0,unknown
307,1611472941019,0,-128,-2.8125e-05,1,64,55,1072189,4796,4484,7529,1116,644,238,356,Tag0,unknown
308,1611472941029,0,-306,-6.723632812500001e-05,1,64,55,1072189,4796,4484,7529,1116,644,238,356,Tag0,unknown
309,1611472941044,0,6,1.318359375e-06,1,64,55,1072189,4796,4484,7529,1116,644,238,356,Tag0,unknown
310,1611472941054,0,26,5.712890625e-06,1,64,55,1072189,4796,4484,7529,1116,644,238,356,Tag0,unknown
311,1611472941083,0,67,1.4721679687500003e-05,1,64,55,1072189,4796,4484,7529,1116,644,238,356,Tag0,unknown
312,1611472941093,0,59,1.29638671875e-05,1,64,55,1072189,4796,4484,7529,1116,644,238,356,Tag0,unknown
313,1611472941104,0,59,1.29638671875e-05,1,64,55,1072189,4796,4484,7529,1116,644,238,356,Tag0,unknown
314,1611472941114,0,-115,-2.52685546875e-05,1,64,55,1072189,4796,4484,7529,1116,644,238,356,Tag0,unknown
315,1611472941124,0,-116,-2.548828125e-05,1,64,55,1072189,4796,4484,7529,1116,644,238,356,Tag0,unknown
316,1611472941135,0,202,4.4384765625e-05,1,64,55,1072189,4796,4484,7529,1116,644,238,356,Tag0,unknown
317,1611472941151,0,-66,-1.4501953125e-05,1,64,55,1072189,4796,4484,7529,1116,644,238,356,Tag0,unknown
318,1611472941168,0,-286,-6.2841796875e-05,1,64,55,1072189,4796,4484,7529,1116,644,238,356,Tag0,unknown
319,1611472941185,0,67,1.4721679687500003e-05,1,64,55,1072189,4796,4484,7529,1116,644,238,356,Tag0,unknown
320,1611472941203,0,-277,-6.086425781250001e-05,1,64,55,1072189,4796,4484,7529,1116,644,238,356,Tag0,unknown
321,1611472941220,0,-378,-8.3056640625e-05,1,64,55,1072189,4796,4484,7529,1116,644,238,356,Tag0,unknown
322,1611472941230,0,-316,-6.943359375000001e-05,1,64,55,1072189,4796,4484,7529,1116,644,238,356,Tag0,unknown
323,1611472941252,0,-265,-5.82275390625e-05,1,64,55,1072189,4796,4484,7529,1116,644,238,356,Tag0,unknown
324,1611472941271,0,80,1.7578125e-05,1,64,71,1072189,4796,4484,7529,1116,644,238,356,Tag0,unknown
325,1611472941287,0,-263,-5.778808593750001e-05,1,64,71,1072189,4796,4484,7529,1116,644,238,356,Tag0,unknown
326,1611472941297,0,105,2.30712890625e-05,1,64,71,1072189,4796,4484,7529,1116,644,238,356,Tag0,unknown
327,1611472941310,0,-112,-2.4609375e-05,1,64,71,1072189,4796,4484,7529,1116,644,238,356,Tag0,unknown
328,1611472941322,0,-93,-2.04345703125e-05,1,64,71,1072189,4796,4484,7529,1116,644,238,356,Tag0,unknown
329,1611472941344,0,61,1.34033203125e-05,1,64,71,1072189,4796,4484,7529,1116,644,238,356,Tag0,unknown
330,1611472941354,0,-89,-1.95556640625e-05,1,64,71,1072189,4796,4484,7529,1116,644,238,356,Tag0,unknown
331,1611472941370,0,-92,-2.021484375e-05,1,64,71,1072189,4796,4484,7529,1116,644,238,356,Tag0,unknown
332,1611472941385,0,-24,-5.2734375e-06,1,64,71,1072189,4796,4484,7529,1116,644,238,356,Tag0,unknown
333,1611472941401,0,73,1.6040039062500002e-05,1,64,71,1072189,4796,4484,7529,1116,644,238,356,Tag0,unknown
334,1611472941419,0,260,5.712890625e-05,1,64,71,1072189,4796,4484,7529,1116,644,238,356,Tag0,unknown
335,1611472941436,0,-111,-2.43896484375e-05,1,64,71,1072189,4796,4484,7529,1116,644,238,356,Tag0,unknown
336,1611472941459,0,-59,-1.29638671875e-05,1,64,71,1072189,4796,4484,7529,1116,644,238,356,Tag0,unknown
337,1611472941471,0,32,7.03125e-06,1,64,71,1072189,4796,4484,7529,1116,644,238,356,Tag0,unknown
338,1611472941493,0,5,1.0986328125e-06,1,64,71,1072189,4796,4484,7529,1116,644,238,356,Tag0,unknown
339,1611472941505,0,-105,-2.30712890625e-05,1,64,71,1072189,4796,4484,7529,1116,644,238,356,Tag0,unknown
340,1611472941515,0,-259,-5.69091796875e-05,1,64,71,1072189,4796,4484,7529,1116,644,238,356,Tag0,unknown
341,1611472941526,0,-262,-5.7568359375e-05,1,64,71,1072189,4796,4484,7529,1116,644,238,356,Tag0,unknown
342,1611472941538,0,-276,-6.064453125e-05,1,64,71,1072189,4796,4484,7529,1116,644,238,356,Tag0,unknown
343,1611472941554,0,-275,-6.04248046875e-05,1,64,71,1072189,4796,4484,7529,1116,644,238,356,Tag0,unknown
344,1611472941570,0,17,3.7353515625e-06,1,64,71,1072189,4796,4484,7529,1116,644,238,356,Tag0,unknown
345,1611472941587,0,-105,-2.30712890625e-05,1,64,36,1072189,4796,4484,7529,1116,644,238,356,Tag0,unknown
346,1611472941603,0,42,9.228515625000003e-06,1,64,36,1072189,4796,4484,7529,1116,644,238,356,Tag0,unknown
347,1611472941619,0,73,1.6040039062500002e-05,1,64,36,1072189,4796,4484,7529,1116,644,238,356,Tag0,unknown
348,1611472941637,0,280,6.15234375e-05,1,64,36,1072189,4796,4484,7529,1116,644,238,356,Tag0,unknown
349,1611472941656,0,-95,-2.08740234375e-05,1,64,36,1072189,4796,4484,7529,1116,644,238,356,Tag0,unknown
350,1611472941666,0,-95,-2.08740234375e-05,1,64,36,1072189,4796,4484,7529,1116,644,238,356,Tag0,unknown
351,1611472941679,0,85,1.86767578125e-05,1,64,36,1072189,4796,4484,7529,1116,644,238,356,Tag0,unknown
352,1611472941692,0,28,6.15234375e-06,1,64,36,1072189,4796,4484,7529,1116,644,238,356,Tag0,unknown
353,1611472941711,0,125,2.74658203125e-05,1,64,36,1072189,4796,4484,7529,1116,644,238,356,Tag0,unknown
354,1611472941723,0,87,1.91162109375e-05,1,64,36,1072189,4796,4484,7529,1116,644,238,356,Tag0,unknown
355,1611472941733,0,-15,-3.2958984375e-06,10,60,36,154709,25645,2102,12130,6547,7019,3671,1982,Tag0,unknown
356,1611472941744,0,329,7.229003906250001e-05,10,60,36,154709,25645,2102,12130,6547,7019,3671,1982,Tag0,unknown
357,1611472941754,0,-76,-1.669921875e-05,10,60,36,154709,25645,2102,12130,6547,7019,3671,1982,Tag0,unknown
358,1611472941769,0,40,8.7890625e-06,10,60,36,154709,25645,2102,12130,6547,7019,3671,1982,Tag0,unknown
359,1611472941788,0,-11,-2.4169921875e-06,10,60,36,154709,25645,2102,12130,6547,7019,3671,1982,Tag0,unknown
360,1611472941803,0,12,2.63671875e-06,10,60,36,154709,25645,2102,12130,6547,7019,3671,1982,Tag0,unknown
361,1611472941823,0,-28,-6.15234375e-06,10,60,36,154709,25645,2102,12130,6547,7019,3671,1982,Tag0,unknown
362,1611472941839,0,-341,-7.492675781250003e-05,10,60,36,154709,25645,2102,12130,6547,7019,3671,1982,Tag0,unknown
363,1611472941849,0,-41,-9.0087890625e-06,10,60,36,154709,25645,2102,12130,6547,7019,3671,1982,Tag0,unknown
364,1611472941865,0,379,8.32763671875e-05,10,60,36,154709,25645,2102,12130,6547,7019,3671,1982,Tag0,unknown
365,1611472941875,0,-283,-6.218261718750001e-05,10,60,36,154709,25645,2102,12130,6547,7019,3671,1982,Tag0,unknown
366,1611472941889,0,-87,-1.91162109375e-05,10,60,36,154709,25645,2102,12130,6547,7019,3671,1982,Tag0,unknown
367,1611472941907,0,-301,-6.613769531250001e-05,10,60,36,154709,25645,2102,12130,6547,7019,3671,1982,Tag0,unknown
368,1611472941921,0,-295,-6.48193359375e-05,10,60,36,154709,25645,2102,12130,6547,7019,3671,1982,Tag0,unknown
369,1611472941971,0,-119,-2.6147460937500007e-05,10,60,36,154709,25645,2102,12130,6547,7019,3671,1982,Tag0,unknown
370,1611472941986,0,37,8.1298828125e-06,10,60,36,154709,25645,2102,12130,6547,7019,3671,1982,Tag0,unknown
371,1611472942040,0,-112,-2.4609375e-05,10,60,36,154709,25645,2102,12130,6547,7019,3671,1982,Tag0,unknown
372,1611472942069,0,163,3.581542968750001e-05,10,60,36,154709,25645,2102,12130,6547,7019,3671,1982,Tag0,unknown
373,1611472942079,0,842,0.000185009765625,10,60,36,154709,25645,2102,12130,6547,7019,3671,1982,Tag0,unknown
374,1611472942107,0,349,7.668457031250001e-05,10,60,36,154709,25645,2102,12130,6547,7019,3671,1982,Tag0,unknown
375,1611472942122,0,-141,-3.09814453125e-05,10,60,36,154709,25645,2102,12130,6547,7019,3671,1982,Tag0,unknown
376,1611472942174,0,21,4.614257812500002e-06,10,60,36,154709,25645,2102,12130,6547,7019,3671,1982,Tag0,unknown
377,1611472942192,0,82,1.8017578125e-05,10,60,36,154709,25645,2102,12130,6547,7019,3671,1982,Tag0,unknown
378,1611472942202,0,87,1.91162109375e-05,10,60,36,154709,25645,2102,12130,6547,7019,3671,1982,Tag0,unknown
379,1611472942243,0,263,5.778808593750001e-05,10,60,36,154709,25645,2102,12130,6547,7019,3671,1982,Tag0,unknown
380,1611472942259,0,451,9.90966796875e-05,10,60,36,154709,25645,2102,12130,6547,7019,3671,1982,Tag0,unknown
381,1611472942269,0,-375,-8.23974609375e-05,10,60,36,154709,25645,2102,12130,6547,7019,3671,1982,Tag0,unknown
382,1611472942312,0,-219,-4.81201171875e-05,10,60,36,154709,25645,2102,12130,6547,7019,3671,1982,Tag0,unknown
383,1611472942325,0,-457,-0.0001004150390625,10,60,36,154709,25645,2102,12130,6547,7019,3671,1982,Tag0,unknown
384,1611472942335,0,99,2.1752929687500006e-05,10,60,36,154709,25645,2102,12130,6547,7019,3671,1982,Tag0,unknown
385,1611472942381,0,-204,-4.482421875e-05,10,60,36,154709,25645,2102,12130,6547,7019,3671,1982,Tag0,unknown
386,1611472942397,0,65,1.42822265625e-05,10,60,36,154709,25645,2102,12130,6547,7019,3671,1982,Tag0,unknown
387,1611472942409,0,276,6.064453125e-05,10,60,36,154709,25645,2102,12130,6547,7019,3671,1982,Tag0,unknown
388,1611472942482,0,10,2.197265625e-06,10,60,36,154709,25645,2102,12130,6547,7019,3671,1982,Tag0,unknown
389,1611472942510,0,-72,-1.58203125e-05,10,60,36,154709,25645,2102,12130,6547,7019,3671,1982,Tag0,unknown
390,1611472942520,0,-116,-2.548828125e-05,10,60,36,154709,25645,2102,12130,6547,7019,3671,1982,Tag0,unknown
391,1611472942531,0,97,2.13134765625e-05,10,60,36,154709,25645,2102,12130,6547,7019,3671,1982,Tag0,unknown
392,1611472942541,0,608,0.00013359375,10,60,36,154709,25645,2102,12130,6547,7019,3671,1982,Tag0,unknown
393,1611472942553,0,-73,-1.6040039062500002e-05,10,60,36,154709,25645,2102,12130,6547,7019,3671,1982,Tag0,unknown
394,1611472942563,0,-245,-5.38330078125e-05,10,60,36,154709,25645,2102,12130,6547,7019,3671,1982,Tag0,unknown
395,1611472942573,0,-84,-1.8457031250000007e-05,10,60,36,154709,25645,2102,12130,6547,7019,3671,1982,Tag0,unknown
396,1611472942583,0,-74,-1.6259765625e-05,10,60,36,154709,25645,2102,12130,6547,7019,3671,1982,Tag0,unknown
397,1611472942593,0,263,5.778808593750001e-05,10,60,36,154709,25645,2102,12130,6547,7019,3671,1982,Tag0,unknown
398,1611472942603,0,154,3.3837890625e-05,10,60,36,154709,25645,2102,12130,6547,7019,3671,1982,Tag0,unknown
399,1611472942627,0,-112,-2.4609375e-05,10,60,36,154709,25645,2102,12130,6547,7019,3671,1982,Tag0,unknown
400,1611472942637,0,-123,-2.70263671875e-05,10,60,36,154709,25645,2102,12130,6547,7019,3671,1982,Tag0,unknown
401,1611472942668,0,-48,-1.0546875e-05,10,60,36,154709,25645,2102,12130,6547,7019,3671,1982,Tag0,unknown
402,1611472942689,0,-315,-6.92138671875e-05,10,60,36,154709,25645,2102,12130,6547,7019,3671,1982,Tag0,unknown
403,1611472942708,0,35,7.6904296875e-06,10,60,36,154709,25645,2102,12130,6547,7019,3671,1982,Tag0,unknown
404,1611472942723,0,117,2.57080078125e-05,16,81,36,1893256,836351,895538,519267,212402,380118,450537,150077,Tag0,unknown
405,1611472942747,0,-375,-8.23974609375e-05,16,81,36,1893256,836351,895538,519267,212402,380118,450537,150077,Tag0,unknown
406,1611472942760,0,-196,-4.306640625e-05,16,81,36,1893256,836351,895538,519267,212402,380118,450537,150077,Tag0,unknown
407,1611472942780,0,-112,-2.4609375e-05,16,81,36,1893256,836351,895538,519267,212402,380118,450537,150077,Tag0,unknown
408,1611472942790,0,-334,-7.338867187500001e-05,16,81,36,1893256,836351,895538,519267,212402,380118,450537,150077,Tag0,unknown
409,1611472942816,0,-357,-7.844238281250001e-05,16,81,36,1893256,836351,895538,519267,212402,380118,450537,150077,Tag0,unknown
410,1611472942839,0,-217,-4.76806640625e-05,16,81,36,1893256,836351,895538,519267,212402,380118,450537,150077,Tag0,unknown
411,1611472942849,0,-172,-3.779296875000001e-05,16,81,36,1893256,836351,895538,519267,212402,380118,450537,150077,Tag0,unknown
412,1611472942863,0,-293,-6.43798828125e-05,16,81,36,1893256,836351,895538,519267,212402,380118,450537,150077,Tag0,unknown
413,1611472942876,0,292,6.416015625000001e-05,16,81,36,1893256,836351,895538,519267,212402,380118,450537,150077,Tag0,unknown
414,1611472942886,0,65,1.42822265625e-05,16,81,36,1893256,836351,895538,519267,212402,380118,450537,150077,Tag0,unknown
415,1611472942908,0,-257,-5.64697265625e-05,16,81,36,1893256,836351,895538,519267,212402,380118,450537,150077,Tag0,unknown
416,1611472942944,0,73,1.6040039062500002e-05,16,81,36,1893256,836351,895538,519267,212402,380118,450537,150077,Tag0,unknown
417,1611472942957,0,201,4.41650390625e-05,16,81,36,1893256,836351,895538,519267,212402,380118,450537,150077,Tag0,unknown
418,1611472942967,0,115,2.52685546875e-05,16,81,36,1893256,836351,895538,519267,212402,380118,450537,150077,Tag0,unknown
419,1611472942982,0,298,6.5478515625e-05,16,81,36,1893256,836351,895538,519267,212402,380118,450537,150077,Tag0,unknown
420,1611472943036,0,-284,-6.240234375e-05,16,81,36,1893256,836351,895538,519267,212402,380118,450537,150077,Tag0,unknown
421,1611472943058,0,-71,-1.56005859375e-05,16,81,36,1893256,836351,895538,519267,212402,380118,450537,150077,Tag0,unknown
422,1611472943070,0,269,5.91064453125e-05,16,81,36,1893256,836351,895538,519267,212402,380118,450537,150077,Tag0,unknown
423,1611472943080,0,-111,-2.43896484375e-05,16,81,36,1893256,836351,895538,519267,212402,380118,450537,150077,Tag0,unknown
424,1611472943090,0,-309,-6.78955078125e-05,16,81,36,1893256,836351,895538,519267,212402,380118,450537,150077,Tag0,unknown
425,1611472943100,0,-329,-7.229003906250001e-05,16,81,36,1893256,836351,895538,519267,212402,380118,450537,150077,Tag0,unknown
426,1611472943110,0,-118,-2.5927734375e-05,16,81,36,1893256,836351,895538,519267,212402,380118,450537,150077,Tag0,unknown
427,1611472943154,0,2,4.39453125e-07,16,81,36,1893256,836351,895538,519267,212402,380118,450537,150077,Tag0,unknown
428,1611472943175,0,309,6.78955078125e-05,16,81,36,1893256,836351,895538,519267,212402,380118,450537,150077,Tag0,unknown
429,1611472943185,0,-361,-7.93212890625e-05,16,81,36,1893256,836351,895538,519267,212402,380118,450537,150077,Tag0,unknown
430,1611472943195,0,5,1.0986328125e-06,16,81,36,1893256,836351,895538,519267,212402,380118,450537,150077,Tag0,unknown
431,1611472943205,0,-166,-3.6474609375e-05,16,81,36,1893256,836351,895538,519267,212402,380118,450537,150077,Tag0,unknown
432,1611472943225,0,139,3.0541992187500004e-05,16,81,36,1893256,836351,895538,519267,212402,380118,450537,150077,Tag0,unknown
433,1611472943246,0,313,6.87744140625e-05,16,81,36,1893256,836351,895538,519267,212402,380118,450537,150077,Tag0,unknown
434,1611472943256,0,130,2.8564453125e-05,16,81,36,1893256,836351,895538,519267,212402,380118,450537,150077,Tag0,unknown
435,1611472943266,0,-110,-2.4169921875e-05,16,81,36,1893256,836351,895538,519267,212402,380118,450537,150077,Tag0,unknown
436,1611472943307,0,-273,-5.9985351562500014e-05,16,81,36,1893256,836351,895538,519267,212402,380118,450537,150077,Tag0,unknown
437,1611472943322,0,657,0.0001443603515625,16,81,36,1893256,836351,895538,519267,212402,380118,450537,150077,Tag0,unknown
438,1611472943332,0,-312,-6.85546875e-05,16,81,36,1893256,836351,895538,519267,212402,380118,450537,150077,Tag0,unknown
439,1611472943344,0,-547,-0.0001201904296875,16,81,36,1893256,836351,895538,519267,212402,380118,450537,150077,Tag0,unknown
440,1611472943357,0,-402,-8.8330078125e-05,16,81,36,1893256,836351,895538,519267,212402,380118,450537,150077,Tag0,unknown
441,1611472943378,0,-461,-0.0001012939453125,16,81,36,1893256,836351,895538,519267,212402,380118,450537,150077,Tag0,unknown
442,1611472943392,0,-210,-4.6142578125e-05,16,81,36,1893256,836351,895538,519267,212402,380118,450537,150077,Tag0,unknown
443,1611472943402,0,-638,-0.000140185546875,16,81,36,1893256,836351,895538,519267,212402,380118,450537,150077,Tag0,unknown
444,1611472943417,0,233,5.119628906250001e-05,16,81,36,1893256,836351,895538,519267,212402,380118,450537,150077,Tag0,unknown
445,1611472943429,0,87,1.91162109375e-05,16,81,36,1893256,836351,895538,519267,212402,380118,450537,150077,Tag0,unknown
446,1611472943439,0,7,1.5380859375e-06,16,81,36,1893256,836351,895538,519267,212402,380118,450537,150077,Tag0,unknown
447,1611472943449,0,-298,-6.5478515625e-05,16,81,36,1893256,836351,895538,519267,212402,380118,450537,150077,Tag0,unknown
448,1611472943474,0,-439,-9.64599609375e-05,16,81,36,1893256,836351,895538,519267,212402,380118,450537,150077,Tag0,unknown
449,1611472943489,0,-786,-0.000172705078125,16,81,36,1893256,836351,895538,519267,212402,380118,450537,150077,Tag0,unknown
450,1611472943506,0,50,1.0986328125e-05,16,81,36,1893256,836351,895538,519267,212402,380118,450537,150077,Tag0,unknown
451,1611472943523,0,-300,-6.591796875e-05,16,81,36,1893256,836351,895538,519267,212402,380118,450537,150077,Tag0,unknown
452,1611472943541,0,-579,-0.0001272216796875,16,81,36,1893256,836351,895538,519267,212402,380118,450537,150077,Tag0,unknown
453,1611472943551,0,-296,-6.50390625e-05,16,81,36,1893256,836351,895538,519267,212402,380118,450537,150077,Tag0,unknown
454,1611472943563,0,-273,-5.9985351562500014e-05,16,81,36,1893256,836351,895538,519267,212402,380118,450537,150077,Tag0,unknown
455,1611472943573,0,481,0.0001056884765625,16,81,36,1893256,836351,895538,519267,212402,380118,450537,150077,Tag0,unknown
456,1611472943592,0,535,0.0001175537109375,16,81,36,1893256,836351,895538,519267,212402,380118,450537,150077,Tag0,unknown
457,1611472943618,0,146,3.2080078125000004e-05,16,81,36,1893256,836351,895538,519267,212402,380118,450537,150077,Tag0,unknown
458,1611472943628,0,853,0.0001874267578125,16,81,36,1893256,836351,895538,519267,212402,380118,450537,150077,Tag0,unknown
459,1611472943640,0,455,9.99755859375e-05,16,81,36,1893256,836351,895538,519267,212402,380118,450537,150077,Tag0,unknown
460,1611472943657,0,-8,-1.7578125e-06,16,81,36,1893256,836351,895538,519267,212402,380118,450537,150077,Tag0,unknown
461,1611472943676,0,-354,-7.778320312500001e-05,16,81,36,1893256,836351,895538,519267,212402,380118,450537,150077,Tag0,unknown
462,1611472943689,0,-1035,-0.0002274169921875,16,81,36,1893256,836351,895538,519267,212402,380118,450537,150077,Tag0,unknown
463,1611472943707,0,-808,-0.00017753906250000002,16,81,36,1893256,836351,895538,519267,212402,380118,450537,150077,Tag0,unknown
464,1611472943725,0,-595,-0.0001307373046875,14,83,36,851428,128536,140666,16763395,14463,23659,24829,7114,Tag0,unknown
465,1611472943739,0,21,4.614257812500002e-06,14,83,36,851428,128536,140666,16763395,14463,23659,24829,7114,Tag0,unknown
466,1611472943757,0,964,0.00021181640625,14,83,36,851428,128536,140666,16763395,14463,23659,24829,7114,Tag0,unknown
467,1611472943773,0,969,0.0002129150390625,14,83,36,851428,128536,140666,16763395,14463,23659,24829,7114,Tag0,unknown
468,1611472943790,0,677,0.00014875488281250002,14,83,36,851428,128536,140666,16763395,14463,23659,24829,7114,Tag0,unknown
469,1611472943809,0,196,4.306640625e-05,14,83,36,851428,128536,140666,16763395,14463,23659,24829,7114,Tag0,unknown
470,1611472943826,0,-347,-7.62451171875e-05,14,83,36,851428,128536,140666,16763395,14463,23659,24829,7114,Tag0,unknown
471,1611472943836,0,-79,-1.7358398437500006e-05,14,83,36,851428,128536,140666,16763395,14463,23659,24829,7114,Tag0,unknown
472,1611472943847,0,100,2.197265625e-05,14,83,36,851428,128536,140666,16763395,14463,23659,24829,7114,Tag0,unknown
473,1611472943859,0,169,3.71337890625e-05,14,83,36,851428,128536,140666,16763395,14463,23659,24829,7114,Tag0,unknown
474,1611472943869,0,-83,-1.82373046875e-05,14,83,36,851428,128536,140666,16763395,14463,23659,24829,7114,Tag0,unknown
475,1611472943880,0,-103,-2.26318359375e-05,14,83,36,851428,128536,140666,16763395,14463,23659,24829,7114,Tag0,unknown
476,1611472943890,0,-119,-2.6147460937500007e-05,14,83,36,851428,128536,140666,16763395,14463,23659,24829,7114,Tag0,unknown
477,1611472943914,0,23,5.0537109375e-06,14,83,36,851428,128536,140666,16763395,14463,23659,24829,7114,Tag0,unknown
478,1611472943924,0,320,7.03125e-05,14,83,36,851428,128536,140666,16763395,14463,23659,24829,7114,Tag0,unknown
479,1611472943949,0,-262,-5.7568359375e-05,14,83,36,851428,128536,140666,16763395,14463,23659,24829,7114,Tag0,unknown
480,1611472943960,0,-157,-3.44970703125e-05,14,83,36,851428,128536,140666,16763395,14463,23659,24829,7114,Tag0,unknown
481,1611472943970,0,571,0.0001254638671875,14,83,36,851428,128536,140666,16763395,14463,23659,24829,7114,Tag0,unknown
482,1611472943980,0,824,0.0001810546875,14,83,36,851428,128536,140666,16763395,14463,23659,24829,7114,Tag0,unknown
483,1611472943991,0,343,7.53662109375e-05,14,83,36,851428,128536,140666,16763395,14463,23659,24829,7114,Tag0,unknown
484,1611472944008,0,263,5.778808593750001e-05,14,83,36,851428,128536,140666,16763395,14463,23659,24829,7114,Tag0,unknown
485,1611472944025,0,210,4.6142578125e-05,14,83,36,851428,128536,140666,16763395,14463,23659,24829,7114,Tag0,unknown
486,1611472944041,0,-150,-3.2958984375e-05,14,83,36,851428,128536,140666,16763395,14463,23659,24829,7114,Tag0,unknown
487,1611472944060,0,-581,-0.0001276611328125,14,83,36,851428,128536,140666,16763395,14463,23659,24829,7114,Tag0,unknown
488,1611472944073,0,-726,-0.000159521484375,14,83,36,851428,128536,140666,16763395,14463,23659,24829,7114,Tag0,unknown
489,1611472944095,0,-1050,-0.000230712890625,14,83,36,851428,128536,140666,16763395,14463,23659,24829,7114,Tag0,unknown
490,1611472944107,0,-881,-0.0001935791015625,14,83,36,851428,128536,140666,16763395,14463,23659,24829,7114,Tag0,unknown
491,1611472944134,0,-363,-7.97607421875e-05,14,83,36,851428,128536,140666,16763395,14463,23659,24829,7114,Tag0,unknown
492,1611472944144,0,-807,-0.0001773193359375,14,83,36,851428,128536,140666,16763395,14463,23659,24829,7114,Tag0,unknown
493,1611472944170,0,25,5.4931640625e-06,14,83,36,851428,128536,140666,16763395,14463,23659,24829,7114,Tag0,unknown
494,1611472944180,0,-349,-7.668457031250001e-05,14,83,36,851428,128536,140666,16763395,14463,23659,24829,7114,Tag0,unknown
495,1611472944193,0,7,1.5380859375e-06,14,83,36,851428,128536,140666,16763395,14463,23659,24829,7114,Tag0,unknown
496,1611472944203,0,-453,-9.95361328125e-05,14,83,36,851428,128536,140666,16763395,14463,23659,24829,7114,Tag0,unknown
497,1611472944226,0,232,5.09765625e-05,14,83,36,851428,128536,140666,16763395,14463,23659,24829,7114,Tag0,unknown
498,1611472944248,0,-333,-7.316894531249999e-05,14,83,36,851428,128536,140666,16763395,14463,23659,24829,7114,Tag0,unknown
499,1611472944259,0,87,1.91162109375e-05,14,83,36,851428,128536,140666,16763395,14463,23659,24829,7114,Tag0,unknown
500,1611472944269,0,378,8.3056640625e-05,14,83,36,851428,128536,140666,16763395,14463,23659,24829,7114,Tag0,unknown
501,1611472944279,0,144,3.1640625e-05,14,83,36,851428,128536,140666,16763395,14463,23659,24829,7114,Tag0,unknown
502,1611472944292,0,-257,-5.64697265625e-05,14,83,36,851428,128536,140666,16763395,14463,23659,24829,7114,Tag0,unknown
503,1611472944306,0,-279,-6.13037109375e-05,14,83,36,851428,128536,140666,16763395,14463,23659,24829,7114,Tag0,unknown
504,1611472944327,0,467,0.0001026123046875,14,83,36,851428,128536,140666,16763395,14463,23659,24829,7114,Tag0,unknown
505,1611472944340,0,167,3.66943359375e-05,14,83,36,851428,128536,140666,16763395,14463,23659,24829,7114,Tag0,unknown
506,1611472944364,0,123,2.70263671875e-05,14,83,36,851428,128536,140666,16763395,14463,23659,24829,7114,Tag0,unknown
507,1611472944377,0,155,3.40576171875e-05,14,83,36,851428,128536,140666,16763395,14463,23659,24829,7114,Tag0,unknown
508,1611472944387,0,137,3.01025390625e-05,14,83,36,851428,128536,140666,16763395,14463,23659,24829,7114,Tag0,unknown
509,1611472944397,0,-347,-7.62451171875e-05,14,83,36,851428,128536,140666,16763395,14463,23659,24829,7114,Tag0,unknown
510,1611472944409,0,292,6.416015625000001e-05,14,83,36,851428,128536,140666,16763395,14463,23659,24829,7114,Tag0,unknown
511,1611472944426,0,-461,-0.0001012939453125,14,83,36,851428,128536,140666,16763395,14463,23659,24829,7114,Tag0,unknown
512,1611472944444,0,-550,-0.000120849609375,14,83,36,851428,128536,140666,16763395,14463,23659,24829,7114,Tag0,unknown
513,1611472944454,0,-251,-5.51513671875e-05,14,83,36,851428,128536,140666,16763395,14463,23659,24829,7114,Tag0,unknown
514,1611472944464,0,53,1.1645507812500003e-05,14,83,36,851428,128536,140666,16763395,14463,23659,24829,7114,Tag0,unknown
515,1611472944474,0,-345,-7.58056640625e-05,14,83,36,851428,128536,140666,16763395,14463,23659,24829,7114,Tag0,unknown
516,1611472944490,0,-87,-1.91162109375e-05,14,83,36,851428,128536,140666,16763395,14463,23659,24829,7114,Tag0,unknown
517,1611472944507,0,-39,-8.5693359375e-06,14,83,36,851428,128536,140666,16763395,14463,23659,24829,7114,Tag0,unknown
518,1611472944524,0,90,1.9775390625e-05,14,83,36,851428,128536,140666,16763395,14463,23659,24829,7114,Tag0,unknown
519,1611472944546,0,70,1.5380859375e-05,14,83,36,851428,128536,140666,16763395,14463,23659,24829,7114,Tag0,unknown
520,1611472944558,0,354,7.778320312500001e-05,14,83,36,851428,128536,140666,16763395,14463,23659,24829,7114,Tag0,unknown
521,1611472944587,0,378,8.3056640625e-05,14,83,36,851428,128536,140666,16763395,14463,23659,24829,7114,Tag0,unknown
522,1611472944597,0,289,6.35009765625e-05,14,83,36,851428,128536,140666,16763395,14463,23659,24829,7114,Tag0,unknown
523,1611472944610,0,299,6.56982421875e-05,14,83,36,851428,128536,140666,16763395,14463,23659,24829,7114,Tag0,unknown
524,1611472944620,0,357,7.844238281250001e-05,14,83,36,851428,128536,140666,16763395,14463,23659,24829,7114,Tag0,unknown
525,1611472944640,0,-140,-3.076171875e-05,14,83,36,851428,128536,140666,16763395,14463,23659,24829,7114,Tag0,unknown
526,1611472944659,0,-214,-4.7021484375e-05,14,83,36,851428,128536,140666,16763395,14463,23659,24829,7114,Tag0,unknown
527,1611472944674,0,-115,-2.52685546875e-05,14,83,36,851428,128536,140666,16763395,14463,23659,24829,7114,Tag0,unknown
528,1611472944694,0,272,5.9765625e-05,14,83,36,851428,128536,140666,16763395,14463,23659,24829,7114,Tag0,unknown
529,1611472944710,0,376,8.261718750000001e-05,14,83,36,851428,128536,140666,16763395,14463,23659,24829,7114,Tag0,unknown
530,1611472944720,26,-26,-5.712890625e-06,14,83,36,275963,83676,23171,10355,18369,32512,14444,8283,Tag0,unknown
531,1611472944737,26,311,6.833496093750001e-05,14,83,36,275963,83676,23171,10355,18369,32512,14444,8283,Tag0,unknown
532,1611472944747,26,5,1.0986328125e-06,14,83,36,275963,83676,23171,10355,18369,32512,14444,8283,Tag0,unknown
533,1611472944766,26,89,1.95556640625e-05,14,83,36,275963,83676,23171,10355,18369,32512,14444,8283,Tag0,unknown
534,1611472944777,26,-51,-1.12060546875e-05,14,83,36,275963,83676,23171,10355,18369,32512,14444,8283,Tag0,unknown
535,1611472944793,26,-305,-6.70166015625e-05,14,83,36,275963,83676,23171,10355,18369,32512,14444,8283,Tag0,unknown
536,1611472944810,26,-118,-2.5927734375e-05,14,83,36,275963,83676,23171,10355,18369,32512,14444,8283,Tag0,unknown
537,1611472944828,26,327,7.18505859375e-05,14,83,36,275963,83676,23171,10355,18369,32512,14444,8283,Tag0,unknown
538,1611472944847,26,-86,-1.8896484375000006e-05,14,83,36,275963,83676,23171,10355,18369,32512,14444,8283,Tag0,unknown
539,1611472944864,26,115,2.52685546875e-05,14,83,36,275963,83676,23171,10355,18369,32512,14444,8283,Tag0,unknown
540,1611472944881,26,-239,-5.25146484375e-05,14,83,36,275963,83676,23171,10355,18369,32512,14444,8283,Tag0,unknown
541,1611472944892,26,-295,-6.48193359375e-05,14,83,36,275963,83676,23171,10355,18369,32512,14444,8283,Tag0,unknown
542,1611472944914,26,-170,-3.7353515625e-05,14,83,36,275963,83676,23171,10355,18369,32512,14444,8283,Tag0,unknown
543,1611472944929,26,125,2.74658203125e-05,14,83,36,275963,83676,23171,10355,18369,32512,14444,8283,Tag0,unknown
544,1611472944939,26,-305,-6.70166015625e-05,14,83,36,275963,83676,23171,10355,18369,32512,14444,8283,Tag0,unknown
545,1611472944954,26,-376,-8.261718750000001e-05,14,83,36,275963,83676,23171,10355,18369,32512,14444,8283,Tag0,unknown
546,1611472944967,26,533,0.0001171142578125,14,83,36,275963,83676,23171,10355,18369,32512,14444,8283,Tag0,unknown
547,1611472944985,26,887,0.00019489746093750006,14,83,36,275963,83676,23171,10355,18369,32512,14444,8283,Tag0,unknown
548,1611472944995,26,167,3.66943359375e-05,14,83,36,275963,83676,23171,10355,18369,32512,14444,8283,Tag0,unknown
549,1611472945010,26,-793,-0.0001742431640625,14,83,36,275963,83676,23171,10355,18369,32512,14444,8283,Tag0,unknown
550,1611472945025,26,-101,-2.21923828125e-05,14,83,36,275963,83676,23171,10355,18369,32512,14444,8283,Tag0,unknown
551,1611472945041,26,-653,-0.0001434814453125,14,83,36,275963,83676,23171,10355,18369,32512,14444,8283,Tag0,unknown
552,1611472945058,26,-153,-3.3618164062500004e-05,14,83,36,275963,83676,23171,10355,18369,32512,14444,8283,Tag0,unknown
553,1611472945077,26,-571,-0.0001254638671875,14,83,36,275963,83676,23171,10355,18369,32512,14444,8283,Tag0,unknown
554,1611472945087,26,-1500,-0.00032958984375,14,83,36,275963,83676,23171,10355,18369,32512,14444,8283,Tag0,unknown
555,1611472945101,26,-2048,-0.00045,14,83,36,275963,83676,23171,10355,18369,32512,14444,8283,Tag0,unknown
556,1611472945113,26,-2048,-0.00045,14,83,36,275963,83676,23171,10355,18369,32512,14444,8283,Tag0,unknown
557,1611472945135,26,-1605,-0.0003526611328125,14,83,36,275963,83676,23171,10355,18369,32512,14444,8283,Tag0,unknown
558,1611472945147,26,-1553,-0.0003412353515625,14,83,36,275963,83676,23171,10355,18369,32512,14444,8283,Tag0,unknown
559,1611472945157,26,-1029,-0.0002260986328125,14,83,36,275963,83676,23171,10355,18369,32512,14444,8283,Tag0,unknown
560,1611472945167,26,-834,-0.000183251953125,14,83,36,275963,83676,23171,10355,18369,32512,14444,8283,Tag0,unknown
561,1611472945177,26,-490,-0.000107666015625,14,83,36,275963,83676,23171,10355,18369,32512,14444,8283,Tag0,unknown
562,1611472945191,26,-634,-0.000139306640625,14,83,36,275963,83676,23171,10355,18369,32512,14444,8283,Tag0,unknown
563,1611472945209,26,-546,-0.000119970703125,14,83,36,275963,83676,23171,10355,18369,32512,14444,8283,Tag0,unknown
564,1611472945226,26,-179,-3.93310546875e-05,14,83,36,275963,83676,23171,10355,18369,32512,14444,8283,Tag0,unknown
565,1611472945243,26,-329,-7.229003906250001e-05,14,83,36,275963,83676,23171,10355,18369,32512,14444,8283,Tag0,unknown
566,1611472945259,26,-325,-7.14111328125e-05,14,83,36,275963,83676,23171,10355,18369,32512,14444,8283,Tag0,unknown
567,1611472945278,26,-277,-6.086425781250001e-05,14,83,36,275963,83676,23171,10355,18369,32512,14444,8283,Tag0,unknown
568,1611472945295,26,-273,-5.9985351562500014e-05,14,83,36,275963,83676,23171,10355,18369,32512,14444,8283,Tag0,unknown
569,1611472945305,26,17,3.7353515625e-06,14,83,36,275963,83676,23171,10355,18369,32512,14444,8283,Tag0,unknown
570,1611472945317,26,29,6.3720703125e-06,14,83,36,275963,83676,23171,10355,18369,32512,14444,8283,Tag0,unknown
571,1611472945328,26,33,7.2509765625e-06,14,83,36,275963,83676,23171,10355,18369,32512,14444,8283,Tag0,unknown
572,1611472945350,26,42,9.228515625000003e-06,14,83,36,275963,83676,23171,10355,18369,32512,14444,8283,Tag0,unknown
573,1611472945365,26,43,9.4482421875e-06,14,83,36,275963,83676,23171,10355,18369,32512,14444,8283,Tag0,unknown
574,1611472945375,26,53,1.1645507812500003e-05,14,83,36,275963,83676,23171,10355,18369,32512,14444,8283,Tag0,unknown
575,1611472945390,26,56,1.23046875e-05,14,83,36,275963,83676,23171,10355,18369,32512,14444,8283,Tag0,unknown
576,1611472945410,26,57,1.25244140625e-05,14,83,36,275963,83676,23171,10355,18369,32512,14444,8283,Tag0,unknown
577,1611472945428,26,59,1.29638671875e-05,14,83,36,275963,83676,23171,10355,18369,32512,14444,8283,Tag0,unknown
578,1611472945444,26,59,1.29638671875e-05,14,83,36,275963,83676,23171,10355,18369,32512,14444,8283,Tag0,unknown
579,1611472945459,26,64,1.40625e-05,14,83,36,275963,83676,23171,10355,18369,32512,14444,8283,Tag0,unknown
580,1611472945475,26,61,1.34033203125e-05,14,83,36,275963,83676,23171,10355,18369,32512,14444,8283,Tag0,unknown
581,1611472945493,26,65,1.42822265625e-05,14,83,36,275963,83676,23171,10355,18369,32512,14444,8283,Tag0,unknown
582,1611472945509,26,65,1.42822265625e-05,14,83,36,275963,83676,23171,10355,18369,32512,14444,8283,Tag0,unknown
583,1611472945519,26,65,1.42822265625e-05,14,83,36,275963,83676,23171,10355,18369,32512,14444,8283,Tag0,unknown
584,1611472945544,26,65,1.42822265625e-05,14,83,36,275963,83676,23171,10355,18369,32512,14444,8283,Tag0,unknown
585,1611472945561,26,65,1.42822265625e-05,14,83,36,275963,83676,23171,10355,18369,32512,14444,8283,Tag0,unknown
586,1611472945578,26,65,1.42822265625e-05,14,83,36,275963,83676,23171,10355,18369,32512,14444,8283,Tag0,unknown
587,1611472945596,26,66,1.4501953125e-05,14,83,36,275963,83676,23171,10355,18369,32512,14444,8283,Tag0,unknown
588,1611472945614,26,65,1.42822265625e-05,14,83,36,275963,83676,23171,10355,18369,32512,14444,8283,Tag0,unknown
589,1611472945624,26,65,1.42822265625e-05,14,83,36,275963,83676,23171,10355,18369,32512,14444,8283,Tag0,unknown
590,1611472945635,26,65,1.42822265625e-05,14,83,36,275963,83676,23171,10355,18369,32512,14444,8283,Tag0,unknown
591,1611472945645,26,65,1.42822265625e-05,14,83,36,275963,83676,23171,10355,18369,32512,14444,8283,Tag0,unknown
592,1611472945675,26,66,1.4501953125e-05,14,83,36,275963,83676,23171,10355,18369,32512,14444,8283,Tag0,unknown
593,1611472945693,26,65,1.42822265625e-05,14,83,36,275963,83676,23171,10355,18369,32512,14444,8283,Tag0,unknown
594,1611472945720,25,65,1.42822265625e-05,14,83,36,1176417,609539,16757638,140686,89496,16768130,16750117,16748638,Tag0,unknown
595,1611472945733,25,65,1.42822265625e-05,14,83,36,1176417,609539,16757638,140686,89496,16768130,16750117,16748638,Tag0,unknown
596,1611472945754,25,65,1.42822265625e-05,14,83,36,1176417,609539,16757638,140686,89496,16768130,16750117,16748638,Tag0,unknown
597,1611472945764,25,65,1.42822265625e-05,14,83,36,1176417,609539,16757638,140686,89496,16768130,16750117,16748638,Tag0,unknown
598,1611472945780,25,65,1.42822265625e-05,14,83,36,1176417,609539,16757638,140686,89496,16768130,16750117,16748638,Tag0,unknown
599,1611472945800,25,65,1.42822265625e-05,14,83,36,1176417,609539,16757638,140686,89496,16768130,16750117,16748638,Tag0,unknown
600,1611472945813,25,65,1.42822265625e-05,14,83,36,1176417,609539,16757638,140686,89496,16768130,16750117,16748638,Tag0,unknown
601,1611472945828,25,65,1.42822265625e-05,14,83,36,1176417,609539,16757638,140686,89496,16768130,16750117,16748638,Tag0,unknown
602,1611472945843,25,65,1.42822265625e-05,14,83,36,1176417,609539,16757638,140686,89496,16768130,16750117,16748638,Tag0,unknown
603,1611472945867,25,65,1.42822265625e-05,14,83,36,1176417,609539,16757638,140686,89496,16768130,16750117,16748638,Tag0,unknown
604,1611472945877,25,65,1.42822265625e-05,14,83,36,1176417,609539,16757638,140686,89496,16768130,16750117,16748638,Tag0,unknown
605,1611472945902,25,65,1.42822265625e-05,14,83,36,1176417,609539,16757638,140686,89496,16768130,16750117,16748638,Tag0,unknown
606,1611472945914,25,65,1.42822265625e-05,14,83,36,1176417,609539,16757638,140686,89496,16768130,16750117,16748638,Tag0,unknown
607,1611472945924,25,65,1.42822265625e-05,14,83,36,1176417,609539,16757638,140686,89496,16768130,16750117,16748638,Tag0,unknown
608,1611472945934,25,65,1.42822265625e-05,14,83,36,1176417,609539,16757638,140686,89496,16768130,16750117,16748638,Tag0,unknown
609,1611472945947,25,65,1.42822265625e-05,14,83,36,1176417,609539,16757638,140686,89496,16768130,16750117,16748638,Tag0,unknown
610,1611472945964,25,67,1.4721679687500003e-05,14,83,36,1176417,609539,16757638,140686,89496,16768130,16750117,16748638,Tag0,unknown
611,1611472945980,25,71,1.56005859375e-05,14,83,36,1176417,609539,16757638,140686,89496,16768130,16750117,16748638,Tag0,unknown
612,1611472945995,25,91,1.99951171875e-05,14,83,36,1176417,609539,16757638,140686,89496,16768130,16750117,16748638,Tag0,unknown
613,1611472946012,25,202,4.4384765625e-05,14,83,36,1176417,609539,16757638,140686,89496,16768130,16750117,16748638,Tag0,unknown
614,1611472946026,25,393,8.63525390625e-05,14,83,36,1176417,609539,16757638,140686,89496,16768130,16750117,16748638,Tag0,unknown
615,1611472946046,25,901,0.0001979736328125,14,83,36,1176417,609539,16757638,140686,89496,16768130,16750117,16748638,Tag0,unknown
616,1611472946060,25,716,0.00015732421875,14,83,36,1176417,609539,16757638,140686,89496,16768130,16750117,16748638,Tag0,unknown
617,1611472946070,25,501,0.0001100830078125,14,83,36,1176417,609539,16757638,140686,89496,16768130,16750117,16748638,Tag0,unknown
618,1611472946085,25,848,0.000186328125,14,83,36,1176417,609539,16757638,140686,89496,16768130,16750117,16748638,Tag0,unknown
619,1611472946096,25,962,0.000211376953125,14,83,36,1176417,609539,16757638,140686,89496,16768130,16750117,16748638,Tag0,unknown
620,1611472946127,25,1369,0.00030080566406250005,14,83,36,1176417,609539,16757638,140686,89496,16768130,16750117,16748638,Tag0,unknown
621,1611472946146,25,1005,0.0002208251953125,14,83,36,1176417,609539,16757638,140686,89496,16768130,16750117,16748638,Tag0,unknown
622,1611472946156,25,805,0.0001768798828125,14,83,36,1176417,609539,16757638,140686,89496,16768130,16750117,16748638,Tag0,unknown
623,1611472946169,25,1194,0.00026235351562500005,14,83,36,1176417,609539,16757638,140686,89496,16768130,16750117,16748638,Tag0,unknown
624,1611472946195,25,1596,0.00035068359375000003,14,83,36,1176417,609539,16757638,140686,89496,16768130,16750117,16748638,Tag0,unknown
625,1611472946210,25,1171,0.0002572998046875,14,83,36,1176417,609539,16757638,140686,89496,16768130,16750117,16748638,Tag0,unknown
626,1611472946231,25,1040,0.000228515625,14,83,36,1176417,609539,16757638,140686,89496,16768130,16750117,16748638,Tag0,unknown
627,1611472946244,25,730,0.000160400390625,14,83,36,1176417,609539,16757638,140686,89496,16768130,16750117,16748638,Tag0,unknown
628,1611472946266,25,412,9.052734375e-05,14,83,36,1176417,609539,16757638,140686,89496,16768130,16750117,16748638,Tag0,unknown
629,1611472946279,25,397,8.72314453125e-05,14,83,36,1176417,609539,16757638,140686,89496,16768130,16750117,16748638,Tag0,unknown
630,1611472946289,25,185,4.06494140625e-05,14,83,36,1176417,609539,16757638,140686,89496,16768130,16750117,16748638,Tag0,unknown
631,1611472946300,25,315,6.92138671875e-05,14,83,36,1176417,609539,16757638,140686,89496,16768130,16750117,16748638,Tag0,unknown
632,1611472946312,25,307,6.74560546875e-05,14,83,36,1176417,609539,16757638,140686,89496,16768130,16750117,16748638,Tag0,unknown
633,1611472946328,25,-24,-5.2734375e-06,14,83,36,1176417,609539,16757638,140686,89496,16768130,16750117,16748638,Tag0,unknown
634,1611472946346,25,-39,-8.5693359375e-06,14,83,36,1176417,609539,16757638,140686,89496,16768130,16750117,16748638,Tag0,unknown
635,1611472946362,25,-68,-1.494140625e-05,14,83,36,1176417,609539,16757638,140686,89496,16768130,16750117,16748638,Tag0,unknown
636,1611472946379,25,-128,-2.8125e-05,14,83,36,1176417,609539,16757638,140686,89496,16768130,16750117,16748638,Tag0,unknown
637,1611472946395,25,123,2.70263671875e-05,14,83,36,1176417,609539,16757638,140686,89496,16768130,16750117,16748638,Tag0,unknown
638,1611472946412,25,103,2.26318359375e-05,14,83,36,1176417,609539,16757638,140686,89496,16768130,16750117,16748638,Tag0,unknown
639,1611472946428,25,101,2.21923828125e-05,14,83,36,1176417,609539,16757638,140686,89496,16768130,16750117,16748638,Tag0,unknown
640,1611472946452,25,80,1.7578125e-05,14,83,36,1176417,609539,16757638,140686,89496,16768130,16750117,16748638,Tag0,unknown
641,1611472946462,25,77,1.69189453125e-05,14,83,36,1176417,609539,16757638,140686,89496,16768130,16750117,16748638,Tag0,unknown
642,1611472946486,25,73,1.6040039062500002e-05,14,83,36,1176417,609539,16757638,140686,89496,16768130,16750117,16748638,Tag0,unknown
643,1611472946496,25,72,1.58203125e-05,14,83,36,1176417,609539,16757638,140686,89496,16768130,16750117,16748638,Tag0,unknown
644,1611472946513,25,70,1.5380859375e-05,14,83,36,1176417,609539,16757638,140686,89496,16768130,16750117,16748638,Tag0,unknown
645,1611472946523,25,69,1.51611328125e-05,14,83,36,1176417,609539,16757638,140686,89496,16768130,16750117,16748638,Tag0,unknown
646,1611472946546,25,69,1.51611328125e-05,14,83,36,1176417,609539,16757638,140686,89496,16768130,16750117,16748638,Tag0,unknown
647,1611472946564,25,68,1.494140625e-05,14,83,36,1176417,609539,16757638,140686,89496,16768130,16750117,16748638,Tag0,unknown
648,1611472946580,25,67,1.4721679687500003e-05,14,83,36,1176417,609539,16757638,140686,89496,16768130,16750117,16748638,Tag0,unknown
649,1611472946590,25,66,1.4501953125e-05,14,83,36,1176417,609539,16757638,140686,89496,16768130,16750117,16748638,Tag0,unknown
650,1611472946600,25,67,1.4721679687500003e-05,14,83,36,1176417,609539,16757638,140686,89496,16768130,16750117,16748638,Tag0,unknown
651,1611472946612,25,66,1.4501953125e-05,14,83,36,1176417,609539,16757638,140686,89496,16768130,16750117,16748638,Tag0,unknown
652,1611472946634,25,66,1.4501953125e-05,14,83,36,1176417,609539,16757638,140686,89496,16768130,16750117,16748638,Tag0,unknown
653,1611472946645,25,66,1.4501953125e-05,14,83,36,1176417,609539,16757638,140686,89496,16768130,16750117,16748638,Tag0,unknown
654,1611472946661,25,65,1.42822265625e-05,14,83,36,1176417,609539,16757638,140686,89496,16768130,16750117,16748638,Tag0,unknown
655,1611472946678,25,64,1.40625e-05,14,83,36,1176417,609539,16757638,140686,89496,16768130,16750117,16748638,Tag0,unknown
656,1611472946696,25,65,1.42822265625e-05,14,83,36,1176417,609539,16757638,140686,89496,16768130,16750117,16748638,Tag0,unknown
657,1611472946718,51,65,1.42822265625e-05,14,83,36,296406,16764818,11698,8310,4002,5038,1374,554,Tag0,unknown
658,1611472946729,51,65,1.42822265625e-05,14,83,36,296406,16764818,11698,8310,4002,5038,1374,554,Tag0,unknown
659,1611472946746,51,68,1.494140625e-05,14,83,36,296406,16764818,11698,8310,4002,5038,1374,554,Tag0,unknown
660,1611472946761,51,65,1.42822265625e-05,14,83,36,296406,16764818,11698,8310,4002,5038,1374,554,Tag0,unknown
661,1611472946778,51,66,1.4501953125e-05,14,83,36,296406,16764818,11698,8310,4002,5038,1374,554,Tag0,unknown
662,1611472946795,51,65,1.42822265625e-05,14,83,36,296406,16764818,11698,8310,4002,5038,1374,554,Tag0,unknown
663,1611472946812,51,66,1.4501953125e-05,14,83,36,296406,16764818,11698,8310,4002,5038,1374,554,Tag0,unknown
664,1611472946822,51,65,1.42822265625e-05,14,83,36,296406,16764818,11698,8310,4002,5038,1374,554,Tag0,unknown
665,1611472946834,51,65,1.42822265625e-05,14,83,36,296406,16764818,11698,8310,4002,5038,1374,554,Tag0,unknown
666,1611472946849,51,66,1.4501953125e-05,14,83,36,296406,16764818,11698,8310,4002,5038,1374,554,Tag0,unknown
667,1611472946865,51,66,1.4501953125e-05,14,83,36,296406,16764818,11698,8310,4002,5038,1374,554,Tag0,unknown
668,1611472946879,51,65,1.42822265625e-05,14,83,36,296406,16764818,11698,8310,4002,5038,1374,554,Tag0,unknown
669,1611472946889,51,67,1.4721679687500003e-05,14,83,36,296406,16764818,11698,8310,4002,5038,1374,554,Tag0,unknown
670,1611472946945,51,66,1.4501953125e-05,14,83,36,296406,16764818,11698,8310,4002,5038,1374,554,Tag0,unknown
671,1611472946975,51,66,1.4501953125e-05,14,83,36,296406,16764818,11698,8310,4002,5038,1374,554,Tag0,unknown
672,1611472946985,51,65,1.42822265625e-05,14,83,36,296406,16764818,11698,8310,4002,5038,1374,554,Tag0,unknown
673,1611472947012,51,66,1.4501953125e-05,14,83,36,296406,16764818,11698,8310,4002,5038,1374,554,Tag0,unknown
674,1611472947030,51,65,1.42822265625e-05,14,83,36,296406,16764818,11698,8310,4002,5038,1374,554,Tag0,unknown
675,1611472947151,51,65,1.42822265625e-05,14,83,36,296406,16764818,11698,8310,4002,5038,1374,554,Tag0,unknown
676,1611472947174,51,67,1.4721679687500003e-05,14,83,36,296406,16764818,11698,8310,4002,5038,1374,554,Tag0,unknown
677,1611472947184,51,66,1.4501953125e-05,14,83,36,296406,16764818,11698,8310,4002,5038,1374,554,Tag0,unknown
678,1611472947194,51,65,1.42822265625e-05,14,83,36,296406,16764818,11698,8310,4002,5038,1374,554,Tag0,unknown
679,1611472947217,51,65,1.42822265625e-05,14,83,36,296406,16764818,11698,8310,4002,5038,1374,554,Tag0,unknown
680,1611472947230,51,65,1.42822265625e-05,14,83,36,296406,16764818,11698,8310,4002,5038,1374,554,Tag0,unknown
681,1611472947284,51,65,1.42822265625e-05,14,83,36,296406,16764818,11698,8310,4002,5038,1374,554,Tag0,unknown
682,1611472947297,51,66,1.4501953125e-05,14,83,36,296406,16764818,11698,8310,4002,5038,1374,554,Tag0,unknown
683,1611472947307,51,66,1.4501953125e-05,14,83,36,296406,16764818,11698,8310,4002,5038,1374,554,Tag0,unknown
684,1611472947423,51,66,1.4501953125e-05,14,83,36,296406,16764818,11698,8310,4002,5038,1374,554,Tag0,unknown
685,1611472947442,51,65,1.42822265625e-05,14,83,36,296406,16764818,11698,8310,4002,5038,1374,554,Tag0,unknown
686,1611472947452,51,66,1.4501953125e-05,14,83,36,296406,16764818,11698,8310,4002,5038,1374,554,Tag0,unknown
687,1611472947467,51,65,1.42822265625e-05,14,83,36,296406,16764818,11698,8310,4002,5038,1374,554,Tag0,unknown
688,1611472947484,51,66,1.4501953125e-05,14,83,36,296406,16764818,11698,8310,4002,5038,1374,554,Tag0,unknown
689,1611472947498,51,66,1.4501953125e-05,14,83,36,296406,16764818,11698,8310,4002,5038,1374,554,Tag0,unknown
690,1611472947508,51,66,1.4501953125e-05,14,83,36,296406,16764818,11698,8310,4002,5038,1374,554,Tag0,unknown
691,1611472947518,51,65,1.42822265625e-05,14,83,36,296406,16764818,11698,8310,4002,5038,1374,554,Tag0,unknown
692,1611472947528,51,66,1.4501953125e-05,14,83,36,296406,16764818,11698,8310,4002,5038,1374,554,Tag0,unknown
693,1611472947538,51,65,1.42822265625e-05,14,83,36,296406,16764818,11698,8310,4002,5038,1374,554,Tag0,unknown
694,1611472947548,51,67,1.4721679687500003e-05,14,83,36,296406,16764818,11698,8310,4002,5038,1374,554,Tag0,unknown
695,1611472947578,51,65,1.42822265625e-05,14,83,36,296406,16764818,11698,8310,4002,5038,1374,554,Tag0,unknown
696,1611472947597,51,66,1.4501953125e-05,14,83,36,296406,16764818,11698,8310,4002,5038,1374,554,Tag0,unknown
697,1611472947616,51,66,1.4501953125e-05,14,83,36,296406,16764818,11698,8310,4002,5038,1374,554,Tag0,unknown
698,1611472947630,51,64,1.40625e-05,14,83,36,296406,16764818,11698,8310,4002,5038,1374,554,Tag0,unknown
699,1611472947650,51,65,1.42822265625e-05,14,83,36,296406,16764818,11698,8310,4002,5038,1374,554,Tag0,unknown
700,1611472947665,51,67,1.4721679687500003e-05,14,83,36,296406,16764818,11698,8310,4002,5038,1374,554,Tag0,unknown
701,1611472947675,51,65,1.42822265625e-05,14,83,36,296406,16764818,11698,8310,4002,5038,1374,554,Tag0,unknown
702,1611472947699,25,48,1.0546875e-05,14,83,36,13,9,5,4,2,3,1,0,Tag0,unknown
703,1611472947718,25,53,1.1645507812500003e-05,14,83,36,13,9,5,4,2,3,1,0,Tag0,unknown
704,1611472947732,25,37,8.1298828125e-06,14,83,36,13,9,5,4,2,3,1,0,Tag0,unknown
705,1611472947748,25,71,1.56005859375e-05,14,83,36,13,9,5,4,2,3,1,0,Tag0,unknown
706,1611472947764,25,25,5.4931640625e-06,14,83,36,13,9,5,4,2,3,1,0,Tag0,unknown
707,1611472947780,25,71,1.56005859375e-05,14,83,36,13,9,5,4,2,3,1,0,Tag0,unknown
708,1611472947798,25,85,1.86767578125e-05,14,83,36,13,9,5,4,2,3,1,0,Tag0,unknown
709,1611472947817,25,76,1.669921875e-05,14,83,36,13,9,5,4,2,3,1,0,Tag0,unknown
710,1611472947834,25,75,1.64794921875e-05,14,83,36,13,9,5,4,2,3,1,0,Tag0,unknown
711,1611472947851,25,55,1.20849609375e-05,14,83,36,13,9,5,4,2,3,1,0,Tag0,unknown
712,1611472947867,25,73,1.6040039062500002e-05,14,83,36,13,9,5,4,2,3,1,0,Tag0,unknown
713,1611472947885,25,61,1.34033203125e-05,14,83,36,13,9,5,4,2,3,1,0,Tag0,unknown
714,1611472947901,25,69,1.51611328125e-05,14,83,36,13,9,5,4,2,3,1,0,Tag0,unknown
715,1611472947911,25,-262,-5.7568359375e-05,14,83,36,13,9,5,4,2,3,1,0,Tag0,unknown
716,1611472947921,25,39,8.5693359375e-06,14,83,36,13,9,5,4,2,3,1,0,Tag0,unknown
717,1611472947935,25,-268,-5.888671875000001e-05,14,83,36,13,9,5,4,2,3,1,0,Tag0,unknown
718,1611472947949,25,-269,-5.91064453125e-05,14,83,36,13,9,5,4,2,3,1,0,Tag0,unknown
719,1611472947970,25,34,7.470703125e-06,14,83,36,13,9,5,4,2,3,1,0,Tag0,unknown
720,1611472947980,25,86,1.8896484375000006e-05,14,83,36,13,9,5,4,2,3,1,0,Tag0,unknown
721,1611472947990,25,-266,-5.8447265625e-05,14,83,36,13,9,5,4,2,3,1,0,Tag0,unknown
722,1611472948015,25,-260,-5.712890625e-05,14,83,36,13,9,5,4,2,3,1,0,Tag0,unknown
723,1611472948031,25,48,1.0546875e-05,14,83,36,13,9,5,4,2,3,1,0,Tag0,unknown
724,1611472948048,25,29,6.3720703125e-06,14,83,36,13,9,5,4,2,3,1,0,Tag0,unknown
725,1611472948075,25,56,1.23046875e-05,14,83,36,13,9,5,4,2,3,1,0,Tag0,unknown
726,1611472948086,25,83,1.82373046875e-05,14,83,36,13,9,5,4,2,3,1,0,Tag0,unknown
727,1611472948100,25,108,2.373046875e-05,14,83,36,13,9,5,4,2,3,1,0,Tag0,unknown
728,1611472948118,25,49,1.07666015625e-05,14,83,36,13,9,5,4,2,3,1,0,Tag0,unknown
729,1611472948130,25,43,9.4482421875e-06,14,83,36,13,9,5,4,2,3,1,0,Tag0,unknown
730,1611472948140,25,35,7.6904296875e-06,14,83,36,13,9,5,4,2,3,1,0,Tag0,unknown
731,1611472948155,25,41,9.0087890625e-06,14,83,36,13,9,5,4,2,3,1,0,Tag0,unknown
732,1611472948182,25,-337,-7.40478515625e-05,14,83,36,13,9,5,4,2,3,1,0,Tag0,unknown
733,1611472948200,25,84,1.8457031250000007e-05,14,83,36,13,9,5,4,2,3,1,0,Tag0,unknown
734,1611472948210,25,43,9.4482421875e-06,14,83,36,13,9,5,4,2,3,1,0,Tag0,unknown
735,1611472948222,25,-273,-5.9985351562500014e-05,14,83,36,13,9,5,4,2,3,1,0,Tag0,unknown
736,1611472948236,25,261,5.73486328125e-05,14,83,36,13,9,5,4,2,3,1,0,Tag0,unknown
737,1611472948250,25,-71,-1.56005859375e-05,14,83,36,13,9,5,4,2,3,1,0,Tag0,unknown
738,1611472948266,25,-38,-8.349609375e-06,14,83,36,13,9,5,4,2,3,1,0,Tag0,unknown
739,1611472948276,25,120,2.63671875e-05,14,83,36,13,9,5,4,2,3,1,0,Tag0,unknown
740,1611472948298,25,-373,-8.19580078125e-05,14,83,36,13,9,5,4,2,3,1,0,Tag0,unknown
741,1611472948321,25,-140,-3.076171875e-05,14,83,36,13,9,5,4,2,3,1,0,Tag0,unknown
742,1611472948331,25,20,4.39453125e-06,14,83,36,13,9,5,4,2,3,1,0,Tag0,unknown
743,1611472948348,25,-369,-8.10791015625e-05,14,83,36,13,9,5,4,2,3,1,0,Tag0,unknown
744,1611472948366,25,-318,-6.9873046875e-05,14,83,36,13,9,5,4,2,3,1,0,Tag0,unknown
745,1611472948386,25,-355,-7.80029296875e-05,14,83,36,13,9,5,4,2,3,1,0,Tag0,unknown
746,1611472948400,25,42,9.228515625000003e-06,14,83,36,13,9,5,4,2,3,1,0,Tag0,unknown
747,1611472948417,25,-101,-2.21923828125e-05,14,83,36,13,9,5,4,2,3,1,0,Tag0,unknown
748,1611472948427,25,5,1.0986328125e-06,14,83,36,13,9,5,4,2,3,1,0,Tag0,unknown
749,1611472948437,25,-28,-6.15234375e-06,14,83,36,13,9,5,4,2,3,1,0,Tag0,unknown
750,1611472948449,25,39,8.5693359375e-06,14,83,36,13,9,5,4,2,3,1,0,Tag0,unknown
751,1611472948466,25,69,1.51611328125e-05,14,83,36,13,9,5,4,2,3,1,0,Tag0,unknown
752,1611472948483,25,73,1.6040039062500002e-05,14,83,36,13,9,5,4,2,3,1,0,Tag0,unknown
753,1611472948500,25,-349,-7.668457031250001e-05,14,83,36,13,9,5,4,2,3,1,0,Tag0,unknown
754,1611472948517,25,-260,-5.712890625e-05,14,83,36,13,9,5,4,2,3,1,0,Tag0,unknown
755,1611472948527,25,-213,-4.68017578125e-05,14,83,36,13,9,5,4,2,3,1,0,Tag0,unknown
756,1611472948550,25,89,1.95556640625e-05,14,83,36,13,9,5,4,2,3,1,0,Tag0,unknown
757,1611472948569,25,-136,-2.98828125e-05,14,83,36,13,9,5,4,2,3,1,0,Tag0,unknown
758,1611472948583,25,-327,-7.18505859375e-05,14,83,36,13,9,5,4,2,3,1,0,Tag0,unknown
759,1611472948593,25,-61,-1.34033203125e-05,14,83,36,13,9,5,4,2,3,1,0,Tag0,unknown
760,1611472948604,25,-28,-6.15234375e-06,14,83,36,13,9,5,4,2,3,1,0,Tag0,unknown
761,1611472948615,25,103,2.26318359375e-05,14,83,36,13,9,5,4,2,3,1,0,Tag0,unknown
762,1611472948638,25,17,3.7353515625e-06,14,83,36,13,9,5,4,2,3,1,0,Tag0,unknown
763,1611472948648,25,-96,-2.109375e-05,14,83,36,13,9,5,4,2,3,1,0,Tag0,unknown
764,1611472948658,25,-314,-6.8994140625e-05,14,83,36,13,9,5,4,2,3,1,0,Tag0,unknown
765,1611472948682,25,-323,-7.09716796875e-05,14,83,36,13,9,5,4,2,3,1,0,Tag0,unknown
766,1611472948700,25,65,1.42822265625e-05,14,83,36,13,9,5,4,2,3,1,0,Tag0,unknown
767,1611472948710,0,-301,-6.613769531250001e-05,27,54,36,292032,495952,16757388,93033,79414,62492,8881,12041,Tag0,unknown
768,1611472948728,0,-605,-0.0001329345703125,27,54,36,292032,495952,16757388,93033,79414,62492,8881,12041,Tag0,unknown
769,1611472948740,0,21,4.614257812500002e-06,27,54,36,292032,495952,16757388,93033,79414,62492,8881,12041,Tag0,unknown
770,1611472948765,0,90,1.9775390625e-05,27,54,36,292032,495952,16757388,93033,79414,62492,8881,12041,Tag0,unknown
771,1611472948782,0,-327,-7.18505859375e-05,27,54,36,292032,495952,16757388,93033,79414,62492,8881,12041,Tag0,unknown
772,1611472948800,0,-172,-3.779296875000001e-05,27,54,36,292032,495952,16757388,93033,79414,62492,8881,12041,Tag0,unknown
773,1611472948819,0,-443,-9.73388671875e-05,27,54,36,292032,495952,16757388,93033,79414,62492,8881,12041,Tag0,unknown
774,1611472948829,0,53,1.1645507812500003e-05,27,54,36,292032,495952,16757388,93033,79414,62492,8881,12041,Tag0,unknown
775,1611472948845,0,-237,-5.20751953125e-05,27,54,36,292032,495952,16757388,93033,79414,62492,8881,12041,Tag0,unknown
776,1611472948855,0,321,7.053222656250001e-05,27,54,36,292032,495952,16757388,93033,79414,62492,8881,12041,Tag0,unknown
777,1611472948876,0,-185,-4.06494140625e-05,27,54,57,292032,495952,16757388,93033,79414,62492,8881,12041,Tag0,unknown
778,1611472948886,0,-233,-5.119628906250001e-05,27,54,57,292032,495952,16757388,93033,79414,62492,8881,12041,Tag0,unknown
779,1611472948901,0,-118,-2.5927734375e-05,27,54,57,292032,495952,16757388,93033,79414,62492,8881,12041,Tag0,unknown
780,1611472948916,0,-520,-0.0001142578125,27,54,57,292032,495952,16757388,93033,79414,62492,8881,12041,Tag0,unknown
781,1611472948932,0,305,6.70166015625e-05,27,54,57,292032,495952,16757388,93033,79414,62492,8881,12041,Tag0,unknown
782,1611472948956,0,-186,-4.0869140625e-05,27,54,57,292032,495952,16757388,93033,79414,62492,8881,12041,Tag0,unknown
783,1611472948967,0,-777,-0.0001707275390625,27,54,57,292032,495952,16757388,93033,79414,62492,8881,12041,Tag0,unknown
784,1611472948984,0,-311,-6.833496093750001e-05,27,54,57,292032,495952,16757388,93033,79414,62492,8881,12041,Tag0,unknown
785,1611472949002,0,-297,-6.525878906250001e-05,27,54,57,292032,495952,16757388,93033,79414,62492,8881,12041,Tag0,unknown
786,1611472949017,0,-699,-0.0001535888671875,27,54,57,292032,495952,16757388,93033,79414,62492,8881,12041,Tag0,unknown
787,1611472949034,0,-443,-9.73388671875e-05,27,54,57,292032,495952,16757388,93033,79414,62492,8881,12041,Tag0,unknown
788,1611472949050,0,-328,-7.207031249999999e-05,27,54,57,292032,495952,16757388,93033,79414,62492,8881,12041,Tag0,unknown
789,1611472949070,0,533,0.0001171142578125,27,54,57,292032,495952,16757388,93033,79414,62492,8881,12041,Tag0,unknown
790,1611472949087,0,435,9.55810546875e-05,27,54,57,292032,495952,16757388,93033,79414,62492,8881,12041,Tag0,unknown
791,1611472949098,0,320,7.03125e-05,27,54,57,292032,495952,16757388,93033,79414,62492,8881,12041,Tag0,unknown
792,1611472949126,0,-359,-7.88818359375e-05,27,54,57,292032,495952,16757388,93033,79414,62492,8881,12041,Tag0,unknown
793,1611472949136,0,39,8.5693359375e-06,27,54,57,292032,495952,16757388,93033,79414,62492,8881,12041,Tag0,unknown
794,1611472949150,0,-74,-1.6259765625e-05,27,54,57,292032,495952,16757388,93033,79414,62492,8881,12041,Tag0,unknown
795,1611472949186,0,-363,-7.97607421875e-05,27,54,57,292032,495952,16757388,93033,79414,62492,8881,12041,Tag0,unknown
796,1611472949202,0,-524,-0.00011513671875,27,54,57,292032,495952,16757388,93033,79414,62492,8881,12041,Tag0,unknown
797,1611472949212,0,331,7.272949218750001e-05,27,54,57,292032,495952,16757388,93033,79414,62492,8881,12041,Tag0,unknown
798,1611472949222,0,-1111,-0.0002441162109375,27,54,57,292032,495952,16757388,93033,79414,62492,8881,12041,Tag0,unknown
799,1611472949244,0,-951,-0.0002089599609375,27,54,57,292032,495952,16757388,93033,79414,62492,8881,12041,Tag0,unknown
800,1611472949255,0,-810,-0.000177978515625,27,54,57,292032,495952,16757388,93033,79414,62492,8881,12041,Tag0,unknown
801,1611472949265,0,-852,-0.00018720703125,27,54,57,292032,495952,16757388,93033,79414,62492,8881,12041,Tag0,unknown
802,1611472949302,0,-833,-0.0001830322265625,27,54,57,292032,495952,16757388,93033,79414,62492,8881,12041,Tag0,unknown
803,1611472949319,0,-693,-0.0001522705078125,27,54,57,292032,495952,16757388,93033,79414,62492,8881,12041,Tag0,unknown
804,1611472949329,0,-550,-0.000120849609375,27,54,57,292032,495952,16757388,93033,79414,62492,8881,12041,Tag0,unknown
805,1611472949360,0,-257,-5.64697265625e-05,27,54,57,292032,495952,16757388,93033,79414,62492,8881,12041,Tag0,unknown
806,1611472949370,0,-593,-0.00013029785156250002,27,54,57,292032,495952,16757388,93033,79414,62492,8881,12041,Tag0,unknown
807,1611472949385,0,331,7.272949218750001e-05,27,54,57,292032,495952,16757388,93033,79414,62492,8881,12041,Tag0,unknown
808,1611472949395,0,-84,-1.8457031250000007e-05,27,54,57,292032,495952,16757388,93033,79414,62492,8881,12041,Tag0,unknown
809,1611472949419,0,-109,-2.39501953125e-05,27,54,57,292032,495952,16757388,93033,79414,62492,8881,12041,Tag0,unknown
810,1611472949433,0,-317,-6.96533203125e-05,27,54,57,292032,495952,16757388,93033,79414,62492,8881,12041,Tag0,unknown
811,1611472949469,0,171,3.75732421875e-05,27,54,57,292032,495952,16757388,93033,79414,62492,8881,12041,Tag0,unknown
812,1611472949487,0,571,0.0001254638671875,27,54,57,292032,495952,16757388,93033,79414,62492,8881,12041,Tag0,unknown
813,1611472949497,0,600,0.0001318359375,27,54,57,292032,495952,16757388,93033,79414,62492,8881,12041,Tag0,unknown
814,1611472949510,0,-257,-5.64697265625e-05,27,54,57,292032,495952,16757388,93033,79414,62492,8881,12041,Tag0,unknown
815,1611472949520,0,429,9.42626953125e-05,27,54,57,292032,495952,16757388,93033,79414,62492,8881,12041,Tag0,unknown
816,1611472949530,0,603,0.00013249511718750002,27,54,57,292032,495952,16757388,93033,79414,62492,8881,12041,Tag0,unknown
817,1611472949545,0,-71,-1.56005859375e-05,27,54,57,292032,495952,16757388,93033,79414,62492,8881,12041,Tag0,unknown
818,1611472949596,0,11,2.4169921875e-06,27,54,57,292032,495952,16757388,93033,79414,62492,8881,12041,Tag0,unknown
819,1611472949620,0,-155,-3.40576171875e-05,27,54,57,292032,495952,16757388,93033,79414,62492,8881,12041,Tag0,unknown
820,1611472949630,0,-117,-2.57080078125e-05,27,54,57,292032,495952,16757388,93033,79414,62492,8881,12041,Tag0,unknown
821,1611472949654,0,-171,-3.75732421875e-05,27,54,57,292032,495952,16757388,93033,79414,62492,8881,12041,Tag0,unknown
822,1611472949669,0,-99,-2.1752929687500006e-05,27,54,57,292032,495952,16757388,93033,79414,62492,8881,12041,Tag0,unknown
823,1611472949679,0,299,6.56982421875e-05,27,54,57,292032,495952,16757388,93033,79414,62492,8881,12041,Tag0,unknown
824,1611472949689,0,-582,-0.000127880859375,27,54,57,292032,495952,16757388,93033,79414,62492,8881,12041,Tag0,unknown
825,1611472949718,0,-281,-6.17431640625e-05,10,78,57,116549,77489,341371,68050,26599,14724,23152,10651,Tag0,unknown
826,1611472949728,0,-115,-2.52685546875e-05,10,78,57,116549,77489,341371,68050,26599,14724,23152,10651,Tag0,unknown
827,1611472949755,0,113,2.48291015625e-05,10,78,57,116549,77489,341371,68050,26599,14724,23152,10651,Tag0,unknown
828,1611472949768,0,-354,-7.778320312500001e-05,10,78,57,116549,77489,341371,68050,26599,14724,23152,10651,Tag0,unknown
829,1611472949778,0,332,7.294921875e-05,10,78,57,116549,77489,341371,68050,26599,14724,23152,10651,Tag0,unknown
830,1611472949794,0,-553,-0.0001215087890625,10,78,57,116549,77489,341371,68050,26599,14724,23152,10651,Tag0,unknown
831,1611472949804,0,-188,-4.130859375e-05,10,78,57,116549,77489,341371,68050,26599,14724,23152,10651,Tag0,unknown
832,1611472949817,0,16,3.515625e-06,10,78,57,116549,77489,341371,68050,26599,14724,23152,10651,Tag0,unknown
833,1611472949834,0,-237,-5.20751953125e-05,10,78,57,116549,77489,341371,68050,26599,14724,23152,10651,Tag0,unknown
834,1611472949850,0,28,6.15234375e-06,10,78,57,116549,77489,341371,68050,26599,14724,23152,10651,Tag0,unknown
835,1611472949878,0,312,6.85546875e-05,10,78,57,116549,77489,341371,68050,26599,14724,23152,10651,Tag0,unknown
836,1611472949891,0,6,1.318359375e-06,10,78,57,116549,77489,341371,68050,26599,14724,23152,10651,Tag0,unknown
837,1611472949903,0,578,0.000127001953125,10,78,57,116549,77489,341371,68050,26599,14724,23152,10651,Tag0,unknown
838,1611472949929,0,375,8.23974609375e-05,10,78,57,116549,77489,341371,68050,26599,14724,23152,10651,Tag0,unknown
839,1611472949939,0,58,1.2744140625e-05,10,78,57,116549,77489,341371,68050,26599,14724,23152,10651,Tag0,unknown
840,1611472949952,0,12,2.63671875e-06,10,78,57,116549,77489,341371,68050,26599,14724,23152,10651,Tag0,unknown
841,1611472949962,0,121,2.6586914062500006e-05,10,78,57,116549,77489,341371,68050,26599,14724,23152,10651,Tag0,unknown
842,1611472949988,0,149,3.27392578125e-05,10,78,57,116549,77489,341371,68050,26599,14724,23152,10651,Tag0,unknown
843,1611472950001,0,528,0.000116015625,10,78,57,116549,77489,341371,68050,26599,14724,23152,10651,Tag0,unknown
844,1611472950047,0,-329,-7.229003906250001e-05,10,78,57,116549,77489,341371,68050,26599,14724,23152,10651,Tag0,unknown
845,1611472950071,0,-23,-5.0537109375e-06,10,78,57,116549,77489,341371,68050,26599,14724,23152,10651,Tag0,unknown
846,1611472950081,0,91,1.99951171875e-05,10,78,57,116549,77489,341371,68050,26599,14724,23152,10651,Tag0,unknown
847,1611472950094,0,-325,-7.14111328125e-05,10,78,57,116549,77489,341371,68050,26599,14724,23152,10651,Tag0,unknown
848,1611472950104,0,-330,-7.2509765625e-05,10,78,57,116549,77489,341371,68050,26599,14724,23152,10651,Tag0,unknown
849,1611472950120,0,-261,-5.73486328125e-05,10,78,57,116549,77489,341371,68050,26599,14724,23152,10651,Tag0,unknown
850,1611472950141,0,-31,-6.8115234375e-06,10,78,57,116549,77489,341371,68050,26599,14724,23152,10651,Tag0,unknown
851,1611472950151,0,108,2.373046875e-05,10,78,57,116549,77489,341371,68050,26599,14724,23152,10651,Tag0,unknown
852,1611472950167,0,43,9.4482421875e-06,10,78,57,116549,77489,341371,68050,26599,14724,23152,10651,Tag0,unknown
853,1611472950184,0,265,5.82275390625e-05,10,78,57,116549,77489,341371,68050,26599,14724,23152,10651,Tag0,unknown
854,1611472950206,0,-61,-1.34033203125e-05,10,78,57,116549,77489,341371,68050,26599,14724,23152,10651,Tag0,unknown
855,1611472950219,0,-155,-3.40576171875e-05,10,78,57,116549,77489,341371,68050,26599,14724,23152,10651,Tag0,unknown
856,1611472950229,0,100,2.197265625e-05,10,78,57,116549,77489,341371,68050,26599,14724,23152,10651,Tag0,unknown
857,1611472950243,0,103,2.26318359375e-05,10,78,57,116549,77489,341371,68050,26599,14724,23152,10651,Tag0,unknown
858,1611472950256,0,272,5.9765625e-05,10,78,57,116549,77489,341371,68050,26599,14724,23152,10651,Tag0,unknown
859,1611472950277,0,-153,-3.3618164062500004e-05,10,78,57,116549,77489,341371,68050,26599,14724,23152,10651,Tag0,unknown
860,1611472950289,0,-213,-4.68017578125e-05,10,78,57,116549,77489,341371,68050,26599,14724,23152,10651,Tag0,unknown
861,1611472950303,0,301,6.613769531250001e-05,10,78,57,116549,77489,341371,68050,26599,14724,23152,10651,Tag0,unknown
862,1611472950313,0,101,2.21923828125e-05,10,78,57,116549,77489,341371,68050,26599,14724,23152,10651,Tag0,unknown
863,1611472950323,0,-101,-2.21923828125e-05,10,78,57,116549,77489,341371,68050,26599,14724,23152,10651,Tag0,unknown
864,1611472950335,0,-333,-7.316894531249999e-05,10,78,57,116549,77489,341371,68050,26599,14724,23152,10651,Tag0,unknown
865,1611472950352,0,-294,-6.4599609375e-05,10,78,57,116549,77489,341371,68050,26599,14724,23152,10651,Tag0,unknown
866,1611472950369,0,-349,-7.668457031250001e-05,10,78,57,116549,77489,341371,68050,26599,14724,23152,10651,Tag0,unknown
867,1611472950387,0,-57,-1.25244140625e-05,10,78,57,116549,77489,341371,68050,26599,14724,23152,10651,Tag0,unknown
868,1611472950404,0,-284,-6.240234375e-05,10,78,57,116549,77489,341371,68050,26599,14724,23152,10651,Tag0,unknown
869,1611472950421,0,-567,-0.0001245849609375,10,78,57,116549,77489,341371,68050,26599,14724,23152,10651,Tag0,unknown
870,1611472950439,0,-345,-7.58056640625e-05,10,78,57,116549,77489,341371,68050,26599,14724,23152,10651,Tag0,unknown
871,1611472950449,0,-557,-0.0001223876953125,10,78,57,116549,77489,341371,68050,26599,14724,23152,10651,Tag0,unknown
872,1611472950459,0,-345,-7.58056640625e-05,10,78,57,116549,77489,341371,68050,26599,14724,23152,10651,Tag0,unknown
873,1611472950471,0,-318,-6.9873046875e-05,10,78,57,116549,77489,341371,68050,26599,14724,23152,10651,Tag0,unknown
874,1611472950493,0,-626,-0.000137548828125,10,78,57,116549,77489,341371,68050,26599,14724,23152,10651,Tag0,unknown
875,1611472950504,0,-268,-5.888671875000001e-05,10,78,57,116549,77489,341371,68050,26599,14724,23152,10651,Tag0,unknown
876,1611472950514,0,-243,-5.33935546875e-05,10,78,57,116549,77489,341371,68050,26599,14724,23152,10651,Tag0,unknown
877,1611472950530,0,-260,-5.712890625e-05,10,78,57,116549,77489,341371,68050,26599,14724,23152,10651,Tag0,unknown
878,1611472950565,0,-115,-2.52685546875e-05,10,78,57,116549,77489,341371,68050,26599,14724,23152,10651,Tag0,unknown
879,1611472950586,0,-115,-2.52685546875e-05,10,78,57,116549,77489,341371,68050,26599,14724,23152,10651,Tag0,unknown
880,1611472950607,0,-328,-7.207031249999999e-05,10,78,57,116549,77489,341371,68050,26599,14724,23152,10651,Tag0,unknown
881,1611472950621,0,-357,-7.844238281250001e-05,10,78,57,116549,77489,341371,68050,26599,14724,23152,10651,Tag0,unknown
882,1611472950638,0,-219,-4.81201171875e-05,10,78,57,116549,77489,341371,68050,26599,14724,23152,10651,Tag0,unknown
883,1611472950655,0,-372,-8.173828125e-05,10,78,57,116549,77489,341371,68050,26599,14724,23152,10651,Tag0,unknown
884,1611472950665,0,-147,-3.22998046875e-05,10,78,57,116549,77489,341371,68050,26599,14724,23152,10651,Tag0,unknown
885,1611472950693,0,-237,-5.20751953125e-05,8,66,57,732996,140794,16746060,16766573,11794,16749490,19383,6951,Tag0,unknown
886,1611472950703,0,44,9.66796875e-06,8,66,57,732996,140794,16746060,16766573,11794,16749490,19383,6951,Tag0,unknown
887,1611472950713,0,-168,-3.6914062500000014e-05,8,66,57,732996,140794,16746060,16766573,11794,16749490,19383,6951,Tag0,unknown
888,1611472950736,0,112,2.4609375e-05,8,66,57,732996,140794,16746060,16766573,11794,16749490,19383,6951,Tag0,unknown
889,1611472950753,0,269,5.91064453125e-05,8,66,57,732996,140794,16746060,16766573,11794,16749490,19383,6951,Tag0,unknown
890,1611472950770,0,256,5.625e-05,8,66,57,732996,140794,16746060,16766573,11794,16749490,19383,6951,Tag0,unknown
891,1611472950790,0,323,7.09716796875e-05,8,66,57,732996,140794,16746060,16766573,11794,16749490,19383,6951,Tag0,unknown
892,1611472950806,0,-37,-8.1298828125e-06,8,66,57,732996,140794,16746060,16766573,11794,16749490,19383,6951,Tag0,unknown
893,1611472950824,0,-605,-0.0001329345703125,8,66,57,732996,140794,16746060,16766573,11794,16749490,19383,6951,Tag0,unknown
894,1611472950839,0,-348,-7.646484375e-05,8,66,57,732996,140794,16746060,16766573,11794,16749490,19383,6951,Tag0,unknown
895,1611472950849,0,19,4.1748046875e-06,8,66,57,732996,140794,16746060,16766573,11794,16749490,19383,6951,Tag0,unknown
896,1611472950873,0,101,2.21923828125e-05,8,66,57,732996,140794,16746060,16766573,11794,16749490,19383,6951,Tag0,unknown
897,1611472950888,0,-119,-2.6147460937500007e-05,8,66,57,732996,140794,16746060,16766573,11794,16749490,19383,6951,Tag0,unknown
898,1611472950910,0,-179,-3.93310546875e-05,8,66,57,732996,140794,16746060,16766573,11794,16749490,19383,6951,Tag0,unknown
899,1611472950929,0,-51,-1.12060546875e-05,8,66,57,732996,140794,16746060,16766573,11794,16749490,19383,6951,Tag0,unknown
900,1611472951047,0,-5,-1.0986328125e-06,8,66,57,732996,140794,16746060,16766573,11794,16749490,19383,6951,Tag0,unknown
901,1611472951065,0,-260,-5.712890625e-05,8,66,57,732996,140794,16746060,16766573,11794,16749490,19383,6951,Tag0,unknown
902,1611472951078,0,-243,-5.33935546875e-05,8,66,57,732996,140794,16746060,16766573,11794,16749490,19383,6951,Tag0,unknown
903,1611472951088,0,-30,-6.591796875e-06,8,66,57,732996,140794,16746060,16766573,11794,16749490,19383,6951,Tag0,unknown
904,1611472951098,0,28,6.15234375e-06,8,66,57,732996,140794,16746060,16766573,11794,16749490,19383,6951,Tag0,unknown
905,1611472951108,0,-110,-2.4169921875e-05,8,66,57,732996,140794,16746060,16766573,11794,16749490,19383,6951,Tag0,unknown
906,1611472951118,0,-300,-6.591796875e-05,8,66,57,732996,140794,16746060,16766573,11794,16749490,19383,6951,Tag0,unknown
907,1611472951128,0,27,5.932617187500001e-06,8,66,57,732996,140794,16746060,16766573,11794,16749490,19383,6951,Tag0,unknown
908,1611472951156,0,115,2.52685546875e-05,8,66,57,732996,140794,16746060,16766573,11794,16749490,19383,6951,Tag0,unknown
909,1611472951170,0,297,6.525878906250001e-05,8,66,57,732996,140794,16746060,16766573,11794,16749490,19383,6951,Tag0,unknown
910,1611472951191,0,-265,-5.82275390625e-05,8,66,57,732996,140794,16746060,16766573,11794,16749490,19383,6951,Tag0,unknown
911,1611472951212,0,-211,-4.63623046875e-05,8,66,57,732996,140794,16746060,16766573,11794,16749490,19383,6951,Tag0,unknown
912,1611472951222,0,-302,-6.6357421875e-05,8,66,57,732996,140794,16746060,16766573,11794,16749490,19383,6951,Tag0,unknown
913,1611472951235,0,279,6.13037109375e-05,8,66,57,732996,140794,16746060,16766573,11794,16749490,19383,6951,Tag0,unknown
914,1611472951255,0,-45,-9.8876953125e-06,8,66,57,732996,140794,16746060,16766573,11794,16749490,19383,6951,Tag0,unknown
915,1611472951265,0,353,7.75634765625e-05,8,66,57,732996,140794,16746060,16766573,11794,16749490,19383,6951,Tag0,unknown
916,1611472951275,0,315,6.92138671875e-05,8,66,57,732996,140794,16746060,16766573,11794,16749490,19383,6951,Tag0,unknown
917,1611472951288,0,-261,-5.73486328125e-05,8,66,57,732996,140794,16746060,16766573,11794,16749490,19383,6951,Tag0,unknown
918,1611472951310,0,-229,-5.03173828125e-05,8,66,57,732996,140794,16746060,16766573,11794,16749490,19383,6951,Tag0,unknown
919,1611472951320,0,118,2.5927734375e-05,8,66,57,732996,140794,16746060,16766573,11794,16749490,19383,6951,Tag0,unknown
920,1611472951337,0,-134,-2.9443359375000006e-05,8,66,57,732996,140794,16746060,16766573,11794,16749490,19383,6951,Tag0,unknown
921,1611472951356,0,-498,-0.000109423828125,8,66,57,732996,140794,16746060,16766573,11794,16749490,19383,6951,Tag0,unknown
922,1611472951366,0,-309,-6.78955078125e-05,8,66,57,732996,140794,16746060,16766573,11794,16749490,19383,6951,Tag0,unknown
923,1611472951378,0,524,0.00011513671875,8,66,57,732996,140794,16746060,16766573,11794,16749490,19383,6951,Tag0,unknown
924,1611472951390,0,387,8.50341796875e-05,8,66,57,732996,140794,16746060,16766573,11794,16749490,19383,6951,Tag0,unknown
925,1611472951410,0,-409,-8.986816406250001e-05,8,66,57,732996,140794,16746060,16766573,11794,16749490,19383,6951,Tag0,unknown
926,1611472951423,0,-179,-3.93310546875e-05,8,66,57,732996,140794,16746060,16766573,11794,16749490,19383,6951,Tag0,unknown
927,1611472951452,0,-242,-5.317382812500001e-05,8,66,57,732996,140794,16746060,16766573,11794,16749490,19383,6951,Tag0,unknown
928,1611472951470,0,-308,-6.767578125e-05,8,66,57,732996,140794,16746060,16766573,11794,16749490,19383,6951,Tag0,unknown
929,1611472951489,0,-484,-0.00010634765625,8,66,57,732996,140794,16746060,16766573,11794,16749490,19383,6951,Tag0,unknown
930,1611472951508,0,-599,-0.0001316162109375,8,66,57,732996,140794,16746060,16766573,11794,16749490,19383,6951,Tag0,unknown
931,1611472951518,0,-297,-6.525878906250001e-05,8,66,57,732996,140794,16746060,16766573,11794,16749490,19383,6951,Tag0,unknown
932,1611472951529,0,-516,-0.00011337890625,8,66,57,732996,140794,16746060,16766573,11794,16749490,19383,6951,Tag0,unknown
933,1611472951544,0,22,4.833984375e-06,8,66,57,732996,140794,16746060,16766573,11794,16749490,19383,6951,Tag0,unknown
934,1611472951557,0,-346,-7.6025390625e-05,8,66,57,732996,140794,16746060,16766573,11794,16749490,19383,6951,Tag0,unknown
935,1611472951573,0,-339,-7.448730468750001e-05,8,66,57,732996,140794,16746060,16766573,11794,16749490,19383,6951,Tag0,unknown
936,1611472951583,0,-73,-1.6040039062500002e-05,8,66,57,732996,140794,16746060,16766573,11794,16749490,19383,6951,Tag0,unknown
937,1611472951594,0,-298,-6.5478515625e-05,8,66,57,732996,140794,16746060,16766573,11794,16749490,19383,6951,Tag0,unknown
938,1611472951606,0,324,7.119140625e-05,8,66,57,732996,140794,16746060,16766573,11794,16749490,19383,6951,Tag0,unknown
939,1611472951627,0,119,2.6147460937500007e-05,8,66,57,732996,140794,16746060,16766573,11794,16749490,19383,6951,Tag0,unknown
940,1611472951642,0,-123,-2.70263671875e-05,8,66,57,732996,140794,16746060,16766573,11794,16749490,19383,6951,Tag0,unknown
941,1611472951666,0,-141,-3.09814453125e-05,8,66,57,732996,140794,16746060,16766573,11794,16749490,19383,6951,Tag0,unknown
942,1611472951682,0,326,7.163085937500001e-05,8,66,57,732996,140794,16746060,16766573,11794,16749490,19383,6951,Tag0,unknown
943,1611472951698,0,-94,-2.0654296875e-05,24,63,57,1174562,96255,33074,12476,9749,16766969,20453,2920,Tag0,unknown
944,1611472951710,0,342,7.5146484375e-05,24,63,57,1174562,96255,33074,12476,9749,16766969,20453,2920,Tag0,unknown
945,1611472951721,0,-196,-4.306640625e-05,24,63,57,1174562,96255,33074,12476,9749,16766969,20453,2920,Tag0,unknown
946,1611472951741,0,56,1.23046875e-05,24,63,57,1174562,96255,33074,12476,9749,16766969,20453,2920,Tag0,unknown
947,1611472951755,0,-217,-4.76806640625e-05,24,63,57,1174562,96255,33074,12476,9749,16766969,20453,2920,Tag0,unknown
948,1611472951778,0,44,9.66796875e-06,24,63,57,1174562,96255,33074,12476,9749,16766969,20453,2920,Tag0,unknown
949,1611472951791,0,82,1.8017578125e-05,24,63,57,1174562,96255,33074,12476,9749,16766969,20453,2920,Tag0,unknown
950,1611472951813,0,-217,-4.76806640625e-05,24,63,57,1174562,96255,33074,12476,9749,16766969,20453,2920,Tag0,unknown
951,1611472951825,0,96,2.109375e-05,24,63,57,1174562,96255,33074,12476,9749,16766969,20453,2920,Tag0,unknown
952,1611472951835,0,24,5.2734375e-06,24,63,57,1174562,96255,33074,12476,9749,16766969,20453,2920,Tag0,unknown
953,1611472951845,0,-105,-2.30712890625e-05,24,63,57,1174562,96255,33074,12476,9749,16766969,20453,2920,Tag0,unknown
954,1611472951858,0,124,2.724609375e-05,24,63,57,1174562,96255,33074,12476,9749,16766969,20453,2920,Tag0,unknown
955,1611472951874,0,73,1.6040039062500002e-05,24,63,57,1174562,96255,33074,12476,9749,16766969,20453,2920,Tag0,unknown
956,1611472951892,0,-245,-5.38330078125e-05,24,63,57,1174562,96255,33074,12476,9749,16766969,20453,2920,Tag0,unknown
957,1611472951909,0,-91,-1.99951171875e-05,24,63,57,1174562,96255,33074,12476,9749,16766969,20453,2920,Tag0,unknown
958,1611472951919,0,-162,-3.5595703125e-05,24,63,57,1174562,96255,33074,12476,9749,16766969,20453,2920,Tag0,unknown
959,1611472951968,0,-93,-2.04345703125e-05,24,63,57,1174562,96255,33074,12476,9749,16766969,20453,2920,Tag0,unknown
960,1611472951992,0,-519,-0.0001140380859375,24,63,57,1174562,96255,33074,12476,9749,16766969,20453,2920,Tag0,unknown
961,1611472952002,0,189,4.15283203125e-05,24,63,57,1174562,96255,33074,12476,9749,16766969,20453,2920,Tag0,unknown
962,1611472952037,0,-167,-3.66943359375e-05,24,63,57,1174562,96255,33074,12476,9749,16766969,20453,2920,Tag0,unknown
963,1611472952057,0,75,1.64794921875e-05,24,63,57,1174562,96255,33074,12476,9749,16766969,20453,2920,Tag0,unknown
964,1611472952103,0,301,6.613769531250001e-05,24,63,57,1174562,96255,33074,12476,9749,16766969,20453,2920,Tag0,unknown
965,1611472952129,0,57,1.25244140625e-05,24,63,57,1174562,96255,33074,12476,9749,16766969,20453,2920,Tag0,unknown
966,1611472952140,0,-305,-6.70166015625e-05,24,63,57,1174562,96255,33074,12476,9749,16766969,20453,2920,Tag0,unknown
967,1611472952172,0,-349,-7.668457031250001e-05,24,63,57,1174562,96255,33074,12476,9749,16766969,20453,2920,Tag0,unknown
968,1611472952191,0,-107,-2.35107421875e-05,24,63,57,1174562,96255,33074,12476,9749,16766969,20453,2920,Tag0,unknown
969,1611472952308,0,-115,-2.52685546875e-05,24,63,57,1174562,96255,33074,12476,9749,16766969,20453,2920,Tag0,unknown
970,1611472952330,0,137,3.01025390625e-05,24,63,57,1174562,96255,33074,12476,9749,16766969,20453,2920,Tag0,unknown
971,1611472952340,0,-299,-6.56982421875e-05,24,63,57,1174562,96255,33074,12476,9749,16766969,20453,2920,Tag0,unknown
972,1611472952350,0,293,6.43798828125e-05,24,63,57,1174562,96255,33074,12476,9749,16766969,20453,2920,Tag0,unknown
973,1611472952375,0,-299,-6.56982421875e-05,24,63,57,1174562,96255,33074,12476,9749,16766969,20453,2920,Tag0,unknown
974,1611472952391,0,-55,-1.20849609375e-05,24,63,57,1174562,96255,33074,12476,9749,16766969,20453,2920,Tag0,unknown
975,1611472952492,0,123,2.70263671875e-05,24,63,57,1174562,96255,33074,12476,9749,16766969,20453,2920,Tag0,unknown
976,1611472952513,0,-324,-7.119140625e-05,24,63,57,1174562,96255,33074,12476,9749,16766969,20453,2920,Tag0,unknown
977,1611472952523,0,-541,-0.0001188720703125,24,63,57,1174562,96255,33074,12476,9749,16766969,20453,2920,Tag0,unknown
978,1611472952536,0,-155,-3.40576171875e-05,24,63,57,1174562,96255,33074,12476,9749,16766969,20453,2920,Tag0,unknown
979,1611472952546,0,-294,-6.4599609375e-05,24,63,57,1174562,96255,33074,12476,9749,16766969,20453,2920,Tag0,unknown
980,1611472952563,0,217,4.76806640625e-05,24,63,57,1174562,96255,33074,12476,9749,16766969,20453,2920,Tag0,unknown
981,1611472952573,0,-165,-3.62548828125e-05,24,63,57,1174562,96255,33074,12476,9749,16766969,20453,2920,Tag0,unknown
982,1611472952583,0,-341,-7.492675781250003e-05,24,63,57,1174562,96255,33074,12476,9749,16766969,20453,2920,Tag0,unknown
983,1611472952593,0,-568,-0.0001248046875,24,63,57,1174562,96255,33074,12476,9749,16766969,20453,2920,Tag0,unknown
984,1611472952616,0,-325,-7.14111328125e-05,24,63,57,1174562,96255,33074,12476,9749,16766969,20453,2920,Tag0,unknown
985,1611472952626,0,353,7.75634765625e-05,24,63,57,1174562,96255,33074,12476,9749,16766969,20453,2920,Tag0,unknown
986,1611472952650,0,-132,-2.900390625e-05,24,63,57,1174562,96255,33074,12476,9749,16766969,20453,2920,Tag0,unknown
987,1611472952660,0,-298,-6.5478515625e-05,24,63,57,1174562,96255,33074,12476,9749,16766969,20453,2920,Tag0,unknown
988,1611472952670,0,-366,-8.0419921875e-05,11,83,57,1158095,75876,93219,76699,16751641,15114,26647,12493,Tag0,unknown
989,1611472952688,0,-854,-0.000187646484375,11,83,57,1158095,75876,93219,76699,16751641,15114,26647,12493,Tag0,unknown
990,1611472952708,0,-833,-0.0001830322265625,11,83,57,1158095,75876,93219,76699,16751641,15114,26647,12493,Tag0,unknown
991,1611472952718,0,-779,-0.0001711669921875,11,83,57,1158095,75876,93219,76699,16751641,15114,26647,12493,Tag0,unknown
992,1611472952735,0,89,1.95556640625e-05,11,83,57,1158095,75876,93219,76699,16751641,15114,26647,12493,Tag0,unknown
993,1611472952745,0,557,0.0001223876953125,11,83,57,1158095,75876,93219,76699,16751641,15114,26647,12493,Tag0,unknown
994,1611472952758,0,-425,-9.33837890625e-05,11,83,57,1158095,75876,93219,76699,16751641,15114,26647,12493,Tag0,unknown
995,1611472952778,0,-5,-1.0986328125e-06,11,83,57,1158095,75876,93219,76699,16751641,15114,26647,12493,Tag0,unknown
996,1611472952792,0,86,1.8896484375000006e-05,11,83,57,1158095,75876,93219,76699,16751641,15114,26647,12493,Tag0,unknown
997,1611472952813,0,-147,-3.22998046875e-05,11,83,57,1158095,75876,93219,76699,16751641,15114,26647,12493,Tag0,unknown
998,1611472952825,0,118,2.5927734375e-05,11,83,57,1158095,75876,93219,76699,16751641,15114,26647,12493,Tag0,unknown
999,1611472952835,0,-130,-2.8564453125e-05,11,83,57,1158095,75876,93219,76699,16751641,15114,26647,12493,Tag0,unknown
1000,1611472952848,0,91,1.99951171875e-05,11,83,57,1158095,75876,93219,76699,16751641,15114,26647,12493,Tag0,unknown
1001,1611472952858,0,-311,-6.833496093750001e-05,11,83,57,1158095,75876,93219,76699,16751641,15114,26647,12493,Tag0,unknown
1002,1611472952875,0,-136,-2.98828125e-05,11,83,57,1158095,75876,93219,76699,16751641,15114,26647,12493,Tag0,unknown
1003,1611472952898,0,-346,-7.6025390625e-05,11,83,57,1158095,75876,93219,76699,16751641,15114,26647,12493,Tag0,unknown
1004,1611472952908,0,-531,-0.0001166748046875,11,83,57,1158095,75876,93219,76699,16751641,15114,26647,12493,Tag0,unknown
1005,1611472952933,0,-231,-5.07568359375e-05,11,83,57,1158095,75876,93219,76699,16751641,15114,26647,12493,Tag0,unknown
1006,1611472952943,0,-531,-0.0001166748046875,11,83,57,1158095,75876,93219,76699,16751641,15114,26647,12493,Tag0,unknown
1007,1611472952959,0,-177,-3.889160156250001e-05,11,83,57,1158095,75876,93219,76699,16751641,15114,26647,12493,Tag0,unknown
1008,1611472952969,0,-220,-4.833984375e-05,11,83,57,1158095,75876,93219,76699,16751641,15114,26647,12493,Tag0,unknown
1009,1611472953040,0,81,1.77978515625e-05,11,83,57,1158095,75876,93219,76699,16751641,15114,26647,12493,Tag0,unknown
1010,1611472953059,0,-379,-8.32763671875e-05,11,83,57,1158095,75876,93219,76699,16751641,15114,26647,12493,Tag0,unknown
1011,1611472953069,0,77,1.69189453125e-05,11,83,57,1158095,75876,93219,76699,16751641,15114,26647,12493,Tag0,unknown
1012,1611472953079,0,-195,-4.28466796875e-05,11,83,57,1158095,75876,93219,76699,16751641,15114,26647,12493,Tag0,unknown
1013,1611472953089,0,-388,-8.525390625e-05,11,83,57,1158095,75876,93219,76699,16751641,15114,26647,12493,Tag0,unknown
1014,1611472953099,0,-334,-7.338867187500001e-05,11,83,57,1158095,75876,93219,76699,16751641,15114,26647,12493,Tag0,unknown
1015,1611472953109,0,-78,-1.7138671875e-05,11,83,57,1158095,75876,93219,76699,16751641,15114,26647,12493,Tag0,unknown
1016,1611472953123,0,805,0.0001768798828125,11,83,57,1158095,75876,93219,76699,16751641,15114,26647,12493,Tag0,unknown
1017,1611472953158,0,325,7.14111328125e-05,11,83,57,1158095,75876,93219,76699,16751641,15114,26647,12493,Tag0,unknown
1018,1611472953173,0,229,5.03173828125e-05,11,83,57,1158095,75876,93219,76699,16751641,15114,26647,12493,Tag0,unknown
1019,1611472953183,0,-327,-7.18505859375e-05,11,83,57,1158095,75876,93219,76699,16751641,15114,26647,12493,Tag0,unknown
1020,1611472953207,0,-323,-7.09716796875e-05,11,83,57,1158095,75876,93219,76699,16751641,15114,26647,12493,Tag0,unknown
1021,1611472953229,0,294,6.4599609375e-05,11,83,57,1158095,75876,93219,76699,16751641,15114,26647,12493,Tag0,unknown
1022,1611472953239,0,550,0.000120849609375,11,83,57,1158095,75876,93219,76699,16751641,15114,26647,12493,Tag0,unknown
1023,1611472953249,0,66,1.4501953125e-05,11,83,57,1158095,75876,93219,76699,16751641,15114,26647,12493,Tag0,unknown
1024,1611472953265,0,59,1.29638671875e-05,11,83,57,1158095,75876,93219,76699,16751641,15114,26647,12493,Tag0,unknown
1025,1611472953275,0,436,9.580078125e-05,11,83,57,1158095,75876,93219,76699,16751641,15114,26647,12493,Tag0,unknown
1026,1611472953285,0,309,6.78955078125e-05,11,83,57,1158095,75876,93219,76699,16751641,15114,26647,12493,Tag0,unknown
1027,1611472953295,0,89,1.95556640625e-05,11,83,57,1158095,75876,93219,76699,16751641,15114,26647,12493,Tag0,unknown
1028,1611472953319,0,264,5.80078125e-05,11,83,57,1158095,75876,93219,76699,16751641,15114,26647,12493,Tag0,unknown
1029,1611472953342,0,256,5.625e-05,11,83,57,1158095,75876,93219,76699,16751641,15114,26647,12493,Tag0,unknown
1030,1611472953360,0,-8,-1.7578125e-06,11,83,57,1158095,75876,93219,76699,16751641,15114,26647,12493,Tag0,unknown
1031,1611472953378,0,-324,-7.119140625e-05,11,83,57,1158095,75876,93219,76699,16751641,15114,26647,12493,Tag0,unknown
1032,1611472953388,0,-371,-8.151855468750001e-05,11,83,57,1158095,75876,93219,76699,16751641,15114,26647,12493,Tag0,unknown
1033,1611472953398,0,265,5.82275390625e-05,11,83,57,1158095,75876,93219,76699,16751641,15114,26647,12493,Tag0,unknown
1034,1611472953412,0,-94,-2.0654296875e-05,11,83,57,1158095,75876,93219,76699,16751641,15114,26647,12493,Tag0,unknown
1035,1611472953428,0,-47,-1.03271484375e-05,11,83,57,1158095,75876,93219,76699,16751641,15114,26647,12493,Tag0,unknown
1036,1611472953445,0,-157,-3.44970703125e-05,11,83,57,1158095,75876,93219,76699,16751641,15114,26647,12493,Tag0,unknown
1037,1611472953460,0,-197,-4.32861328125e-05,11,83,57,1158095,75876,93219,76699,16751641,15114,26647,12493,Tag0,unknown
1038,1611472953470,0,-170,-3.7353515625e-05,11,83,57,1158095,75876,93219,76699,16751641,15114,26647,12493,Tag0,unknown
1039,1611472953481,0,34,7.470703125e-06,11,83,57,1158095,75876,93219,76699,16751641,15114,26647,12493,Tag0,unknown
1040,1611472953493,0,-524,-0.00011513671875,11,83,57,1158095,75876,93219,76699,16751641,15114,26647,12493,Tag0,unknown
1041,1611472953515,0,-163,-3.581542968750001e-05,11,83,57,1158095,75876,93219,76699,16751641,15114,26647,12493,Tag0,unknown
1042,1611472953527,0,-157,-3.44970703125e-05,11,83,57,1158095,75876,93219,76699,16751641,15114,26647,12493,Tag0,unknown
1043,1611472953547,0,117,2.57080078125e-05,11,83,57,1158095,75876,93219,76699,16751641,15114,26647,12493,Tag0,unknown
1044,1611472953558,0,-162,-3.5595703125e-05,11,83,57,1158095,75876,93219,76699,16751641,15114,26647,12493,Tag0,unknown
1045,1611472953581,0,-396,-8.701171875000001e-05,11,83,57,1158095,75876,93219,76699,16751641,15114,26647,12493,Tag0,unknown
1046,1611472953592,0,-295,-6.48193359375e-05,11,83,57,1158095,75876,93219,76699,16751641,15114,26647,12493,Tag0,unknown
1047,1611472953616,0,-84,-1.8457031250000007e-05,11,83,57,1158095,75876,93219,76699,16751641,15114,26647,12493,Tag0,unknown
1048,1611472953630,0,107,2.35107421875e-05,11,83,57,1158095,75876,93219,76699,16751641,15114,26647,12493,Tag0,unknown
1049,1611472953640,0,44,9.66796875e-06,11,83,57,1158095,75876,93219,76699,16751641,15114,26647,12493,Tag0,unknown
1050,1611472953653,0,-361,-7.93212890625e-05,11,83,57,1158095,75876,93219,76699,16751641,15114,26647,12493,Tag0,unknown
