timestampMs,poorSignal,eegRawValue,eegRawValueVolts,attention,meditation,blinkStrength,delta,theta,alphaLow,alphaHigh,betaLow,betaHigh,gammaLow,gammaMid,tagEvent,location
1605697255574,0,-75,-1.64794921875E-5,64,69,121,109770,69762,53189,9207,19516,18555,2414,663,Tag0,unknown
1605697255590,0,580,1.2744140625E-4,64,69,121,109770,69762,53189,9207,19516,18555,2414,663,Tag0,unknown
1605697255611,0,528,1.16015625E-4,64,69,121,109770,69762,53189,9207,19516,18555,2414,663,Tag0,unknown
1605697255623,0,179,3.93310546875E-5,64,69,121,109770,69762,53189,9207,19516,18555,2414,663,Tag0,unknown
1605697255640,0,-312,-6.85546875E-5,64,69,121,109770,69762,53189,9207,19516,18555,2414,663,Tag0,unknown
1605697255657,0,-777,-1.707275390625E-4,64,69,121,109770,69762,53189,9207,19516,18555,2414,663,Tag0,unknown
1605697255684,0,-298,-6.5478515625E-5,64,69,121,109770,69762,53189,9207,19516,18555,2414,663,Tag0,unknown
1605697255694,0,311,6.833496093750001E-5,64,69,121,109770,69762,53189,9207,19516,18555,2414,663,Tag0,unknown
1605697255727,0,275,6.04248046875E-5,64,69,121,109770,69762,53189,9207,19516,18555,2414,663,Tag0,unknown
1605697255740,0,-54,-1.1865234375000001E-5,64,69,121,109770,69762,53189,9207,19516,18555,2414,663,Tag0,unknown
1605697255750,0,-39,-8.5693359375E-6,64,69,121,109770,69762,53189,9207,19516,18555,2414,663,Tag0,unknown
1605697255765,0,-347,-7.62451171875E-5,64,69,121,109770,69762,53189,9207,19516,18555,2414,663,Tag0,unknown
1605697255775,0,-369,-8.10791015625E-5,64,69,121,109770,69762,53189,9207,19516,18555,2414,663,Tag0,unknown
1605697255785,0,538,1.1821289062499999E-4,64,69,121,109770,69762,53189,9207,19516,18555,2414,663,Tag0,unknown
1605697255804,0,189,4.15283203125E-5,64,69,121,109770,69762,53189,9207,19516,18555,2414,663,Tag0,unknown
1605697255824,0,541,1.1887207031250001E-4,64,69,121,109770,69762,53189,9207,19516,18555,2414,663,Tag0,unknown
1605697255842,0,49,1.07666015625E-5,64,69,121,109770,69762,53189,9207,19516,18555,2414,663,Tag0,unknown
1605697255858,0,-321,-7.053222656250001E-5,64,69,121,109770,69762,53189,9207,19516,18555,2414,663,Tag0,unknown
1605697255868,0,-721,-1.584228515625E-4,64,69,121,109770,69762,53189,9207,19516,18555,2414,663,Tag0,unknown
1605697255880,0,-130,-2.8564453125E-5,64,69,121,109770,69762,53189,9207,19516,18555,2414,663,Tag0,unknown
1605697255891,0,107,2.35107421875E-5,64,69,121,109770,69762,53189,9207,19516,18555,2414,663,Tag0,unknown
1605697255913,0,1068,2.3466796875E-4,64,69,121,109770,69762,53189,9207,19516,18555,2414,663,Tag0,unknown
1605697255924,0,1146,2.51806640625E-4,64,69,121,109770,69762,53189,9207,19516,18555,2414,663,Tag0,unknown
1605697255952,0,37,8.1298828125E-6,64,69,121,109770,69762,53189,9207,19516,18555,2414,663,Tag0,unknown
1605697255962,0,-428,-9.404296875E-5,64,69,121,109770,69762,53189,9207,19516,18555,2414,663,Tag0,unknown
1605697255989,0,-798,-1.7534179687500001E-4,64,69,121,109770,69762,53189,9207,19516,18555,2414,663,Tag0,unknown
1605697256007,0,-714,-1.5688476562500001E-4,64,69,121,109770,69762,53189,9207,19516,18555,2414,663,Tag0,unknown
1605697256018,0,-204,-4.4824218749999996E-5,64,69,121,109770,69762,53189,9207,19516,18555,2414,663,Tag0,unknown
1605697256029,0,-150,-3.2958984375E-5,64,69,121,109770,69762,53189,9207,19516,18555,2414,663,Tag0,unknown
1605697256057,0,-586,-1.28759765625E-4,64,69,121,109770,69762,53189,9207,19516,18555,2414,663,Tag0,unknown
1605697256073,0,-188,-4.1308593750000004E-5,64,69,121,109770,69762,53189,9207,19516,18555,2414,663,Tag0,unknown
1605697256096,0,426,9.3603515625E-5,64,69,121,109770,69762,53189,9207,19516,18555,2414,663,Tag0,unknown
1605697256107,0,465,1.021728515625E-4,64,69,121,109770,69762,53189,9207,19516,18555,2414,663,Tag0,unknown
1605697256129,0,330,7.2509765625E-5,64,69,121,109770,69762,53189,9207,19516,18555,2414,663,Tag0,unknown
1605697256153,0,146,3.2080078125000004E-5,64,69,121,109770,69762,53189,9207,19516,18555,2414,663,Tag0,unknown
1605697256171,0,-379,-8.32763671875E-5,64,69,121,109770,69762,53189,9207,19516,18555,2414,663,Tag0,unknown
1605697256202,0,183,4.02099609375E-5,64,69,87,109770,69762,53189,9207,19516,18555,2414,663,Tag0,unknown
1605697256212,0,243,5.33935546875E-5,64,69,87,109770,69762,53189,9207,19516,18555,2414,663,Tag0,unknown
1605697256232,0,529,1.162353515625E-4,64,69,87,109770,69762,53189,9207,19516,18555,2414,663,Tag0,unknown
1605697256256,0,-146,-3.2080078125000004E-5,64,69,87,109770,69762,53189,9207,19516,18555,2414,663,Tag0,unknown
1605697256277,0,-392,-8.61328125E-5,64,69,87,109770,69762,53189,9207,19516,18555,2414,663,Tag0,unknown
1605697256303,0,-435,-9.55810546875E-5,64,69,87,109770,69762,53189,9207,19516,18555,2414,663,Tag0,unknown
1605697256313,0,-797,-1.751220703125E-4,64,69,87,109770,69762,53189,9207,19516,18555,2414,663,Tag0,unknown
1605697256323,0,-216,-4.7460937500000004E-5,64,69,87,109770,69762,53189,9207,19516,18555,2414,663,Tag0,unknown
1605697256350,0,267,5.86669921875E-5,64,69,87,109770,69762,53189,9207,19516,18555,2414,663,Tag0,unknown
1605697256360,0,249,5.47119140625E-5,64,69,87,109770,69762,53189,9207,19516,18555,2414,663,Tag0,unknown
1605697256392,0,553,1.215087890625E-4,64,69,87,109770,69762,53189,9207,19516,18555,2414,663,Tag0,unknown
1605697256408,0,156,3.427734375E-5,64,69,87,109770,69762,53189,9207,19516,18555,2414,663,Tag0,unknown
1605697256426,0,-621,-1.364501953125E-4,64,69,87,109770,69762,53189,9207,19516,18555,2414,663,Tag0,unknown
1605697256443,0,-635,-1.395263671875E-4,64,69,87,109770,69762,53189,9207,19516,18555,2414,663,Tag0,unknown
1605697256453,0,-317,-6.96533203125E-5,64,69,87,109770,69762,53189,9207,19516,18555,2414,663,Tag0,unknown
1605697256467,0,195,4.28466796875E-5,64,69,87,109770,69762,53189,9207,19516,18555,2414,663,Tag0,unknown
1605697256498,0,-90,-1.9775390625E-5,64,69,87,109770,69762,53189,9207,19516,18555,2414,663,Tag0,unknown
1605697256509,0,557,1.223876953125E-4,64,69,87,109770,69762,53189,9207,19516,18555,2414,663,Tag0,unknown
1605697256545,0,-63,-1.38427734375E-5,80,100,87,1709263,572334,865221,179576,99207,747866,26039,24437,Tag0,unknown
1605697256560,0,-566,-1.2436523437500002E-4,80,100,87,1709263,572334,865221,179576,99207,747866,26039,24437,Tag0,unknown
1605697256575,0,-137,-3.0102539062499998E-5,80,100,87,1709263,572334,865221,179576,99207,747866,26039,24437,Tag0,unknown
1605697256599,0,-293,-6.43798828125E-5,80,100,87,1709263,572334,865221,179576,99207,747866,26039,24437,Tag0,unknown
1605697256609,0,-307,-6.74560546875E-5,80,100,87,1709263,572334,865221,179576,99207,747866,26039,24437,Tag0,unknown
1605697256633,0,-43,-9.448242187500001E-6,80,100,75,1709263,572334,865221,179576,99207,747866,26039,24437,Tag0,unknown
1605697256643,0,310,6.8115234375E-5,80,100,75,1709263,572334,865221,179576,99207,747866,26039,24437,Tag0,unknown
1605697256674,0,-387,-8.50341796875E-5,80,100,75,1709263,572334,865221,179576,99207,747866,26039,24437,Tag0,unknown
1605697256692,0,-517,-1.135986328125E-4,80,100,75,1709263,572334,865221,179576,99207,747866,26039,24437,Tag0,unknown
1605697256709,0,71,1.56005859375E-5,80,100,75,1709263,572334,865221,179576,99207,747866,26039,24437,Tag0,unknown
1605697256725,0,-94,-2.0654296875000002E-5,80,100,75,1709263,572334,865221,179576,99207,747866,26039,24437,Tag0,unknown
1605697256735,0,-107,-2.35107421875E-5,80,100,75,1709263,572334,865221,179576,99207,747866,26039,24437,Tag0,unknown
1605697256745,0,-115,-2.52685546875E-5,80,100,75,1709263,572334,865221,179576,99207,747866,26039,24437,Tag0,unknown
1605697256759,0,-85,-1.86767578125E-5,80,100,75,1709263,572334,865221,179576,99207,747866,26039,24437,Tag0,unknown
1605697256788,0,132,2.900390625E-5,80,100,75,1709263,572334,865221,179576,99207,747866,26039,24437,Tag0,unknown
1605697256798,0,48,1.0546875E-5,80,100,75,1709263,572334,865221,179576,99207,747866,26039,24437,Tag0,unknown
1605697256819,0,-300,-6.591796875E-5,80,100,75,1709263,572334,865221,179576,99207,747866,26039,24437,Tag0,unknown
1605697256830,0,-218,-4.7900390625E-5,80,100,75,1709263,572334,865221,179576,99207,747866,26039,24437,Tag0,unknown
1605697256854,0,77,1.69189453125E-5,80,100,75,1709263,572334,865221,179576,99207,747866,26039,24437,Tag0,unknown
1605697256864,0,-4,-8.7890625E-7,80,100,75,1709263,572334,865221,179576,99207,747866,26039,24437,Tag0,unknown
1605697256892,0,520,1.142578125E-4,80,100,75,1709263,572334,865221,179576,99207,747866,26039,24437,Tag0,unknown
1605697256909,0,546,1.1997070312500001E-4,80,100,75,1709263,572334,865221,179576,99207,747866,26039,24437,Tag0,unknown
1605697256926,0,804,1.7666015625E-4,80,100,75,1709263,572334,865221,179576,99207,747866,26039,24437,Tag0,unknown
1605697256943,0,-201,-4.41650390625E-5,80,100,75,1709263,572334,865221,179576,99207,747866,26039,24437,Tag0,unknown
1605697256964,0,-1253,-2.7531738281250004E-4,80,100,75,1709263,572334,865221,179576,99207,747866,26039,24437,Tag0,unknown
1605697256980,0,-1154,-2.5356445312500005E-4,80,100,75,1709263,572334,865221,179576,99207,747866,26039,24437,Tag0,unknown
1605697257007,0,-588,-1.2919921875E-4,80,100,75,1709263,572334,865221,179576,99207,747866,26039,24437,Tag0,unknown
1605697257026,0,-324,-7.119140625E-5,80,100,75,1709263,572334,865221,179576,99207,747866,26039,24437,Tag0,unknown
1605697257044,0,1073,2.357666015625E-4,80,100,75,1709263,572334,865221,179576,99207,747866,26039,24437,Tag0,unknown
1605697257060,0,1031,2.265380859375E-4,80,100,75,1709263,572334,865221,179576,99207,747866,26039,24437,Tag0,unknown
1605697257083,0,-166,-3.6474609375E-5,80,100,75,1709263,572334,865221,179576,99207,747866,26039,24437,Tag0,unknown
1605697257094,0,-256,-5.625E-5,80,100,75,1709263,572334,865221,179576,99207,747866,26039,24437,Tag0,unknown
1605697257105,0,-246,-5.4052734375E-5,80,100,75,1709263,572334,865221,179576,99207,747866,26039,24437,Tag0,unknown
1605697257117,0,-519,-1.140380859375E-4,80,100,75,1709263,572334,865221,179576,99207,747866,26039,24437,Tag0,unknown
1605697257128,0,-437,-9.602050781250001E-5,80,100,75,1709263,572334,865221,179576,99207,747866,26039,24437,Tag0,unknown
1605697257158,0,77,1.69189453125E-5,80,100,75,1709263,572334,865221,179576,99207,747866,26039,24437,Tag0,unknown
1605697257177,0,-75,-1.64794921875E-5,80,100,75,1709263,572334,865221,179576,99207,747866,26039,24437,Tag0,unknown
1605697257198,0,914,2.00830078125E-4,80,100,75,1709263,572334,865221,179576,99207,747866,26039,24437,Tag0,unknown
1605697257212,0,924,2.0302734375E-4,80,100,75,1709263,572334,865221,179576,99207,747866,26039,24437,Tag0,unknown
1605697257233,0,-126,-2.7685546875E-5,80,100,75,1709263,572334,865221,179576,99207,747866,26039,24437,Tag0,unknown
1605697257244,0,-337,-7.40478515625E-5,80,100,75,1709263,572334,865221,179576,99207,747866,26039,24437,Tag0,unknown
1605697257267,0,-946,-2.0786132812499998E-4,80,100,75,1709263,572334,865221,179576,99207,747866,26039,24437,Tag0,unknown
1605697257277,0,-1133,-2.489501953125E-4,80,100,75,1709263,572334,865221,179576,99207,747866,26039,24437,Tag0,unknown
1605697257305,0,361,7.93212890625E-5,80,100,75,1709263,572334,865221,179576,99207,747866,26039,24437,Tag0,unknown
1605697257315,0,331,7.272949218750001E-5,80,100,75,1709263,572334,865221,179576,99207,747866,26039,24437,Tag0,unknown
1605697257338,0,-8,-1.7578125E-6,80,100,75,1709263,572334,865221,179576,99207,747866,26039,24437,Tag0,unknown
1605697257352,0,-53,-1.1645507812500002E-5,80,100,75,1709263,572334,865221,179576,99207,747866,26039,24437,Tag0,unknown
1605697257377,0,-833,-1.830322265625E-4,80,100,75,1709263,572334,865221,179576,99207,747866,26039,24437,Tag0,unknown
1605697257395,0,-537,-1.179931640625E-4,80,100,75,1709263,572334,865221,179576,99207,747866,26039,24437,Tag0,unknown
1605697257418,0,-149,-3.27392578125E-5,80,100,75,1709263,572334,865221,179576,99207,747866,26039,24437,Tag0,unknown
1605697257453,0,-311,-6.833496093750001E-5,80,100,75,1709263,572334,865221,179576,99207,747866,26039,24437,Tag0,unknown
1605697257465,0,-264,-5.80078125E-5,80,100,75,1709263,572334,865221,179576,99207,747866,26039,24437,Tag0,unknown
1605697257488,0,197,4.32861328125E-5,80,100,75,1709263,572334,865221,179576,99207,747866,26039,24437,Tag0,unknown
1605697257503,0,356,7.822265625E-5,80,100,75,1709263,572334,865221,179576,99207,747866,26039,24437,Tag0,unknown
1605697257513,0,-341,-7.492675781250002E-5,80,100,75,1709263,572334,865221,179576,99207,747866,26039,24437,Tag0,unknown
1605697257523,0,-147,-3.22998046875E-5,80,100,75,1709263,572334,865221,179576,99207,747866,26039,24437,Tag0,unknown
1605697257534,0,-309,-6.78955078125E-5,56,100,75,873753,258245,134145,55352,50367,66738,11540,2791,Tag0,unknown
1605697257563,0,-83,-1.82373046875E-5,56,100,75,873753,258245,134145,55352,50367,66738,11540,2791,Tag0,unknown
1605697257578,0,-94,-2.0654296875000002E-5,56,100,75,873753,258245,134145,55352,50367,66738,11540,2791,Tag0,unknown
1605697257599,0,150,3.2958984375E-5,56,100,75,873753,258245,134145,55352,50367,66738,11540,2791,Tag0,unknown
1605697257611,0,379,8.32763671875E-5,56,100,75,873753,258245,134145,55352,50367,66738,11540,2791,Tag0,unknown
1605697257635,0,-365,-8.02001953125E-5,56,100,75,873753,258245,134145,55352,50367,66738,11540,2791,Tag0,unknown
1605697257645,0,-231,-5.07568359375E-5,56,100,75,873753,258245,134145,55352,50367,66738,11540,2791,Tag0,unknown
1605697257668,0,67,1.4721679687500002E-5,56,100,75,873753,258245,134145,55352,50367,66738,11540,2791,Tag0,unknown
1605697257679,0,-85,-1.86767578125E-5,56,100,58,873753,258245,134145,55352,50367,66738,11540,2791,Tag0,unknown
1605697257708,0,321,7.053222656250001E-5,56,100,58,873753,258245,134145,55352,50367,66738,11540,2791,Tag0,unknown
1605697257718,0,-324,-7.119140625E-5,56,100,58,873753,258245,134145,55352,50367,66738,11540,2791,Tag0,unknown
1605697257743,0,52,1.142578125E-5,56,100,58,873753,258245,134145,55352,50367,66738,11540,2791,Tag0,unknown
1605697257762,0,-2,-4.39453125E-7,56,100,58,873753,258245,134145,55352,50367,66738,11540,2791,Tag0,unknown
1605697257781,0,525,1.153564453125E-4,56,100,58,873753,258245,134145,55352,50367,66738,11540,2791,Tag0,unknown
1605697257799,0,570,1.25244140625E-4,56,100,58,873753,258245,134145,55352,50367,66738,11540,2791,Tag0,unknown
1605697257816,0,173,3.80126953125E-5,56,100,58,873753,258245,134145,55352,50367,66738,11540,2791,Tag0,unknown
1605697257829,0,292,6.416015625000001E-5,56,100,58,873753,258245,134145,55352,50367,66738,11540,2791,Tag0,unknown
1605697257855,0,265,5.82275390625E-5,56,100,58,873753,258245,134145,55352,50367,66738,11540,2791,Tag0,unknown
1605697257865,0,-117,-2.5708007812499998E-5,56,100,58,873753,258245,134145,55352,50367,66738,11540,2791,Tag0,unknown
1605697257891,0,-354,-7.778320312500001E-5,56,100,58,873753,258245,134145,55352,50367,66738,11540,2791,Tag0,unknown
1605697257901,0,-203,-4.460449218750001E-5,56,100,58,873753,258245,134145,55352,50367,66738,11540,2791,Tag0,unknown
1605697257932,0,-58,-1.2744140625E-5,56,100,79,873753,258245,134145,55352,50367,66738,11540,2791,Tag0,unknown
1605697257963,0,486,1.06787109375E-4,56,100,79,873753,258245,134145,55352,50367,66738,11540,2791,Tag0,unknown
1605697257980,0,421,9.25048828125E-5,56,100,79,873753,258245,134145,55352,50367,66738,11540,2791,Tag0,unknown
1605697258003,0,-89,-1.95556640625E-5,56,100,79,873753,258245,134145,55352,50367,66738,11540,2791,Tag0,unknown
1605697258015,0,-263,-5.7788085937500005E-5,56,100,79,873753,258245,134145,55352,50367,66738,11540,2791,Tag0,unknown
1605697258036,0,-534,-1.17333984375E-4,56,100,79,873753,258245,134145,55352,50367,66738,11540,2791,Tag0,unknown
1605697258047,0,-587,-1.2897949218750003E-4,56,100,79,873753,258245,134145,55352,50367,66738,11540,2791,Tag0,unknown
1605697258057,0,538,1.1821289062499999E-4,56,100,78,873753,258245,134145,55352,50367,66738,11540,2791,Tag0,unknown
1605697258090,0,245,5.38330078125E-5,56,100,78,873753,258245,134145,55352,50367,66738,11540,2791,Tag0,unknown
1605697258100,0,132,2.900390625E-5,56,100,78,873753,258245,134145,55352,50367,66738,11540,2791,Tag0,unknown
1605697258130,0,-582,-1.27880859375E-4,56,100,78,873753,258245,134145,55352,50367,66738,11540,2791,Tag0,unknown
1605697258140,0,69,1.51611328125E-5,56,100,78,873753,258245,134145,55352,50367,66738,11540,2791,Tag0,unknown
1605697258162,0,-43,-9.448242187500001E-6,56,100,78,873753,258245,134145,55352,50367,66738,11540,2791,Tag0,unknown
1605697258180,0,288,6.328125E-5,56,100,78,873753,258245,134145,55352,50367,66738,11540,2791,Tag0,unknown
1605697258190,0,-201,-4.41650390625E-5,56,100,78,873753,258245,134145,55352,50367,66738,11540,2791,Tag0,unknown
1605697258201,0,-315,-6.92138671875E-5,56,100,78,873753,258245,134145,55352,50367,66738,11540,2791,Tag0,unknown
1605697258211,0,-88,-1.93359375E-5,56,100,78,873753,258245,134145,55352,50367,66738,11540,2791,Tag0,unknown
1605697258235,0,-128,-2.8125E-5,56,100,78,873753,258245,134145,55352,50367,66738,11540,2791,Tag0,unknown
1605697258252,0,289,6.35009765625E-5,56,100,78,873753,258245,134145,55352,50367,66738,11540,2791,Tag0,unknown
1605697258262,0,169,3.7133789062499996E-5,56,100,78,873753,258245,134145,55352,50367,66738,11540,2791,Tag0,unknown
1605697258287,0,154,3.3837890625E-5,56,100,78,873753,258245,134145,55352,50367,66738,11540,2791,Tag0,unknown
1605697258297,0,312,6.85546875E-5,56,100,78,873753,258245,134145,55352,50367,66738,11540,2791,Tag0,unknown
1605697258307,0,-52,-1.142578125E-5,56,100,78,873753,258245,134145,55352,50367,66738,11540,2791,Tag0,unknown
1605697258326,0,-273,-5.998535156250001E-5,56,100,78,873753,258245,134145,55352,50367,66738,11540,2791,Tag0,unknown
1605697258336,0,-150,-3.2958984375E-5,56,100,78,873753,258245,134145,55352,50367,66738,11540,2791,Tag0,unknown
1605697258365,0,-62,-1.3623046875E-5,56,100,78,873753,258245,134145,55352,50367,66738,11540,2791,Tag0,unknown
1605697258381,0,-107,-2.35107421875E-5,56,100,78,873753,258245,134145,55352,50367,66738,11540,2791,Tag0,unknown
1605697258398,0,88,1.93359375E-5,56,100,44,873753,258245,134145,55352,50367,66738,11540,2791,Tag0,unknown
1605697258416,0,-19,-4.1748046875E-6,56,100,44,873753,258245,134145,55352,50367,66738,11540,2791,Tag0,unknown
1605697258426,0,304,6.6796875E-5,56,100,44,873753,258245,134145,55352,50367,66738,11540,2791,Tag0,unknown
1605697258440,0,370,8.1298828125E-5,56,100,44,873753,258245,134145,55352,50367,66738,11540,2791,Tag0,unknown
1605697258450,0,336,7.382812500000001E-5,56,100,44,873753,258245,134145,55352,50367,66738,11540,2791,Tag0,unknown
1605697258473,0,-281,-6.17431640625E-5,56,100,44,873753,258245,134145,55352,50367,66738,11540,2791,Tag0,unknown
1605697258483,0,-547,-1.201904296875E-4,56,100,44,873753,258245,134145,55352,50367,66738,11540,2791,Tag0,unknown
1605697258551,0,376,8.261718750000001E-5,56,100,44,873753,258245,134145,55352,50367,66738,11540,2791,Tag0,unknown
1605697258572,0,151,3.31787109375E-5,56,100,44,873753,258245,134145,55352,50367,66738,11540,2791,Tag0,unknown
1605697258583,0,363,7.97607421875E-5,50,75,44,123919,16746814,13913,9738,20755,13135,2121,742,Tag0,unknown
1605697258619,0,377,8.28369140625E-5,50,75,44,123919,16746814,13913,9738,20755,13135,2121,742,Tag0,unknown
1605697258633,0,281,6.17431640625E-5,50,75,44,123919,16746814,13913,9738,20755,13135,2121,742,Tag0,unknown
1605697258686,0,-411,-9.03076171875E-5,50,75,44,123919,16746814,13913,9738,20755,13135,2121,742,Tag0,unknown
1605697258699,0,-795,-1.746826171875E-4,50,75,44,123919,16746814,13913,9738,20755,13135,2121,742,Tag0,unknown
1605697258753,0,-133,-2.92236328125E-5,50,75,44,123919,16746814,13913,9738,20755,13135,2121,742,Tag0,unknown
1605697258766,0,-285,-6.26220703125E-5,50,75,44,123919,16746814,13913,9738,20755,13135,2121,742,Tag0,unknown
1605697258821,0,-121,-2.6586914062500003E-5,50,75,44,123919,16746814,13913,9738,20755,13135,2121,742,Tag0,unknown
1605697258834,0,40,8.7890625E-6,50,75,44,123919,16746814,13913,9738,20755,13135,2121,742,Tag0,unknown
1605697258888,0,-157,-3.44970703125E-5,50,75,44,123919,16746814,13913,9738,20755,13135,2121,742,Tag0,unknown
1605697258900,0,-381,-8.371582031250001E-5,50,75,44,123919,16746814,13913,9738,20755,13135,2121,742,Tag0,unknown
1605697258957,0,-283,-6.218261718750001E-5,50,75,44,123919,16746814,13913,9738,20755,13135,2121,742,Tag0,unknown
1605697258969,0,-349,-7.668457031250001E-5,50,75,44,123919,16746814,13913,9738,20755,13135,2121,742,Tag0,unknown
1605697259023,0,-550,-1.20849609375E-4,50,75,44,123919,16746814,13913,9738,20755,13135,2121,742,Tag0,unknown
1605697259033,0,-209,-4.59228515625E-5,50,75,44,123919,16746814,13913,9738,20755,13135,2121,742,Tag0,unknown
1605697259106,0,-586,-1.28759765625E-4,50,75,44,123919,16746814,13913,9738,20755,13135,2121,742,Tag0,unknown
1605697259128,0,-274,-6.0205078124999997E-5,50,75,44,123919,16746814,13913,9738,20755,13135,2121,742,Tag0,unknown
1605697259138,0,54,1.1865234375000001E-5,50,75,44,123919,16746814,13913,9738,20755,13135,2121,742,Tag0,unknown
1605697259148,0,-146,-3.2080078125000004E-5,50,75,44,123919,16746814,13913,9738,20755,13135,2121,742,Tag0,unknown
1605697259158,0,-365,-8.02001953125E-5,50,75,44,123919,16746814,13913,9738,20755,13135,2121,742,Tag0,unknown
1605697259168,0,-187,-4.10888671875E-5,50,75,44,123919,16746814,13913,9738,20755,13135,2121,742,Tag0,unknown
1605697259178,0,-627,-1.377685546875E-4,50,75,44,123919,16746814,13913,9738,20755,13135,2121,742,Tag0,unknown
1605697259188,0,-471,-1.0349121093750001E-4,50,75,44,123919,16746814,13913,9738,20755,13135,2121,742,Tag0,unknown
1605697259198,0,-310,-6.8115234375E-5,50,75,44,123919,16746814,13913,9738,20755,13135,2121,742,Tag0,unknown
1605697259208,0,-52,-1.142578125E-5,50,75,44,123919,16746814,13913,9738,20755,13135,2121,742,Tag0,unknown
1605697259218,0,312,6.85546875E-5,50,75,44,123919,16746814,13913,9738,20755,13135,2121,742,Tag0,unknown
1605697259241,0,12,2.63671875E-6,50,75,44,123919,16746814,13913,9738,20755,13135,2121,742,Tag0,unknown
1605697259251,0,34,7.4707031250000005E-6,50,75,44,123919,16746814,13913,9738,20755,13135,2121,742,Tag0,unknown
1605697259274,0,-106,-2.3291015625000003E-5,50,75,44,123919,16746814,13913,9738,20755,13135,2121,742,Tag0,unknown
1605697259285,0,279,6.13037109375E-5,50,75,44,123919,16746814,13913,9738,20755,13135,2121,742,Tag0,unknown
1605697259311,0,90,1.9775390625E-5,50,75,44,123919,16746814,13913,9738,20755,13135,2121,742,Tag0,unknown
1605697259324,0,-259,-5.69091796875E-5,50,75,44,123919,16746814,13913,9738,20755,13135,2121,742,Tag0,unknown
1605697259344,0,-169,-3.7133789062499996E-5,50,75,44,123919,16746814,13913,9738,20755,13135,2121,742,Tag0,unknown
1605697259354,0,-461,-1.0129394531250001E-4,50,75,44,123919,16746814,13913,9738,20755,13135,2121,742,Tag0,unknown
1605697259382,0,-28,-6.15234375E-6,50,75,44,123919,16746814,13913,9738,20755,13135,2121,742,Tag0,unknown
1605697259402,0,337,7.40478515625E-5,50,75,44,123919,16746814,13913,9738,20755,13135,2121,742,Tag0,unknown
1605697259421,0,819,1.799560546875E-4,50,75,44,123919,16746814,13913,9738,20755,13135,2121,742,Tag0,unknown
1605697259431,0,567,1.245849609375E-4,50,75,44,123919,16746814,13913,9738,20755,13135,2121,742,Tag0,unknown
1605697259441,0,311,6.833496093750001E-5,50,75,44,123919,16746814,13913,9738,20755,13135,2121,742,Tag0,unknown
1605697259457,0,-155,-3.40576171875E-5,50,75,44,123919,16746814,13913,9738,20755,13135,2121,742,Tag0,unknown
1605697259468,0,-557,-1.223876953125E-4,50,75,44,123919,16746814,13913,9738,20755,13135,2121,742,Tag0,unknown
1605697259493,0,-733,-1.6105957031250002E-4,50,75,44,123919,16746814,13913,9738,20755,13135,2121,742,Tag0,unknown
1605697259503,0,-1097,-2.4104003906250002E-4,50,75,44,123919,16746814,13913,9738,20755,13135,2121,742,Tag0,unknown
1605697259513,0,-1314,-2.88720703125E-4,50,75,44,123919,16746814,13913,9738,20755,13135,2121,742,Tag0,unknown
1605697259530,0,-876,-1.9248046875E-4,48,34,44,566337,153912,5461,22136,31292,15844,5101,489,Tag0,unknown
1605697259546,0,-599,-1.316162109375E-4,48,34,44,566337,153912,5461,22136,31292,15844,5101,489,Tag0,unknown
1605697259567,0,929,2.0412597656250002E-4,48,34,44,566337,153912,5461,22136,31292,15844,5101,489,Tag0,unknown
1605697259585,0,1072,2.3554687500000002E-4,48,34,44,566337,153912,5461,22136,31292,15844,5101,489,Tag0,unknown
1605697259615,0,-22,-4.833984375E-6,48,34,44,566337,153912,5461,22136,31292,15844,5101,489,Tag0,unknown
1605697259625,0,-379,-8.32763671875E-5,48,34,44,566337,153912,5461,22136,31292,15844,5101,489,Tag0,unknown
1605697259645,0,-127,-2.79052734375E-5,48,34,44,566337,153912,5461,22136,31292,15844,5101,489,Tag0,unknown
1605697259655,0,-258,-5.6689453125000004E-5,48,34,44,566337,153912,5461,22136,31292,15844,5101,489,Tag0,unknown
1605697259679,0,-339,-7.448730468750001E-5,48,34,44,566337,153912,5461,22136,31292,15844,5101,489,Tag0,unknown
1605697259689,0,-199,-4.3725585937499995E-5,48,34,44,566337,153912,5461,22136,31292,15844,5101,489,Tag0,unknown
1605697259716,0,-306,-6.723632812500001E-5,48,34,44,566337,153912,5461,22136,31292,15844,5101,489,Tag0,unknown
1605697259735,0,-269,-5.9106445312499996E-5,48,34,44,566337,153912,5461,22136,31292,15844,5101,489,Tag0,unknown
1605697259752,0,360,7.91015625E-5,48,34,44,566337,153912,5461,22136,31292,15844,5101,489,Tag0,unknown
1605697259769,0,825,1.812744140625E-4,48,34,44,566337,153912,5461,22136,31292,15844,5101,489,Tag0,unknown
1605697259779,0,626,1.37548828125E-4,48,34,44,566337,153912,5461,22136,31292,15844,5101,489,Tag0,unknown
1605697259790,0,139,3.0541992187500004E-5,48,34,44,566337,153912,5461,22136,31292,15844,5101,489,Tag0,unknown
1605697259802,0,37,8.1298828125E-6,48,34,90,566337,153912,5461,22136,31292,15844,5101,489,Tag0,unknown
1605697259823,0,-629,-1.382080078125E-4,48,34,90,566337,153912,5461,22136,31292,15844,5101,489,Tag0,unknown
1605697259836,0,-627,-1.377685546875E-4,48,34,90,566337,153912,5461,22136,31292,15844,5101,489,Tag0,unknown
1605697259846,0,-611,-1.3425292968749999E-4,48,34,90,566337,153912,5461,22136,31292,15844,5101,489,Tag0,unknown
1605697259861,0,301,6.613769531250001E-5,48,34,90,566337,153912,5461,22136,31292,15844,5101,489,Tag0,unknown
1605697259871,0,155,3.40576171875E-5,48,34,90,566337,153912,5461,22136,31292,15844,5101,489,Tag0,unknown
1605697259894,0,603,1.3249511718750002E-4,48,34,90,566337,153912,5461,22136,31292,15844,5101,489,Tag0,unknown
1605697259917,0,242,5.3173828125000005E-5,48,34,90,566337,153912,5461,22136,31292,15844,5101,489,Tag0,unknown
1605697259939,0,-154,-3.3837890625E-5,48,34,92,566337,153912,5461,22136,31292,15844,5101,489,Tag0,unknown
1605697259970,0,-621,-1.364501953125E-4,48,34,92,566337,153912,5461,22136,31292,15844,5101,489,Tag0,unknown
1605697259987,0,-391,-8.591308593750001E-5,48,34,92,566337,153912,5461,22136,31292,15844,5101,489,Tag0,unknown
1605697260011,0,-75,-1.64794921875E-5,48,34,92,566337,153912,5461,22136,31292,15844,5101,489,Tag0,unknown
1605697260021,0,301,6.613769531250001E-5,48,34,92,566337,153912,5461,22136,31292,15844,5101,489,Tag0,unknown
1605697260031,0,532,1.1689453125E-4,48,34,92,566337,153912,5461,22136,31292,15844,5101,489,Tag0,unknown
1605697260041,0,174,3.8232421875E-5,48,34,92,566337,153912,5461,22136,31292,15844,5101,489,Tag0,unknown
1605697260054,0,202,4.4384765625000004E-5,48,34,92,566337,153912,5461,22136,31292,15844,5101,489,Tag0,unknown
1605697260064,0,-769,-1.689697265625E-4,48,34,73,566337,153912,5461,22136,31292,15844,5101,489,Tag0,unknown
1605697260081,0,-481,-1.056884765625E-4,48,34,73,566337,153912,5461,22136,31292,15844,5101,489,Tag0,unknown
1605697260091,0,-155,-3.40576171875E-5,48,34,73,566337,153912,5461,22136,31292,15844,5101,489,Tag0,unknown
1605697260115,0,-328,-7.207031249999999E-5,48,34,73,566337,153912,5461,22136,31292,15844,5101,489,Tag0,unknown
1605697260125,0,28,6.15234375E-6,48,34,73,566337,153912,5461,22136,31292,15844,5101,489,Tag0,unknown
1605697260135,0,-178,-3.9111328125E-5,48,34,73,566337,153912,5461,22136,31292,15844,5101,489,Tag0,unknown
1605697260152,0,-295,-6.48193359375E-5,48,34,73,566337,153912,5461,22136,31292,15844,5101,489,Tag0,unknown
1605697260170,0,-332,-7.294921875E-5,48,34,73,566337,153912,5461,22136,31292,15844,5101,489,Tag0,unknown
1605697260188,0,268,5.8886718750000006E-5,48,34,73,566337,153912,5461,22136,31292,15844,5101,489,Tag0,unknown
1605697260204,0,-46,-1.0107421875E-5,48,34,72,566337,153912,5461,22136,31292,15844,5101,489,Tag0,unknown
1605697260227,0,-162,-3.5595703125E-5,48,34,72,566337,153912,5461,22136,31292,15844,5101,489,Tag0,unknown
1605697260237,0,-562,-1.23486328125E-4,48,34,72,566337,153912,5461,22136,31292,15844,5101,489,Tag0,unknown
1605697260261,0,-371,-8.151855468750001E-5,48,34,72,566337,153912,5461,22136,31292,15844,5101,489,Tag0,unknown
1605697260271,0,-129,-2.8344726562500002E-5,48,34,72,566337,153912,5461,22136,31292,15844,5101,489,Tag0,unknown
1605697260299,0,285,6.26220703125E-5,48,34,72,566337,153912,5461,22136,31292,15844,5101,489,Tag0,unknown
1605697260333,0,-375,-8.23974609375E-5,48,34,72,566337,153912,5461,22136,31292,15844,5101,489,Tag0,unknown
1605697260343,0,-79,-1.7358398437500003E-5,48,34,72,566337,153912,5461,22136,31292,15844,5101,489,Tag0,unknown
1605697260355,0,-89,-1.95556640625E-5,48,34,72,566337,153912,5461,22136,31292,15844,5101,489,Tag0,unknown
1605697260379,0,-539,-1.1843261718750001E-4,48,34,72,566337,153912,5461,22136,31292,15844,5101,489,Tag0,unknown
1605697260389,0,-405,-8.89892578125E-5,48,34,72,566337,153912,5461,22136,31292,15844,5101,489,Tag0,unknown
1605697260410,0,-92,-2.021484375E-5,48,34,72,566337,153912,5461,22136,31292,15844,5101,489,Tag0,unknown
1605697260423,0,565,1.241455078125E-4,48,34,72,566337,153912,5461,22136,31292,15844,5101,489,Tag0,unknown
1605697260433,0,883,1.9401855468750002E-4,48,34,72,566337,153912,5461,22136,31292,15844,5101,489,Tag0,unknown
1605697260447,0,87,1.91162109375E-5,48,34,72,566337,153912,5461,22136,31292,15844,5101,489,Tag0,unknown
1605697260457,0,-330,-7.2509765625E-5,48,34,72,566337,153912,5461,22136,31292,15844,5101,489,Tag0,unknown
1605697260480,0,313,6.87744140625E-5,48,34,72,566337,153912,5461,22136,31292,15844,5101,489,Tag0,unknown
1605697260490,0,242,5.3173828125000005E-5,48,34,72,566337,153912,5461,22136,31292,15844,5101,489,Tag0,unknown
1605697260500,0,1267,2.7839355468749997E-4,48,34,72,566337,153912,5461,22136,31292,15844,5101,489,Tag0,unknown
1605697260531,0,738,1.62158203125E-4,23,14,72,1836418,556736,88435,142843,194076,76207,16753520,10413,Tag0,unknown
1605697260541,0,785,1.724853515625E-4,23,14,72,1836418,556736,88435,142843,194076,76207,16753520,10413,Tag0,unknown
1605697260562,0,-1398,-3.07177734375E-4,23,14,72,1836418,556736,88435,142843,194076,76207,16753520,10413,Tag0,unknown
1605697260577,0,-2007,-4.409912109375E-4,23,14,72,1836418,556736,88435,142843,194076,76207,16753520,10413,Tag0,unknown
1605697260594,0,-2048,-4.5E-4,23,14,72,1836418,556736,88435,142843,194076,76207,16753520,10413,Tag0,unknown
1605697260605,0,-2048,-4.5E-4,23,14,72,1836418,556736,88435,142843,194076,76207,16753520,10413,Tag0,unknown
1605697260633,0,-1101,-2.419189453125E-4,23,14,72,1836418,556736,88435,142843,194076,76207,16753520,10413,Tag0,unknown
1605697260643,0,1811,3.9792480468750003E-4,23,14,72,1836418,556736,88435,142843,194076,76207,16753520,10413,Tag0,unknown
1605697260668,0,1667,3.662841796875E-4,23,14,72,1836418,556736,88435,142843,194076,76207,16753520,10413,Tag0,unknown
1605697260678,0,1791,3.935302734375E-4,23,14,72,1836418,556736,88435,142843,194076,76207,16753520,10413,Tag0,unknown
1605697260688,0,1038,2.28076171875E-4,23,14,72,1836418,556736,88435,142843,194076,76207,16753520,10413,Tag0,unknown
1605697260705,0,453,9.95361328125E-5,23,14,72,1836418,556736,88435,142843,194076,76207,16753520,10413,Tag0,unknown
1605697260724,0,535,1.175537109375E-4,23,14,72,1836418,556736,88435,142843,194076,76207,16753520,10413,Tag0,unknown
1605697260741,0,-327,-7.18505859375E-5,23,14,72,1836418,556736,88435,142843,194076,76207,16753520,10413,Tag0,unknown
1605697260757,0,-787,-1.729248046875E-4,23,14,72,1836418,556736,88435,142843,194076,76207,16753520,10413,Tag0,unknown
1605697260779,0,557,1.223876953125E-4,23,14,72,1836418,556736,88435,142843,194076,76207,16753520,10413,Tag0,unknown
1605697260791,0,829,1.821533203125E-4,23,14,72,1836418,556736,88435,142843,194076,76207,16753520,10413,Tag0,unknown
1605697260818,0,1173,2.577392578125E-4,23,14,72,1836418,556736,88435,142843,194076,76207,16753520,10413,Tag0,unknown
1605697260828,0,-1299,-2.854248046875E-4,23,14,72,1836418,556736,88435,142843,194076,76207,16753520,10413,Tag0,unknown
1605697260847,0,-988,-2.1708984375E-4,23,14,72,1836418,556736,88435,142843,194076,76207,16753520,10413,Tag0,unknown
1605697260857,0,-1011,-2.2214355468749998E-4,23,14,72,1836418,556736,88435,142843,194076,76207,16753520,10413,Tag0,unknown
1605697260881,0,-1308,-2.8740234375E-4,23,14,72,1836418,556736,88435,142843,194076,76207,16753520,10413,Tag0,unknown
1605697260891,0,-1014,-2.2280273437500002E-4,23,14,72,1836418,556736,88435,142843,194076,76207,16753520,10413,Tag0,unknown
1605697260922,0,-1266,-2.7817382812500005E-4,23,14,72,1836418,556736,88435,142843,194076,76207,16753520,10413,Tag0,unknown
1605697260940,0,-1158,-2.54443359375E-4,23,14,72,1836418,556736,88435,142843,194076,76207,16753520,10413,Tag0,unknown
1605697260961,0,25,5.4931640625E-6,23,14,72,1836418,556736,88435,142843,194076,76207,16753520,10413,Tag0,unknown
1605697260974,0,1002,2.20166015625E-4,23,14,72,1836418,556736,88435,142843,194076,76207,16753520,10413,Tag0,unknown
1605697260996,0,683,1.500732421875E-4,23,14,72,1836418,556736,88435,142843,194076,76207,16753520,10413,Tag0,unknown
1605697261007,0,701,1.540283203125E-4,23,14,72,1836418,556736,88435,142843,194076,76207,16753520,10413,Tag0,unknown
1605697261030,0,695,1.527099609375E-4,23,14,72,1836418,556736,88435,142843,194076,76207,16753520,10413,Tag0,unknown
1605697261041,0,817,1.7951660156250002E-4,23,14,72,1836418,556736,88435,142843,194076,76207,16753520,10413,Tag0,unknown
1605697261051,0,-721,-1.584228515625E-4,23,14,72,1836418,556736,88435,142843,194076,76207,16753520,10413,Tag0,unknown
1605697261069,0,-1031,-2.265380859375E-4,23,14,72,1836418,556736,88435,142843,194076,76207,16753520,10413,Tag0,unknown
1605697261079,0,-1294,-2.84326171875E-4,23,14,72,1836418,556736,88435,142843,194076,76207,16753520,10413,Tag0,unknown
1605697261105,0,-1402,-3.08056640625E-4,23,14,72,1836418,556736,88435,142843,194076,76207,16753520,10413,Tag0,unknown
1605697261124,0,-1223,-2.687255859375E-4,23,14,72,1836418,556736,88435,142843,194076,76207,16753520,10413,Tag0,unknown
1605697261145,0,-1049,-2.304931640625E-4,23,14,72,1836418,556736,88435,142843,194076,76207,16753520,10413,Tag0,unknown
1605697261158,0,-724,-1.5908203125000002E-4,23,14,72,1836418,556736,88435,142843,194076,76207,16753520,10413,Tag0,unknown
1605697261178,0,-625,-1.373291015625E-4,23,14,72,1836418,556736,88435,142843,194076,76207,16753520,10413,Tag0,unknown
1605697261194,0,-250,-5.4931640625E-5,23,14,72,1836418,556736,88435,142843,194076,76207,16753520,10413,Tag0,unknown
1605697261204,0,1791,3.935302734375E-4,23,14,72,1836418,556736,88435,142843,194076,76207,16753520,10413,Tag0,unknown
1605697261217,0,1791,3.935302734375E-4,23,14,72,1836418,556736,88435,142843,194076,76207,16753520,10413,Tag0,unknown
1605697261227,0,1791,3.935302734375E-4,23,14,72,1836418,556736,88435,142843,194076,76207,16753520,10413,Tag0,unknown
1605697261249,0,1668,3.6650390625E-4,23,14,72,1836418,556736,88435,142843,194076,76207,16753520,10413,Tag0,unknown
1605697261259,0,1840,4.04296875E-4,23,14,72,1836418,556736,88435,142843,194076,76207,16753520,10413,Tag0,unknown
1605697261269,0,1003,2.2038574218750001E-4,23,14,72,1836418,556736,88435,142843,194076,76207,16753520,10413,Tag0,unknown
1605697261288,0,914,2.00830078125E-4,23,14,72,1836418,556736,88435,142843,194076,76207,16753520,10413,Tag0,unknown
1605697261308,0,1088,2.3906250000000002E-4,23,14,72,1836418,556736,88435,142843,194076,76207,16753520,10413,Tag0,unknown
1605697261325,0,436,9.580078125E-5,23,14,72,1836418,556736,88435,142843,194076,76207,16753520,10413,Tag0,unknown
1605697261342,0,-1069,-2.3488769531250002E-4,23,14,72,1836418,556736,88435,142843,194076,76207,16753520,10413,Tag0,unknown
1605697261363,0,-1157,-2.542236328125E-4,23,14,72,1836418,556736,88435,142843,194076,76207,16753520,10413,Tag0,unknown
1605697261395,0,-871,-1.9138183593749998E-4,23,14,72,1836418,556736,88435,142843,194076,76207,16753520,10413,Tag0,unknown
1605697261408,0,-652,-1.4326171875000002E-4,23,14,72,1836418,556736,88435,142843,194076,76207,16753520,10413,Tag0,unknown
1605697261435,0,106,2.3291015625000003E-5,23,14,72,1836418,556736,88435,142843,194076,76207,16753520,10413,Tag0,unknown
1605697261445,0,157,3.44970703125E-5,23,14,72,1836418,556736,88435,142843,194076,76207,16753520,10413,Tag0,unknown
1605697261468,0,152,3.33984375E-5,23,14,72,1836418,556736,88435,142843,194076,76207,16753520,10413,Tag0,unknown
1605697261478,0,307,6.74560546875E-5,23,14,72,1836418,556736,88435,142843,194076,76207,16753520,10413,Tag0,unknown
1605697261507,0,461,1.0129394531250001E-4,23,14,72,1836418,556736,88435,142843,194076,76207,16753520,10413,Tag0,unknown
1605697261526,51,779,1.7116699218750001E-4,23,14,72,293840,104823,23139,16793,25003,6904,1998,1382,Tag0,unknown
1605697261546,51,856,1.880859375E-4,23,14,72,293840,104823,23139,16793,25003,6904,1998,1382,Tag0,unknown
1605697261559,51,657,1.443603515625E-4,23,14,72,293840,104823,23139,16793,25003,6904,1998,1382,Tag0,unknown
1605697261580,51,853,1.874267578125E-4,23,14,72,293840,104823,23139,16793,25003,6904,1998,1382,Tag0,unknown
1605697261593,51,793,1.742431640625E-4,23,14,72,293840,104823,23139,16793,25003,6904,1998,1382,Tag0,unknown
1605697261620,51,210,4.6142578125E-5,23,14,72,293840,104823,23139,16793,25003,6904,1998,1382,Tag0,unknown
1605697261642,51,190,4.1748046875E-5,23,14,72,293840,104823,23139,16793,25003,6904,1998,1382,Tag0,unknown
1605697261660,51,360,7.91015625E-5,23,14,72,293840,104823,23139,16793,25003,6904,1998,1382,Tag0,unknown
1605697261692,51,-183,-4.02099609375E-5,23,14,72,293840,104823,23139,16793,25003,6904,1998,1382,Tag0,unknown
1605697261710,51,-590,-1.29638671875E-4,23,14,72,293840,104823,23139,16793,25003,6904,1998,1382,Tag0,unknown
1605697261729,51,-397,-8.72314453125E-5,23,14,72,293840,104823,23139,16793,25003,6904,1998,1382,Tag0,unknown
1605697261743,51,-29,-6.3720703125E-6,23,14,72,293840,104823,23139,16793,25003,6904,1998,1382,Tag0,unknown
1605697261772,51,-607,-1.3337402343750003E-4,23,14,72,293840,104823,23139,16793,25003,6904,1998,1382,Tag0,unknown
1605697261784,51,-1043,-2.2917480468750002E-4,23,14,72,293840,104823,23139,16793,25003,6904,1998,1382,Tag0,unknown
1605697261794,51,-1089,-2.392822265625E-4,23,14,72,293840,104823,23139,16793,25003,6904,1998,1382,Tag0,unknown
1605697261816,51,-775,-1.702880859375E-4,23,14,72,293840,104823,23139,16793,25003,6904,1998,1382,Tag0,unknown
1605697261826,51,-389,-8.54736328125E-5,23,14,72,293840,104823,23139,16793,25003,6904,1998,1382,Tag0,unknown
1605697261836,51,-469,-1.0305175781250001E-4,23,14,72,293840,104823,23139,16793,25003,6904,1998,1382,Tag0,unknown
1605697261849,51,-489,-1.0744628906250001E-4,23,14,72,293840,104823,23139,16793,25003,6904,1998,1382,Tag0,unknown
1605697261859,51,-578,-1.27001953125E-4,23,14,72,293840,104823,23139,16793,25003,6904,1998,1382,Tag0,unknown
1605697261887,51,487,1.070068359375E-4,23,14,72,293840,104823,23139,16793,25003,6904,1998,1382,Tag0,unknown
1605697261897,51,537,1.179931640625E-4,23,14,72,293840,104823,23139,16793,25003,6904,1998,1382,Tag0,unknown
1605697261921,51,150,3.2958984375E-5,23,14,72,293840,104823,23139,16793,25003,6904,1998,1382,Tag0,unknown
1605697261943,51,293,6.43798828125E-5,23,14,72,293840,104823,23139,16793,25003,6904,1998,1382,Tag0,unknown
1605697261974,51,-148,-3.251953125E-5,23,14,72,293840,104823,23139,16793,25003,6904,1998,1382,Tag0,unknown
1605697261997,51,59,1.29638671875E-5,23,14,72,293840,104823,23139,16793,25003,6904,1998,1382,Tag0,unknown
1605697262010,51,-117,-2.5708007812499998E-5,23,14,72,293840,104823,23139,16793,25003,6904,1998,1382,Tag0,unknown
1605697262036,51,359,7.88818359375E-5,23,14,72,293840,104823,23139,16793,25003,6904,1998,1382,Tag0,unknown
1605697262046,51,259,5.69091796875E-5,23,14,72,293840,104823,23139,16793,25003,6904,1998,1382,Tag0,unknown
1605697262061,51,11,2.4169921875E-6,23,14,72,293840,104823,23139,16793,25003,6904,1998,1382,Tag0,unknown
1605697262083,51,-171,-3.75732421875E-5,23,14,72,293840,104823,23139,16793,25003,6904,1998,1382,Tag0,unknown
1605697262094,51,-339,-7.448730468750001E-5,23,14,72,293840,104823,23139,16793,25003,6904,1998,1382,Tag0,unknown
1605697262127,51,22,4.833984375E-6,23,14,72,293840,104823,23139,16793,25003,6904,1998,1382,Tag0,unknown
1605697262144,51,-111,-2.43896484375E-5,23,14,72,293840,104823,23139,16793,25003,6904,1998,1382,Tag0,unknown
1605697262154,51,267,5.86669921875E-5,23,14,72,293840,104823,23139,16793,25003,6904,1998,1382,Tag0,unknown
1605697262164,51,-75,-1.64794921875E-5,23,14,72,293840,104823,23139,16793,25003,6904,1998,1382,Tag0,unknown
1605697262178,51,122,2.6806640625E-5,23,14,72,293840,104823,23139,16793,25003,6904,1998,1382,Tag0,unknown
1605697262188,51,-53,-1.1645507812500002E-5,23,14,72,293840,104823,23139,16793,25003,6904,1998,1382,Tag0,unknown
1605697262203,51,267,5.86669921875E-5,23,14,72,293840,104823,23139,16793,25003,6904,1998,1382,Tag0,unknown
1605697262213,51,-14,-3.076171875E-6,23,14,72,293840,104823,23139,16793,25003,6904,1998,1382,Tag0,unknown
1605697262237,51,-23,-5.0537109375E-6,23,14,72,293840,104823,23139,16793,25003,6904,1998,1382,Tag0,unknown
1605697262247,51,-50,-1.0986328125E-5,23,14,72,293840,104823,23139,16793,25003,6904,1998,1382,Tag0,unknown
1605697262280,51,23,5.0537109375E-6,23,14,72,293840,104823,23139,16793,25003,6904,1998,1382,Tag0,unknown
1605697262295,51,-318,-6.9873046875E-5,23,14,72,293840,104823,23139,16793,25003,6904,1998,1382,Tag0,unknown
1605697262317,51,-410,-9.0087890625E-5,23,14,72,293840,104823,23139,16793,25003,6904,1998,1382,Tag0,unknown
1605697262329,51,-259,-5.69091796875E-5,23,14,72,293840,104823,23139,16793,25003,6904,1998,1382,Tag0,unknown
1605697262350,51,151,3.31787109375E-5,23,14,72,293840,104823,23139,16793,25003,6904,1998,1382,Tag0,unknown
1605697262361,51,167,3.6694335937500004E-5,23,14,72,293840,104823,23139,16793,25003,6904,1998,1382,Tag0,unknown
1605697262383,51,-104,-2.28515625E-5,23,14,72,293840,104823,23139,16793,25003,6904,1998,1382,Tag0,unknown
1605697262395,51,82,1.8017578124999998E-5,23,14,72,293840,104823,23139,16793,25003,6904,1998,1382,Tag0,unknown
1605697262427,51,-52,-1.142578125E-5,23,14,72,293840,104823,23139,16793,25003,6904,1998,1382,Tag0,unknown
1605697262445,51,345,7.58056640625E-5,23,14,72,293840,104823,23139,16793,25003,6904,1998,1382,Tag0,unknown
1605697262462,51,342,7.5146484375E-5,23,14,72,293840,104823,23139,16793,25003,6904,1998,1382,Tag0,unknown
1605697262479,51,87,1.91162109375E-5,23,14,72,293840,104823,23139,16793,25003,6904,1998,1382,Tag0,unknown
1605697262502,51,-555,-1.219482421875E-4,23,14,72,293840,104823,23139,16793,25003,6904,1998,1382,Tag0,unknown
1605697262529,0,-390,-8.5693359375E-5,27,10,72,346274,11831,3252,4337,10980,3099,515,318,Tag0,unknown
1605697262553,0,330,7.2509765625E-5,27,10,72,346274,11831,3252,4337,10980,3099,515,318,Tag0,unknown
1605697262563,0,149,3.27392578125E-5,27,10,72,346274,11831,3252,4337,10980,3099,515,318,Tag0,unknown
1605697262584,0,-71,-1.56005859375E-5,27,10,72,346274,11831,3252,4337,10980,3099,515,318,Tag0,unknown
1605697262596,0,62,1.3623046875E-5,27,10,72,346274,11831,3252,4337,10980,3099,515,318,Tag0,unknown
1605697262618,0,-668,-1.4677734375000002E-4,27,10,72,346274,11831,3252,4337,10980,3099,515,318,Tag0,unknown
1605697262629,0,-675,-1.483154296875E-4,27,10,72,346274,11831,3252,4337,10980,3099,515,318,Tag0,unknown
1605697262639,0,-241,-5.29541015625E-5,27,10,72,346274,11831,3252,4337,10980,3099,515,318,Tag0,unknown
1605697262658,0,-179,-3.93310546875E-5,27,10,72,346274,11831,3252,4337,10980,3099,515,318,Tag0,unknown
1605697262668,0,768,1.6875E-4,27,10,72,346274,11831,3252,4337,10980,3099,515,318,Tag0,unknown
1605697262692,0,477,1.048095703125E-4,27,10,72,346274,11831,3252,4337,10980,3099,515,318,Tag0,unknown
1605697262704,0,514,1.12939453125E-4,27,10,72,346274,11831,3252,4337,10980,3099,515,318,Tag0,unknown
1605697262714,0,261,5.73486328125E-5,27,10,72,346274,11831,3252,4337,10980,3099,515,318,Tag0,unknown
1605697262729,0,-94,-2.0654296875000002E-5,27,10,72,346274,11831,3252,4337,10980,3099,515,318,Tag0,unknown
1605697262746,0,106,2.3291015625000003E-5,27,10,72,346274,11831,3252,4337,10980,3099,515,318,Tag0,unknown
1605697262763,0,-697,-1.5314941406250002E-4,27,10,72,346274,11831,3252,4337,10980,3099,515,318,Tag0,unknown
1605697262786,0,-1118,-2.45654296875E-4,27,10,72,346274,11831,3252,4337,10980,3099,515,318,Tag0,unknown
1605697262796,0,-771,-1.694091796875E-4,27,10,72,346274,11831,3252,4337,10980,3099,515,318,Tag0,unknown
1605697262812,0,379,8.32763671875E-5,27,10,72,346274,11831,3252,4337,10980,3099,515,318,Tag0,unknown
1605697262838,0,625,1.373291015625E-4,27,10,72,346274,11831,3252,4337,10980,3099,515,318,Tag0,unknown
1605697262861,0,226,4.9658203125E-5,27,10,72,346274,11831,3252,4337,10980,3099,515,318,Tag0,unknown
1605697262880,0,-465,-1.021728515625E-4,27,10,72,346274,11831,3252,4337,10980,3099,515,318,Tag0,unknown
1605697262910,0,-819,-1.799560546875E-4,27,10,72,346274,11831,3252,4337,10980,3099,515,318,Tag0,unknown
1605697262920,0,-625,-1.373291015625E-4,27,10,72,346274,11831,3252,4337,10980,3099,515,318,Tag0,unknown
1605697262940,0,-536,-1.1777343750000001E-4,27,10,72,346274,11831,3252,4337,10980,3099,515,318,Tag0,unknown
1605697262950,0,-167,-3.6694335937500004E-5,27,10,72,346274,11831,3252,4337,10980,3099,515,318,Tag0,unknown
1605697262960,0,-373,-8.19580078125E-5,27,10,72,346274,11831,3252,4337,10980,3099,515,318,Tag0,unknown
1605697262984,0,37,8.1298828125E-6,27,10,72,346274,11831,3252,4337,10980,3099,515,318,Tag0,unknown
1605697262997,0,-79,-1.7358398437500003E-5,27,10,72,346274,11831,3252,4337,10980,3099,515,318,Tag0,unknown
1605697263021,0,-299,-6.56982421875E-5,27,10,72,346274,11831,3252,4337,10980,3099,515,318,Tag0,unknown
1605697263031,0,-277,-6.0864257812500005E-5,27,10,72,346274,11831,3252,4337,10980,3099,515,318,Tag0,unknown
1605697263054,0,-628,-1.3798828125E-4,27,10,72,346274,11831,3252,4337,10980,3099,515,318,Tag0,unknown
1605697263072,0,-508,-1.1162109375E-4,27,10,72,346274,11831,3252,4337,10980,3099,515,318,Tag0,unknown
1605697263082,0,-666,-1.4633789062499998E-4,27,10,72,346274,11831,3252,4337,10980,3099,515,318,Tag0,unknown
1605697263094,0,65,1.42822265625E-5,27,10,72,346274,11831,3252,4337,10980,3099,515,318,Tag0,unknown
1605697263116,0,-109,-2.39501953125E-5,27,10,72,346274,11831,3252,4337,10980,3099,515,318,Tag0,unknown
1605697263133,0,437,9.602050781250001E-5,27,10,72,346274,11831,3252,4337,10980,3099,515,318,Tag0,unknown
1605697263148,0,374,8.2177734375E-5,27,10,72,346274,11831,3252,4337,10980,3099,515,318,Tag0,unknown
1605697263173,0,-580,-1.2744140625E-4,27,10,72,346274,11831,3252,4337,10980,3099,515,318,Tag0,unknown
1605697263183,0,-809,-1.777587890625E-4,27,10,72,346274,11831,3252,4337,10980,3099,515,318,Tag0,unknown
1605697263198,0,-856,-1.880859375E-4,27,10,72,346274,11831,3252,4337,10980,3099,515,318,Tag0,unknown
1605697263214,0,362,7.954101562500001E-5,27,10,72,346274,11831,3252,4337,10980,3099,515,318,Tag0,unknown
1605697263241,0,842,1.85009765625E-4,27,10,72,346274,11831,3252,4337,10980,3099,515,318,Tag0,unknown
1605697263251,0,555,1.219482421875E-4,27,10,72,346274,11831,3252,4337,10980,3099,515,318,Tag0,unknown
1605697263277,0,309,6.78955078125E-5,27,10,72,346274,11831,3252,4337,10980,3099,515,318,Tag0,unknown
1605697263287,0,-541,-1.1887207031250001E-4,27,10,72,346274,11831,3252,4337,10980,3099,515,318,Tag0,unknown
1605697263314,0,-600,-1.318359375E-4,27,10,72,346274,11831,3252,4337,10980,3099,515,318,Tag0,unknown
1605697263332,0,-568,-1.248046875E-4,27,10,72,346274,11831,3252,4337,10980,3099,515,318,Tag0,unknown
1605697263349,0,-31,-6.8115234375E-6,27,10,72,346274,11831,3252,4337,10980,3099,515,318,Tag0,unknown
1605697263365,0,249,5.47119140625E-5,27,10,72,346274,11831,3252,4337,10980,3099,515,318,Tag0,unknown
1605697263375,0,405,8.89892578125E-5,27,10,72,346274,11831,3252,4337,10980,3099,515,318,Tag0,unknown
1605697263407,0,380,8.349609375E-5,27,10,72,346274,11831,3252,4337,10980,3099,515,318,Tag0,unknown
1605697263417,0,-259,-5.69091796875E-5,27,10,72,346274,11831,3252,4337,10980,3099,515,318,Tag0,unknown
1605697263445,0,-327,-7.18505859375E-5,27,10,72,346274,11831,3252,4337,10980,3099,515,318,Tag0,unknown
1605697263465,0,-284,-6.240234375E-5,27,10,72,346274,11831,3252,4337,10980,3099,515,318,Tag0,unknown
1605697263523,0,157,3.44970703125E-5,27,10,72,346274,11831,3252,4337,10980,3099,515,318,Tag0,unknown
1605697263533,0,-40,-8.7890625E-6,27,10,72,346274,11831,3252,4337,10980,3099,515,318,Tag0,unknown
1605697263606,0,-537,-1.179931640625E-4,16,17,72,803226,496783,210685,34319,142130,90263,7710,8344,Tag0,unknown
1605697263659,0,-951,-2.089599609375E-4,16,17,72,803226,496783,210685,34319,142130,90263,7710,8344,Tag0,unknown
1605697263669,0,-1098,-2.4125976562500002E-4,16,17,72,803226,496783,210685,34319,142130,90263,7710,8344,Tag0,unknown
1605697263726,0,-626,-1.37548828125E-4,16,17,72,803226,496783,210685,34319,142130,90263,7710,8344,Tag0,unknown
1605697263736,0,-330,-7.2509765625E-5,16,17,72,803226,496783,210685,34319,142130,90263,7710,8344,Tag0,unknown
1605697263866,0,363,7.97607421875E-5,16,17,72,803226,496783,210685,34319,142130,90263,7710,8344,Tag0,unknown
1605697263888,0,219,4.81201171875E-5,16,17,72,803226,496783,210685,34319,142130,90263,7710,8344,Tag0,unknown
1605697263898,0,372,8.173828125E-5,16,17,72,803226,496783,210685,34319,142130,90263,7710,8344,Tag0,unknown
1605697263908,0,-165,-3.62548828125E-5,16,17,72,803226,496783,210685,34319,142130,90263,7710,8344,Tag0,unknown
1605697263937,0,-516,-1.1337890625000001E-4,16,17,72,803226,496783,210685,34319,142130,90263,7710,8344,Tag0,unknown
1605697263951,0,-385,-8.45947265625E-5,16,17,72,803226,496783,210685,34319,142130,90263,7710,8344,Tag0,unknown
1605697263998,0,-195,-4.28466796875E-5,16,17,72,803226,496783,210685,34319,142130,90263,7710,8344,Tag0,unknown
1605697264017,0,-209,-4.59228515625E-5,16,17,72,803226,496783,210685,34319,142130,90263,7710,8344,Tag0,unknown
1605697264066,0,-235,-5.16357421875E-5,16,17,72,803226,496783,210685,34319,142130,90263,7710,8344,Tag0,unknown
1605697264084,0,-420,-9.228515625E-5,16,17,72,803226,496783,210685,34319,142130,90263,7710,8344,Tag0,unknown
1605697264107,0,-553,-1.215087890625E-4,16,17,72,803226,496783,210685,34319,142130,90263,7710,8344,Tag0,unknown
1605697264117,0,-68,-1.4941406250000001E-5,16,17,72,803226,496783,210685,34319,142130,90263,7710,8344,Tag0,unknown
1605697264127,0,739,1.623779296875E-4,16,17,72,803226,496783,210685,34319,142130,90263,7710,8344,Tag0,unknown
1605697264137,0,-218,-4.7900390625E-5,16,17,72,803226,496783,210685,34319,142130,90263,7710,8344,Tag0,unknown
1605697264151,0,-1059,-2.3269042968750001E-4,16,17,72,803226,496783,210685,34319,142130,90263,7710,8344,Tag0,unknown
1605697264177,0,-1142,-2.50927734375E-4,16,17,72,803226,496783,210685,34319,142130,90263,7710,8344,Tag0,unknown
1605697264187,0,337,7.40478515625E-5,16,17,72,803226,496783,210685,34319,142130,90263,7710,8344,Tag0,unknown
1605697264213,0,1157,2.542236328125E-4,16,17,72,803226,496783,210685,34319,142130,90263,7710,8344,Tag0,unknown
1605697264223,0,1245,2.735595703125E-4,16,17,72,803226,496783,210685,34319,142130,90263,7710,8344,Tag0,unknown
1605697264234,0,455,9.99755859375E-5,16,17,72,803226,496783,210685,34319,142130,90263,7710,8344,Tag0,unknown
1605697264260,0,-930,-2.04345703125E-4,16,17,72,803226,496783,210685,34319,142130,90263,7710,8344,Tag0,unknown
1605697264270,0,-977,-2.1467285156250002E-4,16,17,72,803226,496783,210685,34319,142130,90263,7710,8344,Tag0,unknown
1605697264297,0,-1077,-2.366455078125E-4,16,17,72,803226,496783,210685,34319,142130,90263,7710,8344,Tag0,unknown
1605697264309,0,-495,-1.087646484375E-4,16,17,72,803226,496783,210685,34319,142130,90263,7710,8344,Tag0,unknown
1605697264319,0,229,5.03173828125E-5,16,17,72,803226,496783,210685,34319,142130,90263,7710,8344,Tag0,unknown
1605697264341,0,773,1.6984863281250002E-4,16,17,72,803226,496783,210685,34319,142130,90263,7710,8344,Tag0,unknown
1605697264353,0,476,1.0458984375000001E-4,16,17,72,803226,496783,210685,34319,142130,90263,7710,8344,Tag0,unknown
1605697264382,0,-793,-1.742431640625E-4,16,17,72,803226,496783,210685,34319,142130,90263,7710,8344,Tag0,unknown
1605697264401,0,-859,-1.887451171875E-4,16,17,72,803226,496783,210685,34319,142130,90263,7710,8344,Tag0,unknown
1605697264419,0,-705,-1.549072265625E-4,16,17,72,803226,496783,210685,34319,142130,90263,7710,8344,Tag0,unknown
1605697264436,0,-161,-3.53759765625E-5,16,17,72,803226,496783,210685,34319,142130,90263,7710,8344,Tag0,unknown
1605697264456,0,67,1.4721679687500002E-5,16,17,106,803226,496783,210685,34319,142130,90263,7710,8344,Tag0,unknown
1605697264489,0,144,3.1640625E-5,16,17,106,803226,496783,210685,34319,142130,90263,7710,8344,Tag0,unknown
1605697264502,0,307,6.74560546875E-5,16,17,106,803226,496783,210685,34319,142130,90263,7710,8344,Tag0,unknown
1605697264523,0,314,6.8994140625E-5,37,27,106,362345,38185,18575,16858,9720,16756297,3795,178,Tag0,unknown
1605697264544,0,289,6.35009765625E-5,37,27,106,362345,38185,18575,16858,9720,16756297,3795,178,Tag0,unknown
1605697264554,0,-130,-2.8564453125E-5,37,27,106,362345,38185,18575,16858,9720,16756297,3795,178,Tag0,unknown
1605697264570,0,-578,-1.27001953125E-4,37,27,106,362345,38185,18575,16858,9720,16756297,3795,178,Tag0,unknown
1605697264592,0,-459,-1.008544921875E-4,37,27,106,362345,38185,18575,16858,9720,16756297,3795,178,Tag0,unknown
1605697264604,0,-428,-9.404296875E-5,37,27,106,362345,38185,18575,16858,9720,16756297,3795,178,Tag0,unknown
1605697264626,0,99,2.1752929687500003E-5,37,27,62,362345,38185,18575,16858,9720,16756297,3795,178,Tag0,unknown
1605697264637,0,369,8.10791015625E-5,37,27,62,362345,38185,18575,16858,9720,16756297,3795,178,Tag0,unknown
1605697264647,0,133,2.92236328125E-5,37,27,62,362345,38185,18575,16858,9720,16756297,3795,178,Tag0,unknown
1605697264687,0,28,6.15234375E-6,37,27,62,362345,38185,18575,16858,9720,16756297,3795,178,Tag0,unknown
1605697264703,0,-308,-6.767578125E-5,37,27,62,362345,38185,18575,16858,9720,16756297,3795,178,Tag0,unknown
1605697264713,0,-881,-1.9357910156249998E-4,37,27,62,362345,38185,18575,16858,9720,16756297,3795,178,Tag0,unknown
1605697264725,0,-786,-1.72705078125E-4,37,27,62,362345,38185,18575,16858,9720,16756297,3795,178,Tag0,unknown
1605697264736,0,-796,-1.7490234374999998E-4,37,27,62,362345,38185,18575,16858,9720,16756297,3795,178,Tag0,unknown
1605697264746,0,330,7.2509765625E-5,37,27,91,362345,38185,18575,16858,9720,16756297,3795,178,Tag0,unknown
1605697264762,0,737,1.6193847656250003E-4,37,27,91,362345,38185,18575,16858,9720,16756297,3795,178,Tag0,unknown
1605697264772,0,1353,2.972900390625E-4,37,27,91,362345,38185,18575,16858,9720,16756297,3795,178,Tag0,unknown
1605697264801,0,1159,2.5466308593750003E-4,37,27,91,362345,38185,18575,16858,9720,16756297,3795,178,Tag0,unknown
1605697264819,0,1396,3.0673828125000004E-4,37,27,91,362345,38185,18575,16858,9720,16756297,3795,178,Tag0,unknown
1605697264838,0,-1188,-2.6103515625000004E-4,37,27,91,362345,38185,18575,16858,9720,16756297,3795,178,Tag0,unknown
1605697264854,0,-1384,-3.041015625E-4,37,27,91,362345,38185,18575,16858,9720,16756297,3795,178,Tag0,unknown
1605697264874,0,-874,-1.9204101562500002E-4,37,27,91,362345,38185,18575,16858,9720,16756297,3795,178,Tag0,unknown
1605697264888,0,455,9.99755859375E-5,37,27,91,362345,38185,18575,16858,9720,16756297,3795,178,Tag0,unknown
1605697264898,0,886,1.94677734375E-4,37,27,91,362345,38185,18575,16858,9720,16756297,3795,178,Tag0,unknown
1605697264908,0,469,1.0305175781250001E-4,37,27,91,362345,38185,18575,16858,9720,16756297,3795,178,Tag0,unknown
1605697264920,0,459,1.008544921875E-4,37,27,91,362345,38185,18575,16858,9720,16756297,3795,178,Tag0,unknown
1605697264943,0,360,7.91015625E-5,37,27,91,362345,38185,18575,16858,9720,16756297,3795,178,Tag0,unknown
1605697264953,0,-369,-8.10791015625E-5,37,27,91,362345,38185,18575,16858,9720,16756297,3795,178,Tag0,unknown
1605697264963,0,-753,-1.6545410156250002E-4,37,27,91,362345,38185,18575,16858,9720,16756297,3795,178,Tag0,unknown
1605697264981,0,-1137,-2.498291015625E-4,37,27,91,362345,38185,18575,16858,9720,16756297,3795,178,Tag0,unknown
1605697265015,0,-13,-2.8564453125E-6,37,27,91,362345,38185,18575,16858,9720,16756297,3795,178,Tag0,unknown
1605697265025,0,1093,2.401611328125E-4,37,27,91,362345,38185,18575,16858,9720,16756297,3795,178,Tag0,unknown
1605697265053,0,1069,2.3488769531250002E-4,37,27,91,362345,38185,18575,16858,9720,16756297,3795,178,Tag0,unknown
1605697265070,0,877,1.9270019531250003E-4,37,27,91,362345,38185,18575,16858,9720,16756297,3795,178,Tag0,unknown
1605697265090,0,221,4.85595703125E-5,37,27,91,362345,38185,18575,16858,9720,16756297,3795,178,Tag0,unknown
1605697265106,0,-408,-8.964843749999999E-5,37,27,91,362345,38185,18575,16858,9720,16756297,3795,178,Tag0,unknown
1605697265132,0,-1191,-2.616943359375E-4,37,27,91,362345,38185,18575,16858,9720,16756297,3795,178,Tag0,unknown
1605697265142,0,-996,-2.1884765625E-4,37,27,91,362345,38185,18575,16858,9720,16756297,3795,178,Tag0,unknown
1605697265166,0,-596,-1.3095703125E-4,37,27,91,362345,38185,18575,16858,9720,16756297,3795,178,Tag0,unknown
1605697265187,0,-186,-4.0869140625E-5,37,27,91,362345,38185,18575,16858,9720,16756297,3795,178,Tag0,unknown
1605697265205,0,737,1.6193847656250003E-4,37,27,91,362345,38185,18575,16858,9720,16756297,3795,178,Tag0,unknown
1605697265237,0,630,1.38427734375E-4,37,27,91,362345,38185,18575,16858,9720,16756297,3795,178,Tag0,unknown
1605697265255,0,-393,-8.63525390625E-5,37,27,91,362345,38185,18575,16858,9720,16756297,3795,178,Tag0,unknown
1605697265277,0,-1131,-2.485107421875E-4,37,27,91,362345,38185,18575,16858,9720,16756297,3795,178,Tag0,unknown
1605697265289,0,-905,-1.988525390625E-4,37,27,91,362345,38185,18575,16858,9720,16756297,3795,178,Tag0,unknown
1605697265310,0,-209,-4.59228515625E-5,37,27,91,362345,38185,18575,16858,9720,16756297,3795,178,Tag0,unknown
1605697265322,0,-359,-7.88818359375E-5,37,27,91,362345,38185,18575,16858,9720,16756297,3795,178,Tag0,unknown
1605697265346,0,352,7.734375E-5,37,27,91,362345,38185,18575,16858,9720,16756297,3795,178,Tag0,unknown
1605697265356,0,-94,-2.0654296875000002E-5,37,27,91,362345,38185,18575,16858,9720,16756297,3795,178,Tag0,unknown
1605697265382,0,85,1.86767578125E-5,37,27,91,362345,38185,18575,16858,9720,16756297,3795,178,Tag0,unknown
1605697265395,0,323,7.09716796875E-5,37,27,91,362345,38185,18575,16858,9720,16756297,3795,178,Tag0,unknown
1605697265420,0,-531,-1.1667480468750001E-4,37,27,91,362345,38185,18575,16858,9720,16756297,3795,178,Tag0,unknown
1605697265439,0,-517,-1.135986328125E-4,37,27,91,362345,38185,18575,16858,9720,16756297,3795,178,Tag0,unknown
1605697265455,0,-567,-1.245849609375E-4,37,27,91,362345,38185,18575,16858,9720,16756297,3795,178,Tag0,unknown
1605697265472,0,-444,-9.755859375E-5,37,27,91,362345,38185,18575,16858,9720,16756297,3795,178,Tag0,unknown
1605697265495,0,-583,-1.281005859375E-4,37,27,91,362345,38185,18575,16858,9720,16756297,3795,178,Tag0,unknown
1605697265522,0,-132,-2.900390625E-5,44,26,91,16774821,103454,31156,21933,19269,16746259,2423,397,Tag0,unknown
1605697265546,0,427,9.382324218750001E-5,44,26,91,16774821,103454,31156,21933,19269,16746259,2423,397,Tag0,unknown
1605697265566,0,245,5.38330078125E-5,44,26,91,16774821,103454,31156,21933,19269,16746259,2423,397,Tag0,unknown
1605697265580,0,-77,-1.69189453125E-5,44,26,91,16774821,103454,31156,21933,19269,16746259,2423,397,Tag0,unknown
1605697265590,0,81,1.77978515625E-5,44,26,87,16774821,103454,31156,21933,19269,16746259,2423,397,Tag0,unknown
1605697265607,0,-111,-2.43896484375E-5,44,26,87,16774821,103454,31156,21933,19269,16746259,2423,397,Tag0,unknown
1605697265622,0,119,2.6147460937500004E-5,44,26,87,16774821,103454,31156,21933,19269,16746259,2423,397,Tag0,unknown
1605697265645,0,221,4.85595703125E-5,44,26,87,16774821,103454,31156,21933,19269,16746259,2423,397,Tag0,unknown
1605697265656,0,867,1.9050292968750003E-4,44,26,87,16774821,103454,31156,21933,19269,16746259,2423,397,Tag0,unknown
1605697265679,0,281,6.17431640625E-5,44,26,87,16774821,103454,31156,21933,19269,16746259,2423,397,Tag0,unknown
1605697265690,0,-9,-1.9775390625E-6,44,26,87,16774821,103454,31156,21933,19269,16746259,2423,397,Tag0,unknown
1605697265713,0,337,7.40478515625E-5,44,26,87,16774821,103454,31156,21933,19269,16746259,2423,397,Tag0,unknown
1605697265724,0,177,3.8891601562500006E-5,44,26,87,16774821,103454,31156,21933,19269,16746259,2423,397,Tag0,unknown
1605697265751,0,-264,-5.80078125E-5,44,26,87,16774821,103454,31156,21933,19269,16746259,2423,397,Tag0,unknown
1605697265761,0,-106,-2.3291015625000003E-5,44,26,87,16774821,103454,31156,21933,19269,16746259,2423,397,Tag0,unknown
1605697265786,0,-88,-1.93359375E-5,44,26,87,16774821,103454,31156,21933,19269,16746259,2423,397,Tag0,unknown
1605697265796,0,-339,-7.448730468750001E-5,44,26,87,16774821,103454,31156,21933,19269,16746259,2423,397,Tag0,unknown
1605697265806,0,-133,-2.92236328125E-5,44,26,87,16774821,103454,31156,21933,19269,16746259,2423,397,Tag0,unknown
1605697265823,0,4,8.7890625E-7,44,26,87,16774821,103454,31156,21933,19269,16746259,2423,397,Tag0,unknown
1605697265839,0,37,8.1298828125E-6,44,26,87,16774821,103454,31156,21933,19269,16746259,2423,397,Tag0,unknown
1605697265858,0,-109,-2.39501953125E-5,44,26,87,16774821,103454,31156,21933,19269,16746259,2423,397,Tag0,unknown
1605697265875,0,33,7.2509765625E-6,44,26,87,16774821,103454,31156,21933,19269,16746259,2423,397,Tag0,unknown
1605697265885,0,-661,-1.452392578125E-4,44,26,87,16774821,103454,31156,21933,19269,16746259,2423,397,Tag0,unknown
1605697265898,0,-845,-1.856689453125E-4,44,26,87,16774821,103454,31156,21933,19269,16746259,2423,397,Tag0,unknown
1605697265909,0,-836,-1.8369140625E-4,44,26,87,16774821,103454,31156,21933,19269,16746259,2423,397,Tag0,unknown
1605697265931,0,-43,-9.448242187500001E-6,44,26,87,16774821,103454,31156,21933,19269,16746259,2423,397,Tag0,unknown
1605697265942,0,344,7.558593750000001E-5,44,26,87,16774821,103454,31156,21933,19269,16746259,2423,397,Tag0,unknown
1605697265952,0,417,9.16259765625E-5,44,26,87,16774821,103454,31156,21933,19269,16746259,2423,397,Tag0,unknown
1605697265968,0,379,8.32763671875E-5,44,26,87,16774821,103454,31156,21933,19269,16746259,2423,397,Tag0,unknown
1605697265978,0,80,1.7578125E-5,44,26,104,16774821,103454,31156,21933,19269,16746259,2423,397,Tag0,unknown
1605697266002,0,21,4.614257812500001E-6,44,26,104,16774821,103454,31156,21933,19269,16746259,2423,397,Tag0,unknown
1605697266012,0,-171,-3.75732421875E-5,44,26,104,16774821,103454,31156,21933,19269,16746259,2423,397,Tag0,unknown
1605697266024,0,-168,-3.691406250000001E-5,44,26,104,16774821,103454,31156,21933,19269,16746259,2423,397,Tag0,unknown
1605697266044,0,-585,-1.285400390625E-4,44,26,104,16774821,103454,31156,21933,19269,16746259,2423,397,Tag0,unknown
1605697266059,0,-226,-4.9658203125E-5,44,26,104,16774821,103454,31156,21933,19269,16746259,2423,397,Tag0,unknown
1605697266075,0,-297,-6.525878906250001E-5,44,26,104,16774821,103454,31156,21933,19269,16746259,2423,397,Tag0,unknown
1605697266097,0,409,8.986816406250001E-5,44,26,104,16774821,103454,31156,21933,19269,16746259,2423,397,Tag0,unknown
1605697266108,0,464,1.01953125E-4,44,26,104,16774821,103454,31156,21933,19269,16746259,2423,397,Tag0,unknown
1605697266130,0,387,8.50341796875E-5,44,26,104,16774821,103454,31156,21933,19269,16746259,2423,397,Tag0,unknown
1605697266141,0,184,4.04296875E-5,44,26,104,16774821,103454,31156,21933,19269,16746259,2423,397,Tag0,unknown
1605697266151,0,-193,-4.2407226562500005E-5,44,26,90,16774821,103454,31156,21933,19269,16746259,2423,397,Tag0,unknown
1605697266168,0,-44,-9.66796875E-6,44,26,90,16774821,103454,31156,21933,19269,16746259,2423,397,Tag0,unknown
1605697266178,0,370,8.1298828125E-5,44,26,90,16774821,103454,31156,21933,19269,16746259,2423,397,Tag0,unknown
1605697266203,0,-44,-9.66796875E-6,44,26,90,16774821,103454,31156,21933,19269,16746259,2423,397,Tag0,unknown
1605697266213,0,85,1.86767578125E-5,44,26,90,16774821,103454,31156,21933,19269,16746259,2423,397,Tag0,unknown
1605697266239,0,252,5.537109375E-5,44,26,90,16774821,103454,31156,21933,19269,16746259,2423,397,Tag0,unknown
1605697266259,0,579,1.272216796875E-4,44,26,90,16774821,103454,31156,21933,19269,16746259,2423,397,Tag0,unknown
1605697266276,0,860,1.8896484375E-4,44,26,90,16774821,103454,31156,21933,19269,16746259,2423,397,Tag0,unknown
1605697266286,0,-69,-1.51611328125E-5,44,26,90,16774821,103454,31156,21933,19269,16746259,2423,397,Tag0,unknown
1605697266296,0,-228,-5.0097656250000005E-5,44,26,90,16774821,103454,31156,21933,19269,16746259,2423,397,Tag0,unknown
1605697266314,0,-517,-1.135986328125E-4,44,26,90,16774821,103454,31156,21933,19269,16746259,2423,397,Tag0,unknown
1605697266345,0,-770,-1.69189453125E-4,44,26,90,16774821,103454,31156,21933,19269,16746259,2423,397,Tag0,unknown
1605697266358,0,-803,-1.764404296875E-4,44,26,90,16774821,103454,31156,21933,19269,16746259,2423,397,Tag0,unknown
1605697266368,0,210,4.6142578125E-5,44,26,90,16774821,103454,31156,21933,19269,16746259,2423,397,Tag0,unknown
1605697266388,0,229,5.03173828125E-5,44,26,90,16774821,103454,31156,21933,19269,16746259,2423,397,Tag0,unknown
1605697266409,0,538,1.1821289062499999E-4,44,26,90,16774821,103454,31156,21933,19269,16746259,2423,397,Tag0,unknown
1605697266419,0,212,4.6582031250000006E-5,44,26,90,16774821,103454,31156,21933,19269,16746259,2423,397,Tag0,unknown
1605697266432,0,-364,-7.998046875E-5,44,26,94,16774821,103454,31156,21933,19269,16746259,2423,397,Tag0,unknown
1605697266442,0,-395,-8.67919921875E-5,44,26,94,16774821,103454,31156,21933,19269,16746259,2423,397,Tag0,unknown
1605697266466,0,-979,-2.151123046875E-4,44,26,94,16774821,103454,31156,21933,19269,16746259,2423,397,Tag0,unknown
1605697266476,0,-1317,-2.893798828125E-4,44,26,94,16774821,103454,31156,21933,19269,16746259,2423,397,Tag0,unknown
1605697266502,0,169,3.7133789062499996E-5,27,27,94,1813355,286379,93094,16762225,97021,26191,30219,7808,Tag0,unknown
1605697266512,0,586,1.28759765625E-4,27,27,94,1813355,286379,93094,16762225,97021,26191,30219,7808,Tag0,unknown
1605697266525,0,547,1.201904296875E-4,27,27,94,1813355,286379,93094,16762225,97021,26191,30219,7808,Tag0,unknown
1605697266544,0,241,5.29541015625E-5,27,27,94,1813355,286379,93094,16762225,97021,26191,30219,7808,Tag0,unknown
1605697266558,0,331,7.272949218750001E-5,27,27,94,1813355,286379,93094,16762225,97021,26191,30219,7808,Tag0,unknown
1605697266581,0,-421,-9.25048828125E-5,27,27,123,1813355,286379,93094,16762225,97021,26191,30219,7808,Tag0,unknown
1605697266592,0,-772,-1.6962890625000002E-4,27,27,123,1813355,286379,93094,16762225,97021,26191,30219,7808,Tag0,unknown
1605697266616,0,-296,-6.50390625E-5,27,27,123,1813355,286379,93094,16762225,97021,26191,30219,7808,Tag0,unknown
1605697266626,0,-23,-5.0537109375E-6,27,27,123,1813355,286379,93094,16762225,97021,26191,30219,7808,Tag0,unknown
1605697266650,0,521,1.1447753906250001E-4,27,27,123,1813355,286379,93094,16762225,97021,26191,30219,7808,Tag0,unknown
1605697266674,0,523,1.149169921875E-4,27,27,123,1813355,286379,93094,16762225,97021,26191,30219,7808,Tag0,unknown
1605697266693,0,1056,2.3203125E-4,27,27,123,1813355,286379,93094,16762225,97021,26191,30219,7808,Tag0,unknown
1605697266723,0,679,1.491943359375E-4,27,27,123,1813355,286379,93094,16762225,97021,26191,30219,7808,Tag0,unknown
1605697266742,0,504,1.107421875E-4,27,27,123,1813355,286379,93094,16762225,97021,26191,30219,7808,Tag0,unknown
1605697266752,0,-1153,-2.533447265625E-4,27,27,123,1813355,286379,93094,16762225,97021,26191,30219,7808,Tag0,unknown
1605697266763,0,-1275,-2.801513671875E-4,27,27,123,1813355,286379,93094,16762225,97021,26191,30219,7808,Tag0,unknown
1605697266776,0,-1540,-3.3837890625E-4,27,27,123,1813355,286379,93094,16762225,97021,26191,30219,7808,Tag0,unknown
1605697266803,0,-429,-9.42626953125E-5,27,27,123,1813355,286379,93094,16762225,97021,26191,30219,7808,Tag0,unknown
1605697266813,0,422,9.2724609375E-5,27,27,123,1813355,286379,93094,16762225,97021,26191,30219,7808,Tag0,unknown
1605697266835,0,551,1.210693359375E-4,27,27,123,1813355,286379,93094,16762225,97021,26191,30219,7808,Tag0,unknown
1605697266845,0,133,2.92236328125E-5,27,27,123,1813355,286379,93094,16762225,97021,26191,30219,7808,Tag0,unknown
1605697266869,0,315,6.92138671875E-5,27,27,123,1813355,286379,93094,16762225,97021,26191,30219,7808,Tag0,unknown
1605697266879,0,354,7.778320312500001E-5,27,27,123,1813355,286379,93094,16762225,97021,26191,30219,7808,Tag0,unknown
1605697266889,0,-13,-2.8564453125E-6,27,27,123,1813355,286379,93094,16762225,97021,26191,30219,7808,Tag0,unknown
1605697266908,0,-110,-2.4169921875E-5,27,27,123,1813355,286379,93094,16762225,97021,26191,30219,7808,Tag0,unknown
1605697266926,0,-90,-1.9775390625E-5,27,27,123,1813355,286379,93094,16762225,97021,26191,30219,7808,Tag0,unknown
1605697266943,0,-195,-4.28466796875E-5,27,27,123,1813355,286379,93094,16762225,97021,26191,30219,7808,Tag0,unknown
1605697266959,0,-810,-1.77978515625E-4,27,27,123,1813355,286379,93094,16762225,97021,26191,30219,7808,Tag0,unknown
1605697266981,0,-339,-7.448730468750001E-5,27,27,123,1813355,286379,93094,16762225,97021,26191,30219,7808,Tag0,unknown
1605697266993,0,91,1.99951171875E-5,27,27,123,1813355,286379,93094,16762225,97021,26191,30219,7808,Tag0,unknown
1605697267018,0,644,1.4150390625E-4,27,27,123,1813355,286379,93094,16762225,97021,26191,30219,7808,Tag0,unknown
1605697267040,0,821,1.803955078125E-4,27,27,123,1813355,286379,93094,16762225,97021,26191,30219,7808,Tag0,unknown
1605697267060,0,-273,-5.998535156250001E-5,27,27,110,1813355,286379,93094,16762225,97021,26191,30219,7808,Tag0,unknown
1605697267091,0,-837,-1.8391113281250002E-4,27,27,110,1813355,286379,93094,16762225,97021,26191,30219,7808,Tag0,unknown
1605697267112,0,-684,-1.5029296875E-4,27,27,110,1813355,286379,93094,16762225,97021,26191,30219,7808,Tag0,unknown
1605697267122,0,-483,-1.061279296875E-4,27,27,110,1813355,286379,93094,16762225,97021,26191,30219,7808,Tag0,unknown
1605697267133,0,114,2.5048828125000003E-5,27,27,110,1813355,286379,93094,16762225,97021,26191,30219,7808,Tag0,unknown
1605697267163,0,829,1.821533203125E-4,27,27,110,1813355,286379,93094,16762225,97021,26191,30219,7808,Tag0,unknown
1605697267177,0,694,1.52490234375E-4,27,27,110,1813355,286379,93094,16762225,97021,26191,30219,7808,Tag0,unknown
1605697267207,0,261,5.73486328125E-5,27,27,110,1813355,286379,93094,16762225,97021,26191,30219,7808,Tag0,unknown
1605697267227,0,-79,-1.7358398437500003E-5,27,27,122,1813355,286379,93094,16762225,97021,26191,30219,7808,Tag0,unknown
1605697267237,0,-537,-1.179931640625E-4,27,27,122,1813355,286379,93094,16762225,97021,26191,30219,7808,Tag0,unknown
1605697267249,0,-193,-4.2407226562500005E-5,27,27,122,1813355,286379,93094,16762225,97021,26191,30219,7808,Tag0,unknown
1605697267261,0,39,8.5693359375E-6,27,27,122,1813355,286379,93094,16762225,97021,26191,30219,7808,Tag0,unknown
1605697267282,0,887,1.9489746093750003E-4,27,27,122,1813355,286379,93094,16762225,97021,26191,30219,7808,Tag0,unknown
1605697267294,0,659,1.4479980468750002E-4,27,27,122,1813355,286379,93094,16762225,97021,26191,30219,7808,Tag0,unknown
1605697267304,0,646,1.41943359375E-4,27,27,122,1813355,286379,93094,16762225,97021,26191,30219,7808,Tag0,unknown
1605697267315,0,-115,-2.52685546875E-5,27,27,109,1813355,286379,93094,16762225,97021,26191,30219,7808,Tag0,unknown
1605697267325,0,39,8.5693359375E-6,27,27,109,1813355,286379,93094,16762225,97021,26191,30219,7808,Tag0,unknown
1605697267357,0,-1062,-2.3334960937500002E-4,27,27,109,1813355,286379,93094,16762225,97021,26191,30219,7808,Tag0,unknown
1605697267367,0,-1389,-3.0520019531250005E-4,27,27,109,1813355,286379,93094,16762225,97021,26191,30219,7808,Tag0,unknown
1605697267398,0,361,7.93212890625E-5,27,27,109,1813355,286379,93094,16762225,97021,26191,30219,7808,Tag0,unknown
1605697267412,0,202,4.4384765625000004E-5,27,27,109,1813355,286379,93094,16762225,97021,26191,30219,7808,Tag0,unknown
1605697267434,0,404,8.876953125000001E-5,27,27,109,1813355,286379,93094,16762225,97021,26191,30219,7808,Tag0,unknown
1605697267445,0,554,1.2172851562500001E-4,27,27,109,1813355,286379,93094,16762225,97021,26191,30219,7808,Tag0,unknown
1605697267470,0,58,1.2744140625E-5,27,27,109,1813355,286379,93094,16762225,97021,26191,30219,7808,Tag0,unknown
1605697267480,0,43,9.448242187500001E-6,27,27,109,1813355,286379,93094,16762225,97021,26191,30219,7808,Tag0,unknown
1605697267509,0,-76,-1.669921875E-5,37,8,109,142850,104926,18875,14292,16747026,16747097,2090,801,Tag0,unknown
1605697267528,0,-80,-1.7578125E-5,37,8,109,142850,104926,18875,14292,16747026,16747097,2090,801,Tag0,unknown
1605697267545,0,225,4.94384765625E-5,37,8,109,142850,104926,18875,14292,16747026,16747097,2090,801,Tag0,unknown
1605697267562,0,-115,-2.52685546875E-5,37,8,109,142850,104926,18875,14292,16747026,16747097,2090,801,Tag0,unknown
1605697267583,0,21,4.614257812500001E-6,37,8,109,142850,104926,18875,14292,16747026,16747097,2090,801,Tag0,unknown
1605697267615,0,2,4.39453125E-7,37,8,109,142850,104926,18875,14292,16747026,16747097,2090,801,Tag0,unknown
1605697267628,0,-339,-7.448730468750001E-5,37,8,109,142850,104926,18875,14292,16747026,16747097,2090,801,Tag0,unknown
1605697267638,0,-68,-1.4941406250000001E-5,37,8,109,142850,104926,18875,14292,16747026,16747097,2090,801,Tag0,unknown
1605697267655,0,-74,-1.6259765625E-5,37,8,109,142850,104926,18875,14292,16747026,16747097,2090,801,Tag0,unknown
1605697267665,0,58,1.2744140625E-5,37,8,109,142850,104926,18875,14292,16747026,16747097,2090,801,Tag0,unknown
1605697267688,0,124,2.724609375E-5,37,8,109,142850,104926,18875,14292,16747026,16747097,2090,801,Tag0,unknown
1605697267698,0,87,1.91162109375E-5,37,8,109,142850,104926,18875,14292,16747026,16747097,2090,801,Tag0,unknown
1605697267726,0,19,4.1748046875E-6,37,8,109,142850,104926,18875,14292,16747026,16747097,2090,801,Tag0,unknown
1605697267745,0,30,6.591796875E-6,37,8,109,142850,104926,18875,14292,16747026,16747097,2090,801,Tag0,unknown
1605697267762,0,28,6.15234375E-6,37,8,109,142850,104926,18875,14292,16747026,16747097,2090,801,Tag0,unknown
1605697267781,0,-114,-2.5048828125000003E-5,37,8,109,142850,104926,18875,14292,16747026,16747097,2090,801,Tag0,unknown
1605697267791,0,747,1.6413574218750003E-4,37,8,109,142850,104926,18875,14292,16747026,16747097,2090,801,Tag0,unknown
1605697267806,0,1024,2.25E-4,37,8,109,142850,104926,18875,14292,16747026,16747097,2090,801,Tag0,unknown
1605697267819,0,-23,-5.0537109375E-6,37,8,109,142850,104926,18875,14292,16747026,16747097,2090,801,Tag0,unknown
1605697267830,0,-471,-1.0349121093750001E-4,37,8,109,142850,104926,18875,14292,16747026,16747097,2090,801,Tag0,unknown
1605697267857,0,-1002,-2.20166015625E-4,37,8,109,142850,104926,18875,14292,16747026,16747097,2090,801,Tag0,unknown
1605697267867,0,-1029,-2.260986328125E-4,37,8,109,142850,104926,18875,14292,16747026,16747097,2090,801,Tag0,unknown
1605697267879,0,-469,-1.0305175781250001E-4,37,8,109,142850,104926,18875,14292,16747026,16747097,2090,801,Tag0,unknown
1605697267899,0,420,9.228515625E-5,37,8,109,142850,104926,18875,14292,16747026,16747097,2090,801,Tag0,unknown
1605697267931,0,618,1.35791015625E-4,37,8,109,142850,104926,18875,14292,16747026,16747097,2090,801,Tag0,unknown
1605697267946,0,151,3.31787109375E-5,37,8,109,142850,104926,18875,14292,16747026,16747097,2090,801,Tag0,unknown
1605697267971,0,-759,-1.667724609375E-4,37,8,109,142850,104926,18875,14292,16747026,16747097,2090,801,Tag0,unknown
1605697267981,0,-765,-1.680908203125E-4,37,8,109,142850,104926,18875,14292,16747026,16747097,2090,801,Tag0,unknown
1605697268005,0,-525,-1.153564453125E-4,37,8,109,142850,104926,18875,14292,16747026,16747097,2090,801,Tag0,unknown
1605697268030,0,-344,-7.558593750000001E-5,37,8,109,142850,104926,18875,14292,16747026,16747097,2090,801,Tag0,unknown
1605697268047,0,-29,-6.3720703125E-6,37,8,109,142850,104926,18875,14292,16747026,16747097,2090,801,Tag0,unknown
1605697268057,0,-539,-1.1843261718750001E-4,37,8,109,142850,104926,18875,14292,16747026,16747097,2090,801,Tag0,unknown
1605697268077,0,-573,-1.259033203125E-4,37,8,109,142850,104926,18875,14292,16747026,16747097,2090,801,Tag0,unknown
1605697268087,0,-241,-5.29541015625E-5,37,8,109,142850,104926,18875,14292,16747026,16747097,2090,801,Tag0,unknown
1605697268097,0,-15,-3.2958984375E-6,37,8,109,142850,104926,18875,14292,16747026,16747097,2090,801,Tag0,unknown
1605697268116,0,262,5.7568359375E-5,37,8,109,142850,104926,18875,14292,16747026,16747097,2090,801,Tag0,unknown
1605697268132,0,-27,-5.9326171875000005E-6,37,8,109,142850,104926,18875,14292,16747026,16747097,2090,801,Tag0,unknown
1605697268165,0,376,8.261718750000001E-5,37,8,109,142850,104926,18875,14292,16747026,16747097,2090,801,Tag0,unknown
1605697268180,0,343,7.53662109375E-5,37,8,109,142850,104926,18875,14292,16747026,16747097,2090,801,Tag0,unknown
1605697268199,0,-101,-2.2192382812500002E-5,37,8,109,142850,104926,18875,14292,16747026,16747097,2090,801,Tag0,unknown
1605697268214,0,43,9.448242187500001E-6,37,8,109,142850,104926,18875,14292,16747026,16747097,2090,801,Tag0,unknown
1605697268224,0,561,1.232666015625E-4,37,8,109,142850,104926,18875,14292,16747026,16747097,2090,801,Tag0,unknown
1605697268240,0,625,1.373291015625E-4,37,8,109,142850,104926,18875,14292,16747026,16747097,2090,801,Tag0,unknown
1605697268250,0,304,6.6796875E-5,37,8,109,142850,104926,18875,14292,16747026,16747097,2090,801,Tag0,unknown
1605697268277,0,115,2.52685546875E-5,37,8,109,142850,104926,18875,14292,16747026,16747097,2090,801,Tag0,unknown
1605697268297,0,-119,-2.6147460937500004E-5,37,8,109,142850,104926,18875,14292,16747026,16747097,2090,801,Tag0,unknown
1605697268314,0,305,6.70166015625E-5,37,8,109,142850,104926,18875,14292,16747026,16747097,2090,801,Tag0,unknown
1605697268331,0,407,8.94287109375E-5,37,8,109,142850,104926,18875,14292,16747026,16747097,2090,801,Tag0,unknown
1605697268351,0,427,9.382324218750001E-5,37,8,109,142850,104926,18875,14292,16747026,16747097,2090,801,Tag0,unknown
1605697268383,0,-583,-1.281005859375E-4,37,8,109,142850,104926,18875,14292,16747026,16747097,2090,801,Tag0,unknown
1605697268397,0,-385,-8.45947265625E-5,37,8,109,142850,104926,18875,14292,16747026,16747097,2090,801,Tag0,unknown
1605697268420,0,-202,-4.4384765625000004E-5,37,8,109,142850,104926,18875,14292,16747026,16747097,2090,801,Tag0,unknown
1605697268432,0,-275,-6.04248046875E-5,37,8,109,142850,104926,18875,14292,16747026,16747097,2090,801,Tag0,unknown
1605697268442,0,697,1.5314941406250002E-4,37,8,109,142850,104926,18875,14292,16747026,16747097,2090,801,Tag0,unknown
1605697268459,0,823,1.808349609375E-4,37,8,109,142850,104926,18875,14292,16747026,16747097,2090,801,Tag0,unknown
1605697268469,0,471,1.0349121093750001E-4,37,8,109,142850,104926,18875,14292,16747026,16747097,2090,801,Tag0,unknown
1605697268542,0,523,1.149169921875E-4,11,14,109,1067507,1705652,393205,251794,218930,106137,16750469,13623,Tag0,unknown
1605697268554,0,233,5.1196289062500006E-5,11,14,109,1067507,1705652,393205,251794,218930,106137,16750469,13623,Tag0,unknown
1605697268565,0,348,7.646484375E-5,11,14,109,1067507,1705652,393205,251794,218930,106137,16750469,13623,Tag0,unknown
1605697268608,0,-69,-1.51611328125E-5,11,14,109,1067507,1705652,393205,251794,218930,106137,16750469,13623,Tag0,unknown
1605697268618,0,38,8.349609375E-6,11,14,109,1067507,1705652,393205,251794,218930,106137,16750469,13623,Tag0,unknown
1605697268675,0,124,2.724609375E-5,11,14,109,1067507,1705652,393205,251794,218930,106137,16750469,13623,Tag0,unknown
1605697268685,0,-68,-1.4941406250000001E-5,11,14,109,1067507,1705652,393205,251794,218930,106137,16750469,13623,Tag0,unknown
1605697268743,0,149,3.27392578125E-5,11,14,109,1067507,1705652,393205,251794,218930,106137,16750469,13623,Tag0,unknown
1605697268753,0,154,3.3837890625E-5,11,14,109,1067507,1705652,393205,251794,218930,106137,16750469,13623,Tag0,unknown
1605697268810,0,368,8.0859375E-5,11,14,109,1067507,1705652,393205,251794,218930,106137,16750469,13623,Tag0,unknown
1605697268820,0,371,8.151855468750001E-5,11,14,109,1067507,1705652,393205,251794,218930,106137,16750469,13623,Tag0,unknown
1605697268878,0,323,7.09716796875E-5,11,14,109,1067507,1705652,393205,251794,218930,106137,16750469,13623,Tag0,unknown
1605697268888,0,277,6.0864257812500005E-5,11,14,109,1067507,1705652,393205,251794,218930,106137,16750469,13623,Tag0,unknown
1605697268945,0,-63,-1.38427734375E-5,11,14,109,1067507,1705652,393205,251794,218930,106137,16750469,13623,Tag0,unknown
1605697268955,0,42,9.228515625000002E-6,11,14,109,1067507,1705652,393205,251794,218930,106137,16750469,13623,Tag0,unknown
1605697269013,0,-266,-5.8447265625E-5,11,14,109,1067507,1705652,393205,251794,218930,106137,16750469,13623,Tag0,unknown
1605697269023,0,-291,-6.39404296875E-5,11,14,109,1067507,1705652,393205,251794,218930,106137,16750469,13623,Tag0,unknown
1605697269080,0,4,8.7890625E-7,11,14,109,1067507,1705652,393205,251794,218930,106137,16750469,13623,Tag0,unknown
1605697269100,0,-262,-5.7568359375E-5,11,14,109,1067507,1705652,393205,251794,218930,106137,16750469,13623,Tag0,unknown
1605697269148,0,-79,-1.7358398437500003E-5,11,14,44,1067507,1705652,393205,251794,218930,106137,16750469,13623,Tag0,unknown
1605697269168,0,-52,-1.142578125E-5,11,14,44,1067507,1705652,393205,251794,218930,106137,16750469,13623,Tag0,unknown
1605697269185,0,-11,-2.4169921875E-6,11,14,44,1067507,1705652,393205,251794,218930,106137,16750469,13623,Tag0,unknown
1605697269195,0,-60,-1.318359375E-5,11,14,44,1067507,1705652,393205,251794,218930,106137,16750469,13623,Tag0,unknown
1605697269205,0,45,9.8876953125E-6,11,14,44,1067507,1705652,393205,251794,218930,106137,16750469,13623,Tag0,unknown
1605697269215,0,2,4.39453125E-7,11,14,44,1067507,1705652,393205,251794,218930,106137,16750469,13623,Tag0,unknown
1605697269225,0,-195,-4.28466796875E-5,11,14,44,1067507,1705652,393205,251794,218930,106137,16750469,13623,Tag0,unknown
1605697269235,0,-42,-9.228515625000002E-6,11,14,44,1067507,1705652,393205,251794,218930,106137,16750469,13623,Tag0,unknown
1605697269245,0,-731,-1.6062011718749998E-4,11,14,44,1067507,1705652,393205,251794,218930,106137,16750469,13623,Tag0,unknown
1605697269272,0,-603,-1.3249511718750002E-4,11,14,44,1067507,1705652,393205,251794,218930,106137,16750469,13623,Tag0,unknown
1605697269283,0,-251,-5.5151367187500004E-5,11,14,44,1067507,1705652,393205,251794,218930,106137,16750469,13623,Tag0,unknown
1605697269308,0,231,5.07568359375E-5,11,14,44,1067507,1705652,393205,251794,218930,106137,16750469,13623,Tag0,unknown
1605697269318,0,161,3.53759765625E-5,11,14,44,1067507,1705652,393205,251794,218930,106137,16750469,13623,Tag0,unknown
1605697269343,0,-23,-5.0537109375E-6,11,14,93,1067507,1705652,393205,251794,218930,106137,16750469,13623,Tag0,unknown
1605697269353,0,81,1.77978515625E-5,11,14,93,1067507,1705652,393205,251794,218930,106137,16750469,13623,Tag0,unknown
1605697269363,0,-477,-1.048095703125E-4,11,14,93,1067507,1705652,393205,251794,218930,106137,16750469,13623,Tag0,unknown
1605697269379,0,-1105,-2.427978515625E-4,11,14,93,1067507,1705652,393205,251794,218930,106137,16750469,13623,Tag0,unknown
1605697269393,0,-1041,-2.287353515625E-4,11,14,93,1067507,1705652,393205,251794,218930,106137,16750469,13623,Tag0,unknown
1605697269412,0,-168,-3.691406250000001E-5,11,14,93,1067507,1705652,393205,251794,218930,106137,16750469,13623,Tag0,unknown
1605697269422,0,-297,-6.525878906250001E-5,11,14,93,1067507,1705652,393205,251794,218930,106137,16750469,13623,Tag0,unknown
1605697269451,0,-361,-7.93212890625E-5,11,14,93,1067507,1705652,393205,251794,218930,106137,16750469,13623,Tag0,unknown
1605697269468,0,53,1.1645507812500002E-5,11,14,93,1067507,1705652,393205,251794,218930,106137,16750469,13623,Tag0,unknown
1605697269492,0,576,1.265625E-4,11,14,93,1067507,1705652,393205,251794,218930,106137,16750469,13623,Tag0,unknown
1605697269502,0,160,3.515625E-5,1,40,93,2466799,51932,36933,72100,72386,13614,6105,3415,Tag0,unknown
1605697269522,0,-772,-1.6962890625000002E-4,1,40,93,2466799,51932,36933,72100,72386,13614,6105,3415,Tag0,unknown
1605697269535,0,-859,-1.887451171875E-4,1,40,93,2466799,51932,36933,72100,72386,13614,6105,3415,Tag0,unknown
1605697269545,0,-108,-2.3730468750000002E-5,1,40,93,2466799,51932,36933,72100,72386,13614,6105,3415,Tag0,unknown
1605697269567,0,-100,-2.197265625E-5,1,40,93,2466799,51932,36933,72100,72386,13614,6105,3415,Tag0,unknown
1605697269584,0,97,2.13134765625E-5,1,40,93,2466799,51932,36933,72100,72386,13614,6105,3415,Tag0,unknown
1605697269603,0,171,3.75732421875E-5,1,40,93,2466799,51932,36933,72100,72386,13614,6105,3415,Tag0,unknown
1605697269620,0,164,3.6035156249999995E-5,1,40,93,2466799,51932,36933,72100,72386,13614,6105,3415,Tag0,unknown
1605697269642,0,-163,-3.5815429687500006E-5,1,40,84,2466799,51932,36933,72100,72386,13614,6105,3415,Tag0,unknown
1605697269653,0,-605,-1.329345703125E-4,1,40,84,2466799,51932,36933,72100,72386,13614,6105,3415,Tag0,unknown
1605697269676,0,-182,-3.9990234375E-5,1,40,84,2466799,51932,36933,72100,72386,13614,6105,3415,Tag0,unknown
1605697269686,0,-293,-6.43798828125E-5,1,40,84,2466799,51932,36933,72100,72386,13614,6105,3415,Tag0,unknown
1605697269712,0,-613,-1.3469238281250002E-4,1,40,84,2466799,51932,36933,72100,72386,13614,6105,3415,Tag0,unknown
1605697269722,0,-181,-3.9770507812500004E-5,1,40,84,2466799,51932,36933,72100,72386,13614,6105,3415,Tag0,unknown
1605697269746,0,-267,-5.86669921875E-5,1,40,84,2466799,51932,36933,72100,72386,13614,6105,3415,Tag0,unknown
1605697269756,0,-67,-1.4721679687500002E-5,1,40,84,2466799,51932,36933,72100,72386,13614,6105,3415,Tag0,unknown
1605697269784,0,-138,-3.0322265625E-5,1,40,84,2466799,51932,36933,72100,72386,13614,6105,3415,Tag0,unknown
1605697269807,0,80,1.7578125E-5,1,40,84,2466799,51932,36933,72100,72386,13614,6105,3415,Tag0,unknown
1605697269819,0,67,1.4721679687500002E-5,1,40,84,2466799,51932,36933,72100,72386,13614,6105,3415,Tag0,unknown
1605697269841,0,70,1.5380859375E-5,1,40,84,2466799,51932,36933,72100,72386,13614,6105,3415,Tag0,unknown
1605697269853,0,5,1.0986328125E-6,1,40,84,2466799,51932,36933,72100,72386,13614,6105,3415,Tag0,unknown
1605697269863,0,-502,-1.1030273437500001E-4,1,40,84,2466799,51932,36933,72100,72386,13614,6105,3415,Tag0,unknown
1605697269881,0,-219,-4.81201171875E-5,1,40,84,2466799,51932,36933,72100,72386,13614,6105,3415,Tag0,unknown
1605697269891,0,-163,-3.5815429687500006E-5,1,40,84,2466799,51932,36933,72100,72386,13614,6105,3415,Tag0,unknown
1605697269915,0,-381,-8.371582031250001E-5,1,40,84,2466799,51932,36933,72100,72386,13614,6105,3415,Tag0,unknown
1605697269936,0,-439,-9.64599609375E-5,1,40,84,2466799,51932,36933,72100,72386,13614,6105,3415,Tag0,unknown
1605697269959,0,-445,-9.77783203125E-5,1,40,84,2466799,51932,36933,72100,72386,13614,6105,3415,Tag0,unknown
1605697269969,0,-229,-5.03173828125E-5,1,40,84,2466799,51932,36933,72100,72386,13614,6105,3415,Tag0,unknown
1605697269992,0,365,8.02001953125E-5,1,40,84,2466799,51932,36933,72100,72386,13614,6105,3415,Tag0,unknown
1605697270003,0,193,4.2407226562500005E-5,1,40,84,2466799,51932,36933,72100,72386,13614,6105,3415,Tag0,unknown
1605697270032,0,-69,-1.51611328125E-5,1,40,84,2466799,51932,36933,72100,72386,13614,6105,3415,Tag0,unknown
1605697270062,0,-103,-2.26318359375E-5,1,40,84,2466799,51932,36933,72100,72386,13614,6105,3415,Tag0,unknown
1605697270072,0,-142,-3.1201171875E-5,1,40,84,2466799,51932,36933,72100,72386,13614,6105,3415,Tag0,unknown
1605697270086,0,-419,-9.206542968750001E-5,1,40,84,2466799,51932,36933,72100,72386,13614,6105,3415,Tag0,unknown
1605697270111,0,-172,-3.7792968750000005E-5,1,40,84,2466799,51932,36933,72100,72386,13614,6105,3415,Tag0,unknown
1605697270121,0,-349,-7.668457031250001E-5,1,40,84,2466799,51932,36933,72100,72386,13614,6105,3415,Tag0,unknown
1605697270137,0,374,8.2177734375E-5,1,40,84,2466799,51932,36933,72100,72386,13614,6105,3415,Tag0,unknown
1605697270153,0,336,7.382812500000001E-5,1,40,84,2466799,51932,36933,72100,72386,13614,6105,3415,Tag0,unknown
1605697270163,0,803,1.764404296875E-4,1,40,84,2466799,51932,36933,72100,72386,13614,6105,3415,Tag0,unknown
1605697270173,0,827,1.8171386718750002E-4,1,40,84,2466799,51932,36933,72100,72386,13614,6105,3415,Tag0,unknown
1605697270187,0,475,1.043701171875E-4,1,40,84,2466799,51932,36933,72100,72386,13614,6105,3415,Tag0,unknown
1605697270208,0,25,5.4931640625E-6,1,40,95,2466799,51932,36933,72100,72386,13614,6105,3415,Tag0,unknown
1605697270220,0,-129,-2.8344726562500002E-5,1,40,95,2466799,51932,36933,72100,72386,13614,6105,3415,Tag0,unknown
1605697270230,0,-245,-5.38330078125E-5,1,40,95,2466799,51932,36933,72100,72386,13614,6105,3415,Tag0,unknown
1605697270246,0,-294,-6.4599609375E-5,1,40,95,2466799,51932,36933,72100,72386,13614,6105,3415,Tag0,unknown
1605697270256,0,264,5.80078125E-5,1,40,95,2466799,51932,36933,72100,72386,13614,6105,3415,Tag0,unknown
1605697270282,0,218,4.7900390625E-5,1,40,95,2466799,51932,36933,72100,72386,13614,6105,3415,Tag0,unknown
1605697270292,0,163,3.5815429687500006E-5,1,40,95,2466799,51932,36933,72100,72386,13614,6105,3415,Tag0,unknown
1605697270319,0,-25,-5.4931640625E-6,1,40,95,2466799,51932,36933,72100,72386,13614,6105,3415,Tag0,unknown
1605697270339,0,-55,-1.20849609375E-5,1,40,83,2466799,51932,36933,72100,72386,13614,6105,3415,Tag0,unknown
1605697270357,0,-619,-1.360107421875E-4,1,40,83,2466799,51932,36933,72100,72386,13614,6105,3415,Tag0,unknown
1605697270373,0,-397,-8.72314453125E-5,1,40,83,2466799,51932,36933,72100,72386,13614,6105,3415,Tag0,unknown
1605697270383,0,-153,-3.3618164062500004E-5,1,40,83,2466799,51932,36933,72100,72386,13614,6105,3415,Tag0,unknown
1605697270396,0,3,6.591796875E-7,1,40,83,2466799,51932,36933,72100,72386,13614,6105,3415,Tag0,unknown
1605697270427,0,285,6.26220703125E-5,1,40,83,2466799,51932,36933,72100,72386,13614,6105,3415,Tag0,unknown
1605697270438,0,274,6.0205078124999997E-5,1,40,83,2466799,51932,36933,72100,72386,13614,6105,3415,Tag0,unknown
1605697270463,0,-318,-6.9873046875E-5,1,40,71,2466799,51932,36933,72100,72386,13614,6105,3415,Tag0,unknown
1605697270475,0,-182,-3.9990234375E-5,1,40,71,2466799,51932,36933,72100,72386,13614,6105,3415,Tag0,unknown
1605697270504,0,-475,-1.043701171875E-4,10,21,71,951326,66586,8968,6284,16751127,12485,3925,1976,Tag0,unknown
1605697270521,0,-437,-9.602050781250001E-5,10,21,71,951326,66586,8968,6284,16751127,12485,3925,1976,Tag0,unknown
1605697270539,0,-245,-5.38330078125E-5,10,21,71,951326,66586,8968,6284,16751127,12485,3925,1976,Tag0,unknown
1605697270557,0,-344,-7.558593750000001E-5,10,21,71,951326,66586,8968,6284,16751127,12485,3925,1976,Tag0,unknown
1605697270567,0,157,3.44970703125E-5,10,21,71,951326,66586,8968,6284,16751127,12485,3925,1976,Tag0,unknown
1605697270581,0,195,4.28466796875E-5,10,21,71,951326,66586,8968,6284,16751127,12485,3925,1976,Tag0,unknown
1605697270613,0,133,2.92236328125E-5,10,21,71,951326,66586,8968,6284,16751127,12485,3925,1976,Tag0,unknown
1605697270623,0,0,0.0,10,21,71,951326,66586,8968,6284,16751127,12485,3925,1976,Tag0,unknown
1605697270652,0,-551,-1.210693359375E-4,10,21,71,951326,66586,8968,6284,16751127,12485,3925,1976,Tag0,unknown
1605697270671,0,-552,-1.212890625E-4,10,21,71,951326,66586,8968,6284,16751127,12485,3925,1976,Tag0,unknown
1605697270690,0,-227,-4.98779296875E-5,10,21,71,951326,66586,8968,6284,16751127,12485,3925,1976,Tag0,unknown
1605697270700,0,101,2.2192382812500002E-5,10,21,71,951326,66586,8968,6284,16751127,12485,3925,1976,Tag0,unknown
1605697270722,0,-127,-2.79052734375E-5,10,21,71,951326,66586,8968,6284,16751127,12485,3925,1976,Tag0,unknown
1605697270738,0,69,1.51611328125E-5,10,21,71,951326,66586,8968,6284,16751127,12485,3925,1976,Tag0,unknown
1605697270756,0,-261,-5.73486328125E-5,10,21,71,951326,66586,8968,6284,16751127,12485,3925,1976,Tag0,unknown
1605697270773,0,-129,-2.8344726562500002E-5,10,21,71,951326,66586,8968,6284,16751127,12485,3925,1976,Tag0,unknown
1605697270783,0,-405,-8.89892578125E-5,10,21,71,951326,66586,8968,6284,16751127,12485,3925,1976,Tag0,unknown
1605697270798,0,-833,-1.830322265625E-4,10,21,71,951326,66586,8968,6284,16751127,12485,3925,1976,Tag0,unknown
1605697270808,0,-827,-1.8171386718750002E-4,10,21,71,951326,66586,8968,6284,16751127,12485,3925,1976,Tag0,unknown
1605697270832,0,-363,-7.97607421875E-5,10,21,71,951326,66586,8968,6284,16751127,12485,3925,1976,Tag0,unknown
1605697270844,0,-127,-2.79052734375E-5,10,21,71,951326,66586,8968,6284,16751127,12485,3925,1976,Tag0,unknown
1605697270854,0,520,1.142578125E-4,10,21,71,951326,66586,8968,6284,16751127,12485,3925,1976,Tag0,unknown
1605697270870,0,-86,-1.8896484375000003E-5,10,21,71,951326,66586,8968,6284,16751127,12485,3925,1976,Tag0,unknown
1605697270889,0,49,1.07666015625E-5,10,21,71,951326,66586,8968,6284,16751127,12485,3925,1976,Tag0,unknown
1605697270906,0,-599,-1.316162109375E-4,10,21,71,951326,66586,8968,6284,16751127,12485,3925,1976,Tag0,unknown
1605697270922,0,-193,-4.2407226562500005E-5,10,21,71,951326,66586,8968,6284,16751127,12485,3925,1976,Tag0,unknown
1605697270945,0,-9,-1.9775390625E-6,10,21,71,951326,66586,8968,6284,16751127,12485,3925,1976,Tag0,unknown
1605697270978,0,221,4.85595703125E-5,10,21,71,951326,66586,8968,6284,16751127,12485,3925,1976,Tag0,unknown
1605697270988,0,289,6.35009765625E-5,10,21,71,951326,66586,8968,6284,16751127,12485,3925,1976,Tag0,unknown
1605697271016,0,-137,-3.0102539062499998E-5,10,21,71,951326,66586,8968,6284,16751127,12485,3925,1976,Tag0,unknown
1605697271028,0,71,1.56005859375E-5,10,21,71,951326,66586,8968,6284,16751127,12485,3925,1976,Tag0,unknown
1605697271052,0,321,7.053222656250001E-5,10,21,71,951326,66586,8968,6284,16751127,12485,3925,1976,Tag0,unknown
1605697271062,0,-59,-1.29638671875E-5,10,21,71,951326,66586,8968,6284,16751127,12485,3925,1976,Tag0,unknown
1605697271090,0,131,2.87841796875E-5,10,21,71,951326,66586,8968,6284,16751127,12485,3925,1976,Tag0,unknown
1605697271122,0,-233,-5.1196289062500006E-5,10,21,71,951326,66586,8968,6284,16751127,12485,3925,1976,Tag0,unknown
1605697271139,0,-181,-3.9770507812500004E-5,10,21,71,951326,66586,8968,6284,16751127,12485,3925,1976,Tag0,unknown
1605697271149,0,602,1.3227539062500001E-4,10,21,71,951326,66586,8968,6284,16751127,12485,3925,1976,Tag0,unknown
1605697271164,0,534,1.17333984375E-4,10,21,71,951326,66586,8968,6284,16751127,12485,3925,1976,Tag0,unknown
1605697271175,0,180,3.955078125E-5,10,21,71,951326,66586,8968,6284,16751127,12485,3925,1976,Tag0,unknown
1605697271198,0,-469,-1.0305175781250001E-4,10,21,71,951326,66586,8968,6284,16751127,12485,3925,1976,Tag0,unknown
1605697271208,0,-457,-1.004150390625E-4,10,21,71,951326,66586,8968,6284,16751127,12485,3925,1976,Tag0,unknown
1605697271233,0,211,4.63623046875E-5,10,21,71,951326,66586,8968,6284,16751127,12485,3925,1976,Tag0,unknown
1605697271243,0,330,7.2509765625E-5,10,21,71,951326,66586,8968,6284,16751127,12485,3925,1976,Tag0,unknown
1605697271267,0,321,7.053222656250001E-5,10,21,71,951326,66586,8968,6284,16751127,12485,3925,1976,Tag0,unknown
1605697271277,0,-23,-5.0537109375E-6,10,21,71,951326,66586,8968,6284,16751127,12485,3925,1976,Tag0,unknown
1605697271312,0,3,6.591796875E-7,10,21,71,951326,66586,8968,6284,16751127,12485,3925,1976,Tag0,unknown
1605697271323,0,-221,-4.85595703125E-5,10,21,71,951326,66586,8968,6284,16751127,12485,3925,1976,Tag0,unknown
1605697271343,0,-633,-1.3908691406250002E-4,10,21,71,951326,66586,8968,6284,16751127,12485,3925,1976,Tag0,unknown
1605697271357,0,-449,-9.86572265625E-5,10,21,71,951326,66586,8968,6284,16751127,12485,3925,1976,Tag0,unknown
1605697271367,0,-107,-2.35107421875E-5,10,21,63,951326,66586,8968,6284,16751127,12485,3925,1976,Tag0,unknown
1605697271380,0,-123,-2.70263671875E-5,10,21,63,951326,66586,8968,6284,16751127,12485,3925,1976,Tag0,unknown
1605697271391,0,-88,-1.93359375E-5,10,21,63,951326,66586,8968,6284,16751127,12485,3925,1976,Tag0,unknown
1605697271420,0,-38,-8.349609375E-6,10,21,63,951326,66586,8968,6284,16751127,12485,3925,1976,Tag0,unknown
1605697271437,0,-93,-2.04345703125E-5,10,21,63,951326,66586,8968,6284,16751127,12485,3925,1976,Tag0,unknown
1605697271457,0,262,5.7568359375E-5,10,21,63,951326,66586,8968,6284,16751127,12485,3925,1976,Tag0,unknown
1605697271474,0,270,5.9326171875E-5,10,21,63,951326,66586,8968,6284,16751127,12485,3925,1976,Tag0,unknown
1605697271495,0,-604,-1.3271484375E-4,16,38,63,1024405,76129,26330,16768885,52412,16749041,8667,2567,Tag0,unknown
1605697271527,0,-135,-2.96630859375E-5,16,38,63,1024405,76129,26330,16768885,52412,16749041,8667,2567,Tag0,unknown
1605697271540,0,-173,-3.80126953125E-5,16,38,63,1024405,76129,26330,16768885,52412,16749041,8667,2567,Tag0,unknown
1605697271550,0,562,1.23486328125E-4,16,38,62,1024405,76129,26330,16768885,52412,16749041,8667,2567,Tag0,unknown
1605697271567,0,609,1.338134765625E-4,16,38,62,1024405,76129,26330,16768885,52412,16749041,8667,2567,Tag0,unknown
1605697271577,0,273,5.998535156250001E-5,16,38,62,1024405,76129,26330,16768885,52412,16749041,8667,2567,Tag0,unknown
1605697271602,0,42,9.228515625000002E-6,16,38,62,1024405,76129,26330,16768885,52412,16749041,8667,2567,Tag0,unknown
1605697271612,0,-537,-1.179931640625E-4,16,38,62,1024405,76129,26330,16768885,52412,16749041,8667,2567,Tag0,unknown
1605697271639,0,-63,-1.38427734375E-5,16,38,62,1024405,76129,26330,16768885,52412,16749041,8667,2567,Tag0,unknown
1605697271658,0,-47,-1.0327148437500001E-5,16,38,62,1024405,76129,26330,16768885,52412,16749041,8667,2567,Tag0,unknown
1605697271675,0,-565,-1.241455078125E-4,16,38,62,1024405,76129,26330,16768885,52412,16749041,8667,2567,Tag0,unknown
1605697271696,0,-308,-6.767578125E-5,16,38,62,1024405,76129,26330,16768885,52412,16749041,8667,2567,Tag0,unknown
1605697271715,0,645,1.417236328125E-4,16,38,62,1024405,76129,26330,16768885,52412,16749041,8667,2567,Tag0,unknown
1605697271725,0,732,1.6083984375E-4,16,38,62,1024405,76129,26330,16768885,52412,16749041,8667,2567,Tag0,unknown
1605697271750,0,-532,-1.1689453125E-4,16,38,62,1024405,76129,26330,16768885,52412,16749041,8667,2567,Tag0,unknown
1605697271768,0,-459,-1.008544921875E-4,16,38,62,1024405,76129,26330,16768885,52412,16749041,8667,2567,Tag0,unknown
1605697271778,0,-1121,-2.463134765625E-4,16,38,62,1024405,76129,26330,16768885,52412,16749041,8667,2567,Tag0,unknown
1605697271792,0,11,2.4169921875E-6,16,38,62,1024405,76129,26330,16768885,52412,16749041,8667,2567,Tag0,unknown
1605697271819,0,185,4.06494140625E-5,16,38,62,1024405,76129,26330,16768885,52412,16749041,8667,2567,Tag0,unknown
1605697271834,0,337,7.40478515625E-5,16,38,62,1024405,76129,26330,16768885,52412,16749041,8667,2567,Tag0,unknown
1605697271856,0,56,1.23046875E-5,16,38,62,1024405,76129,26330,16768885,52412,16749041,8667,2567,Tag0,unknown
1605697271876,0,-196,-4.306640625E-5,16,38,62,1024405,76129,26330,16768885,52412,16749041,8667,2567,Tag0,unknown
1605697271893,0,-723,-1.5886230468750001E-4,16,38,62,1024405,76129,26330,16768885,52412,16749041,8667,2567,Tag0,unknown
1605697271912,0,-258,-5.6689453125000004E-5,16,38,62,1024405,76129,26330,16768885,52412,16749041,8667,2567,Tag0,unknown
1605697271932,0,571,1.254638671875E-4,16,38,62,1024405,76129,26330,16768885,52412,16749041,8667,2567,Tag0,unknown
1605697271942,0,408,8.964843749999999E-5,16,38,62,1024405,76129,26330,16768885,52412,16749041,8667,2567,Tag0,unknown
1605697271965,0,884,1.9423828125E-4,16,38,62,1024405,76129,26330,16768885,52412,16749041,8667,2567,Tag0,unknown
1605697271975,0,704,1.546875E-4,16,38,62,1024405,76129,26330,16768885,52412,16749041,8667,2567,Tag0,unknown
1605697272002,0,-545,-1.197509765625E-4,16,38,62,1024405,76129,26330,16768885,52412,16749041,8667,2567,Tag0,unknown
1605697272012,0,-581,-1.276611328125E-4,16,38,62,1024405,76129,26330,16768885,52412,16749041,8667,2567,Tag0,unknown
1605697272036,0,-424,-9.316406250000001E-5,16,38,62,1024405,76129,26330,16768885,52412,16749041,8667,2567,Tag0,unknown
1605697272046,0,-559,-1.228271484375E-4,16,38,62,1024405,76129,26330,16768885,52412,16749041,8667,2567,Tag0,unknown
1605697272076,0,379,8.32763671875E-5,16,38,62,1024405,76129,26330,16768885,52412,16749041,8667,2567,Tag0,unknown
1605697272093,0,153,3.3618164062500004E-5,16,38,62,1024405,76129,26330,16768885,52412,16749041,8667,2567,Tag0,unknown
1605697272110,0,385,8.45947265625E-5,16,38,62,1024405,76129,26330,16768885,52412,16749041,8667,2567,Tag0,unknown
1605697272127,0,628,1.3798828125E-4,16,38,62,1024405,76129,26330,16768885,52412,16749041,8667,2567,Tag0,unknown
1605697272157,0,-463,-1.017333984375E-4,16,38,62,1024405,76129,26330,16768885,52412,16749041,8667,2567,Tag0,unknown
1605697272183,0,-777,-1.707275390625E-4,16,38,62,1024405,76129,26330,16768885,52412,16749041,8667,2567,Tag0,unknown
1605697272193,0,-835,-1.834716796875E-4,16,38,62,1024405,76129,26330,16768885,52412,16749041,8667,2567,Tag0,unknown
1605697272222,0,390,8.5693359375E-5,16,38,62,1024405,76129,26330,16768885,52412,16749041,8667,2567,Tag0,unknown
1605697272232,0,482,1.05908203125E-4,16,38,62,1024405,76129,26330,16768885,52412,16749041,8667,2567,Tag0,unknown
1605697272256,0,621,1.364501953125E-4,16,38,62,1024405,76129,26330,16768885,52412,16749041,8667,2567,Tag0,unknown
1605697272266,0,217,4.76806640625E-5,16,38,62,1024405,76129,26330,16768885,52412,16749041,8667,2567,Tag0,unknown
1605697272277,0,-9,-1.9775390625E-6,16,38,62,1024405,76129,26330,16768885,52412,16749041,8667,2567,Tag0,unknown
1605697272298,0,-151,-3.31787109375E-5,16,38,104,1024405,76129,26330,16768885,52412,16749041,8667,2567,Tag0,unknown
1605697272330,0,-459,-1.008544921875E-4,16,38,104,1024405,76129,26330,16768885,52412,16749041,8667,2567,Tag0,unknown
1605697272343,0,-626,-1.37548828125E-4,16,38,104,1024405,76129,26330,16768885,52412,16749041,8667,2567,Tag0,unknown
1605697272353,0,137,3.0102539062499998E-5,16,38,104,1024405,76129,26330,16768885,52412,16749041,8667,2567,Tag0,unknown
1605697272367,0,373,8.19580078125E-5,16,38,104,1024405,76129,26330,16768885,52412,16749041,8667,2567,Tag0,unknown
1605697272377,0,219,4.81201171875E-5,16,38,104,1024405,76129,26330,16768885,52412,16749041,8667,2567,Tag0,unknown
1605697272401,0,353,7.75634765625E-5,16,38,104,1024405,76129,26330,16768885,52412,16749041,8667,2567,Tag0,unknown
1605697272418,0,304,6.6796875E-5,16,38,104,1024405,76129,26330,16768885,52412,16749041,8667,2567,Tag0,unknown
1605697272428,0,232,5.09765625E-5,16,38,104,1024405,76129,26330,16768885,52412,16749041,8667,2567,Tag0,unknown
1605697272445,0,259,5.69091796875E-5,16,38,104,1024405,76129,26330,16768885,52412,16749041,8667,2567,Tag0,unknown
1605697272460,0,2,4.39453125E-7,16,38,104,1024405,76129,26330,16768885,52412,16749041,8667,2567,Tag0,unknown
1605697272485,0,-300,-6.591796875E-5,34,21,104,81404,97186,4733,5459,16313,16266,2149,2305,Tag0,unknown
1605697272498,0,-278,-6.108398437500001E-5,34,21,104,81404,97186,4733,5459,16313,16266,2149,2305,Tag0,unknown
1605697272521,0,52,1.142578125E-5,34,21,104,81404,97186,4733,5459,16313,16266,2149,2305,Tag0,unknown
1605697272533,0,-117,-2.5708007812499998E-5,34,21,104,81404,97186,4733,5459,16313,16266,2149,2305,Tag0,unknown
1605697272543,0,185,4.06494140625E-5,34,21,104,81404,97186,4733,5459,16313,16266,2149,2305,Tag0,unknown
1605697272560,0,378,8.3056640625E-5,34,21,104,81404,97186,4733,5459,16313,16266,2149,2305,Tag0,unknown
1605697272576,0,147,3.22998046875E-5,34,21,104,81404,97186,4733,5459,16313,16266,2149,2305,Tag0,unknown
1605697272593,0,-587,-1.2897949218750003E-4,34,21,104,81404,97186,4733,5459,16313,16266,2149,2305,Tag0,unknown
1605697272609,0,-245,-5.38330078125E-5,34,21,104,81404,97186,4733,5459,16313,16266,2149,2305,Tag0,unknown
1605697272630,0,-312,-6.85546875E-5,34,21,104,81404,97186,4733,5459,16313,16266,2149,2305,Tag0,unknown
1605697272661,0,-47,-1.0327148437500001E-5,34,21,104,81404,97186,4733,5459,16313,16266,2149,2305,Tag0,unknown
1605697272678,0,107,2.35107421875E-5,34,21,104,81404,97186,4733,5459,16313,16266,2149,2305,Tag0,unknown
1605697272701,0,-453,-9.95361328125E-5,34,21,104,81404,97186,4733,5459,16313,16266,2149,2305,Tag0,unknown
1605697272718,0,-488,-1.072265625E-4,34,21,104,81404,97186,4733,5459,16313,16266,2149,2305,Tag0,unknown
1605697272735,0,119,2.6147460937500004E-5,34,21,104,81404,97186,4733,5459,16313,16266,2149,2305,Tag0,unknown
1605697272751,0,44,9.66796875E-6,34,21,104,81404,97186,4733,5459,16313,16266,2149,2305,Tag0,unknown
1605697272765,0,241,5.29541015625E-5,34,21,104,81404,97186,4733,5459,16313,16266,2149,2305,Tag0,unknown
1605697272775,0,251,5.5151367187500004E-5,34,21,104,81404,97186,4733,5459,16313,16266,2149,2305,Tag0,unknown
1605697272785,0,135,2.96630859375E-5,34,21,104,81404,97186,4733,5459,16313,16266,2149,2305,Tag0,unknown
1605697272807,0,-100,-2.197265625E-5,34,21,92,81404,97186,4733,5459,16313,16266,2149,2305,Tag0,unknown
1605697272819,0,-27,-5.9326171875000005E-6,34,21,92,81404,97186,4733,5459,16313,16266,2149,2305,Tag0,unknown
1605697272848,0,-285,-6.26220703125E-5,34,21,92,81404,97186,4733,5459,16313,16266,2149,2305,Tag0,unknown
1605697272862,0,2,4.39453125E-7,34,21,92,81404,97186,4733,5459,16313,16266,2149,2305,Tag0,unknown
1605697272883,0,-443,-9.73388671875E-5,34,21,92,81404,97186,4733,5459,16313,16266,2149,2305,Tag0,unknown
1605697272895,0,-573,-1.259033203125E-4,34,21,92,81404,97186,4733,5459,16313,16266,2149,2305,Tag0,unknown
1605697272920,0,816,1.7929687499999999E-4,34,21,92,81404,97186,4733,5459,16313,16266,2149,2305,Tag0,unknown
1605697272945,0,666,1.4633789062499998E-4,34,21,92,81404,97186,4733,5459,16313,16266,2149,2305,Tag0,unknown
1605697272978,0,788,1.7314453125E-4,34,21,92,81404,97186,4733,5459,16313,16266,2149,2305,Tag0,unknown
1605697272988,0,-211,-4.63623046875E-5,34,21,92,81404,97186,4733,5459,16313,16266,2149,2305,Tag0,unknown
1605697272998,0,-584,-1.2832031250000002E-4,34,21,92,81404,97186,4733,5459,16313,16266,2149,2305,Tag0,unknown
1605697273008,0,-391,-8.591308593750001E-5,34,21,92,81404,97186,4733,5459,16313,16266,2149,2305,Tag0,unknown
1605697273025,0,-599,-1.316162109375E-4,34,21,92,81404,97186,4733,5459,16313,16266,2149,2305,Tag0,unknown
1605697273043,0,-385,-8.45947265625E-5,34,21,92,81404,97186,4733,5459,16313,16266,2149,2305,Tag0,unknown
1605697273065,0,1076,2.3642578124999998E-4,34,21,106,81404,97186,4733,5459,16313,16266,2149,2305,Tag0,unknown
1605697273080,0,1047,2.300537109375E-4,34,21,106,81404,97186,4733,5459,16313,16266,2149,2305,Tag0,unknown
1605697273099,0,464,1.01953125E-4,34,21,106,81404,97186,4733,5459,16313,16266,2149,2305,Tag0,unknown
1605697273113,0,581,1.276611328125E-4,34,21,106,81404,97186,4733,5459,16313,16266,2149,2305,Tag0,unknown
1605697273137,0,-652,-1.4326171875000002E-4,34,21,106,81404,97186,4733,5459,16313,16266,2149,2305,Tag0,unknown
1605697273147,0,-793,-1.742431640625E-4,34,21,106,81404,97186,4733,5459,16313,16266,2149,2305,Tag0,unknown
1605697273173,0,25,5.4931640625E-6,34,21,106,81404,97186,4733,5459,16313,16266,2149,2305,Tag0,unknown
1605697273183,0,477,1.048095703125E-4,34,21,123,81404,97186,4733,5459,16313,16266,2149,2305,Tag0,unknown
1605697273211,0,825,1.812744140625E-4,34,21,123,81404,97186,4733,5459,16313,16266,2149,2305,Tag0,unknown
1605697273230,0,771,1.694091796875E-4,34,21,123,81404,97186,4733,5459,16313,16266,2149,2305,Tag0,unknown
1605697273247,0,96,2.109375E-5,34,21,123,81404,97186,4733,5459,16313,16266,2149,2305,Tag0,unknown
1605697273263,0,-797,-1.751220703125E-4,34,21,123,81404,97186,4733,5459,16313,16266,2149,2305,Tag0,unknown
1605697273287,0,-210,-4.6142578125E-5,34,21,123,81404,97186,4733,5459,16313,16266,2149,2305,Tag0,unknown
1605697273297,0,-273,-5.998535156250001E-5,34,21,123,81404,97186,4733,5459,16313,16266,2149,2305,Tag0,unknown
1605697273320,0,358,7.8662109375E-5,34,21,120,81404,97186,4733,5459,16313,16266,2149,2305,Tag0,unknown
1605697273330,0,133,2.92236328125E-5,34,21,120,81404,97186,4733,5459,16313,16266,2149,2305,Tag0,unknown
1605697273340,0,182,3.9990234375E-5,34,21,120,81404,97186,4733,5459,16313,16266,2149,2305,Tag0,unknown
1605697273357,0,246,5.4052734375E-5,34,21,120,81404,97186,4733,5459,16313,16266,2149,2305,Tag0,unknown
1605697273367,0,225,4.94384765625E-5,34,21,120,81404,97186,4733,5459,16313,16266,2149,2305,Tag0,unknown
1605697273394,0,347,7.62451171875E-5,34,21,120,81404,97186,4733,5459,16313,16266,2149,2305,Tag0,unknown
1605697273413,0,-5,-1.0986328125E-6,34,21,120,81404,97186,4733,5459,16313,16266,2149,2305,Tag0,unknown
1605697273432,0,-153,-3.3618164062500004E-5,34,21,120,81404,97186,4733,5459,16313,16266,2149,2305,Tag0,unknown
1605697273447,0,-283,-6.218261718750001E-5,34,21,120,81404,97186,4733,5459,16313,16266,2149,2305,Tag0,unknown
1605697273469,0,-513,-1.127197265625E-4,53,1,120,590841,304945,16756794,16766398,82503,69217,4626,4483,Tag0,unknown
1605697273540,0,-554,-1.2172851562500001E-4,53,1,120,590841,304945,16756794,16766398,82503,69217,4626,4483,Tag0,unknown
1605697273550,0,-918,-2.01708984375E-4,53,1,120,590841,304945,16756794,16766398,82503,69217,4626,4483,Tag0,unknown
1605697273608,0,-1409,-3.0959472656250006E-4,53,1,120,590841,304945,16756794,16766398,82503,69217,4626,4483,Tag0,unknown
1605697273618,0,-2048,-4.5E-4,53,1,120,590841,304945,16756794,16766398,82503,69217,4626,4483,Tag0,unknown
1605697273675,0,-2048,-4.5E-4,53,1,120,590841,304945,16756794,16766398,82503,69217,4626,4483,Tag0,unknown
1605697273685,0,-1677,-3.6848144531249997E-4,53,1,120,590841,304945,16756794,16766398,82503,69217,4626,4483,Tag0,unknown
1605697273743,0,-1649,-3.6232910156250005E-4,53,1,120,590841,304945,16756794,16766398,82503,69217,4626,4483,Tag0,unknown
1605697273753,0,-1397,-3.0695800781249997E-4,53,1,120,590841,304945,16756794,16766398,82503,69217,4626,4483,Tag0,unknown
1605697273810,0,237,5.2075195312500004E-5,53,1,120,590841,304945,16756794,16766398,82503,69217,4626,4483,Tag0,unknown
1605697273820,0,1791,3.935302734375E-4,53,1,120,590841,304945,16756794,16766398,82503,69217,4626,4483,Tag0,unknown
1605697273878,0,1791,3.935302734375E-4,53,1,120,590841,304945,16756794,16766398,82503,69217,4626,4483,Tag0,unknown
1605697273900,0,1791,3.935302734375E-4,53,1,120,590841,304945,16756794,16766398,82503,69217,4626,4483,Tag0,unknown
1605697273945,0,1791,3.935302734375E-4,53,1,120,590841,304945,16756794,16766398,82503,69217,4626,4483,Tag0,unknown
1605697273965,0,1791,3.935302734375E-4,53,1,120,590841,304945,16756794,16766398,82503,69217,4626,4483,Tag0,unknown
1605697274012,0,1181,2.5949707031250004E-4,53,1,120,590841,304945,16756794,16766398,82503,69217,4626,4483,Tag0,unknown
1605697274032,0,1339,2.942138671875E-4,53,1,120,590841,304945,16756794,16766398,82503,69217,4626,4483,Tag0,unknown
1605697274080,0,689,1.513916015625E-4,53,1,120,590841,304945,16756794,16766398,82503,69217,4626,4483,Tag0,unknown
1605697274099,0,881,1.9357910156249998E-4,53,1,120,590841,304945,16756794,16766398,82503,69217,4626,4483,Tag0,unknown
1605697274121,0,605,1.329345703125E-4,53,1,120,590841,304945,16756794,16766398,82503,69217,4626,4483,Tag0,unknown
1605697274137,0,-323,-7.09716796875E-5,53,1,120,590841,304945,16756794,16766398,82503,69217,4626,4483,Tag0,unknown
1605697274152,0,-819,-1.799560546875E-4,53,1,120,590841,304945,16756794,16766398,82503,69217,4626,4483,Tag0,unknown
1605697274162,0,-650,-1.42822265625E-4,53,1,120,590841,304945,16756794,16766398,82503,69217,4626,4483,Tag0,unknown
1605697274173,0,-411,-9.03076171875E-5,53,1,120,590841,304945,16756794,16766398,82503,69217,4626,4483,Tag0,unknown
1605697274191,0,-1399,-3.073974609375E-4,53,1,120,590841,304945,16756794,16766398,82503,69217,4626,4483,Tag0,unknown
1605697274201,0,-1273,-2.797119140625E-4,53,1,120,590841,304945,16756794,16766398,82503,69217,4626,4483,Tag0,unknown
1605697274233,0,-805,-1.768798828125E-4,53,1,120,590841,304945,16756794,16766398,82503,69217,4626,4483,Tag0,unknown
1605697274248,0,-570,-1.25244140625E-4,53,1,120,590841,304945,16756794,16766398,82503,69217,4626,4483,Tag0,unknown
1605697274270,0,185,4.06494140625E-5,53,1,120,590841,304945,16756794,16766398,82503,69217,4626,4483,Tag0,unknown
1605697274283,0,247,5.42724609375E-5,53,1,120,590841,304945,16756794,16766398,82503,69217,4626,4483,Tag0,unknown
1605697274293,0,-87,-1.91162109375E-5,53,1,120,590841,304945,16756794,16766398,82503,69217,4626,4483,Tag0,unknown
1605697274309,0,-338,-7.426757812499999E-5,53,1,120,590841,304945,16756794,16766398,82503,69217,4626,4483,Tag0,unknown
1605697274329,0,-406,-8.920898437500001E-5,53,1,120,590841,304945,16756794,16766398,82503,69217,4626,4483,Tag0,unknown
1605697274346,0,-821,-1.803955078125E-4,53,1,120,590841,304945,16756794,16766398,82503,69217,4626,4483,Tag0,unknown
1605697274356,0,-770,-1.69189453125E-4,53,1,120,590841,304945,16756794,16766398,82503,69217,4626,4483,Tag0,unknown
1605697274377,0,195,4.28466796875E-5,53,1,105,590841,304945,16756794,16766398,82503,69217,4626,4483,Tag0,unknown
1605697274412,0,-106,-2.3291015625000003E-5,53,1,105,590841,304945,16756794,16766398,82503,69217,4626,4483,Tag0,unknown
1605697274422,0,389,8.54736328125E-5,53,1,105,590841,304945,16756794,16766398,82503,69217,4626,4483,Tag0,unknown
1605697274448,0,109,2.39501953125E-5,53,1,105,590841,304945,16756794,16766398,82503,69217,4626,4483,Tag0,unknown
1605697274467,0,-285,-6.26220703125E-5,53,1,105,590841,304945,16756794,16766398,82503,69217,4626,4483,Tag0,unknown
1605697274490,51,-331,-7.272949218750001E-5,53,1,105,1933062,181374,16765660,71620,61460,111995,84525,75710,Tag0,unknown
1605697274501,51,-91,-1.99951171875E-5,53,1,105,1933062,181374,16765660,71620,61460,111995,84525,75710,Tag0,unknown
1605697274524,51,419,9.206542968750001E-5,53,1,105,1933062,181374,16765660,71620,61460,111995,84525,75710,Tag0,unknown
1605697274535,51,802,1.7622070312500003E-4,53,1,105,1933062,181374,16765660,71620,61460,111995,84525,75710,Tag0,unknown
1605697274545,51,41,9.008789062499999E-6,53,1,105,1933062,181374,16765660,71620,61460,111995,84525,75710,Tag0,unknown
1605697274561,51,-435,-9.55810546875E-5,53,1,105,1933062,181374,16765660,71620,61460,111995,84525,75710,Tag0,unknown
1605697274571,51,-411,-9.03076171875E-5,53,1,105,1933062,181374,16765660,71620,61460,111995,84525,75710,Tag0,unknown
1605697274595,51,-233,-5.1196289062500006E-5,53,1,105,1933062,181374,16765660,71620,61460,111995,84525,75710,Tag0,unknown
1605697274605,51,-140,-3.076171875E-5,53,1,105,1933062,181374,16765660,71620,61460,111995,84525,75710,Tag0,unknown
1605697274618,51,-185,-4.06494140625E-5,53,1,105,1933062,181374,16765660,71620,61460,111995,84525,75710,Tag0,unknown
1605697274636,51,-313,-6.87744140625E-5,53,1,105,1933062,181374,16765660,71620,61460,111995,84525,75710,Tag0,unknown
1605697274652,51,-309,-6.78955078125E-5,53,1,105,1933062,181374,16765660,71620,61460,111995,84525,75710,Tag0,unknown
1605697274670,51,372,8.173828125E-5,53,1,105,1933062,181374,16765660,71620,61460,111995,84525,75710,Tag0,unknown
1605697274686,51,325,7.14111328125E-5,53,1,105,1933062,181374,16765660,71620,61460,111995,84525,75710,Tag0,unknown
1605697274707,51,-109,-2.39501953125E-5,53,1,105,1933062,181374,16765660,71620,61460,111995,84525,75710,Tag0,unknown
1605697274718,51,81,1.77978515625E-5,53,1,105,1933062,181374,16765660,71620,61460,111995,84525,75710,Tag0,unknown
1605697274741,51,-374,-8.2177734375E-5,53,1,105,1933062,181374,16765660,71620,61460,111995,84525,75710,Tag0,unknown
1605697274752,51,-157,-3.44970703125E-5,53,1,105,1933062,181374,16765660,71620,61460,111995,84525,75710,Tag0,unknown
1605697274762,51,-289,-6.35009765625E-5,53,1,105,1933062,181374,16765660,71620,61460,111995,84525,75710,Tag0,unknown
1605697274781,51,346,7.6025390625E-5,53,1,105,1933062,181374,16765660,71620,61460,111995,84525,75710,Tag0,unknown
1605697274801,51,523,1.149169921875E-4,53,1,105,1933062,181374,16765660,71620,61460,111995,84525,75710,Tag0,unknown
1605697274818,51,875,1.922607421875E-4,53,1,105,1933062,181374,16765660,71620,61460,111995,84525,75710,Tag0,unknown
1605697274835,51,28,6.15234375E-6,53,1,105,1933062,181374,16765660,71620,61460,111995,84525,75710,Tag0,unknown
1605697274860,51,-1047,-2.300537109375E-4,53,1,105,1933062,181374,16765660,71620,61460,111995,84525,75710,Tag0,unknown
1605697274870,51,-919,-2.0192871093750001E-4,53,1,105,1933062,181374,16765660,71620,61460,111995,84525,75710,Tag0,unknown
1605697274901,51,234,5.1416015624999996E-5,53,1,105,1933062,181374,16765660,71620,61460,111995,84525,75710,Tag0,unknown
1605697274918,51,555,1.219482421875E-4,53,1,105,1933062,181374,16765660,71620,61460,111995,84525,75710,Tag0,unknown
1605697274935,51,375,8.23974609375E-5,53,1,105,1933062,181374,16765660,71620,61460,111995,84525,75710,Tag0,unknown
1605697274961,51,58,1.2744140625E-5,53,1,105,1933062,181374,16765660,71620,61460,111995,84525,75710,Tag0,unknown
1605697274971,51,-104,-2.28515625E-5,53,1,105,1933062,181374,16765660,71620,61460,111995,84525,75710,Tag0,unknown
1605697275000,51,-183,-4.02099609375E-5,53,1,105,1933062,181374,16765660,71620,61460,111995,84525,75710,Tag0,unknown
1605697275019,51,-547,-1.201904296875E-4,53,1,105,1933062,181374,16765660,71620,61460,111995,84525,75710,Tag0,unknown
1605697275037,51,-213,-4.68017578125E-5,53,1,105,1933062,181374,16765660,71620,61460,111995,84525,75710,Tag0,unknown
1605697275047,51,-376,-8.261718750000001E-5,53,1,105,1933062,181374,16765660,71620,61460,111995,84525,75710,Tag0,unknown
1605697275057,51,65,1.42822265625E-5,53,1,105,1933062,181374,16765660,71620,61460,111995,84525,75710,Tag0,unknown
1605697275072,51,272,5.9765625000000004E-5,53,1,105,1933062,181374,16765660,71620,61460,111995,84525,75710,Tag0,unknown
1605697275108,51,-8,-1.7578125E-6,53,1,105,1933062,181374,16765660,71620,61460,111995,84525,75710,Tag0,unknown
1605697275118,51,260,5.712890625E-5,53,1,105,1933062,181374,16765660,71620,61460,111995,84525,75710,Tag0,unknown
1605697275145,51,-151,-3.31787109375E-5,53,1,105,1933062,181374,16765660,71620,61460,111995,84525,75710,Tag0,unknown
1605697275155,51,-305,-6.70166015625E-5,53,1,105,1933062,181374,16765660,71620,61460,111995,84525,75710,Tag0,unknown
1605697275178,51,11,2.4169921875E-6,53,1,105,1933062,181374,16765660,71620,61460,111995,84525,75710,Tag0,unknown
1605697275188,51,-95,-2.08740234375E-5,53,1,105,1933062,181374,16765660,71620,61460,111995,84525,75710,Tag0,unknown
1605697275198,51,173,3.80126953125E-5,53,1,105,1933062,181374,16765660,71620,61460,111995,84525,75710,Tag0,unknown
1605697275217,51,-301,-6.613769531250001E-5,53,1,105,1933062,181374,16765660,71620,61460,111995,84525,75710,Tag0,unknown
1605697275236,51,-179,-3.93310546875E-5,53,1,105,1933062,181374,16765660,71620,61460,111995,84525,75710,Tag0,unknown
1605697275253,51,-295,-6.48193359375E-5,53,1,105,1933062,181374,16765660,71620,61460,111995,84525,75710,Tag0,unknown
1605697275270,51,69,1.51611328125E-5,53,1,105,1933062,181374,16765660,71620,61460,111995,84525,75710,Tag0,unknown
1605697275293,51,315,6.92138671875E-5,53,1,105,1933062,181374,16765660,71620,61460,111995,84525,75710,Tag0,unknown
1605697275304,51,304,6.6796875E-5,53,1,105,1933062,181374,16765660,71620,61460,111995,84525,75710,Tag0,unknown
1605697275327,51,197,4.32861328125E-5,53,1,105,1933062,181374,16765660,71620,61460,111995,84525,75710,Tag0,unknown
1605697275340,51,181,3.9770507812500004E-5,53,1,105,1933062,181374,16765660,71620,61460,111995,84525,75710,Tag0,unknown
1605697275365,51,-195,-4.28466796875E-5,53,1,105,1933062,181374,16765660,71620,61460,111995,84525,75710,Tag0,unknown
1605697275400,51,-445,-9.77783203125E-5,53,1,105,1933062,181374,16765660,71620,61460,111995,84525,75710,Tag0,unknown
1605697275420,51,-396,-8.701171875000001E-5,53,1,105,1933062,181374,16765660,71620,61460,111995,84525,75710,Tag0,unknown
1605697275437,51,-145,-3.18603515625E-5,53,1,105,1933062,181374,16765660,71620,61460,111995,84525,75710,Tag0,unknown
1605697275456,51,-169,-3.7133789062499996E-5,53,1,105,1933062,181374,16765660,71620,61460,111995,84525,75710,Tag0,unknown
1605697275483,0,525,1.153564453125E-4,48,29,105,584319,16756169,16923,22550,7084,9891,2086,1099,Tag0,unknown
1605697275508,0,426,9.3603515625E-5,48,29,105,584319,16756169,16923,22550,7084,9891,2086,1099,Tag0,unknown
