,timestampMs,poorSignal,eegRawValue,eegRawValueVolts,attention,meditation,blinkStrength,delta,theta,alphaLow,alphaHigh,betaLow,betaHigh,gammaLow,gammaMid,tagEvent,location
0,1611470757030,51,61,1.34033203125e-05,97,48,85,413945,422187,16775982,80074,16774063,84317,19443,33537,Tag0,unknown
1,1611470757040,51,64,1.40625e-05,97,48,85,413945,422187,16775982,80074,16774063,84317,19443,33537,Tag0,unknown
2,1611470757098,51,37,8.1298828125e-06,97,48,85,413945,422187,16775982,80074,16774063,84317,19443,33537,Tag0,unknown
3,1611470757165,51,59,1.29638671875e-05,97,48,85,413945,422187,16775982,80074,16774063,84317,19443,33537,Tag0,unknown
4,1611470757233,51,-381,-8.371582031250001e-05,97,48,85,413945,422187,16775982,80074,16774063,84317,19443,33537,Tag0,unknown
5,1611470757303,51,49,1.07666015625e-05,97,48,85,413945,422187,16775982,80074,16774063,84317,19443,33537,Tag0,unknown
6,1611470757370,51,32,7.03125e-06,97,48,85,413945,422187,16775982,80074,16774063,84317,19443,33537,Tag0,unknown
7,1611470757438,51,27,5.932617187500001e-06,97,48,85,413945,422187,16775982,80074,16774063,84317,19443,33537,Tag0,unknown
8,1611470757489,51,-259,-5.69091796875e-05,97,48,85,413945,422187,16775982,80074,16774063,84317,19443,33537,Tag0,unknown
9,1611470757506,51,-296,-6.50390625e-05,97,48,85,413945,422187,16775982,80074,16774063,84317,19443,33537,Tag0,unknown
10,1611470757551,51,-314,-6.8994140625e-05,97,48,85,413945,422187,16775982,80074,16774063,84317,19443,33537,Tag0,unknown
11,1611470757573,51,198,4.350585937500001e-05,97,48,85,413945,422187,16775982,80074,16774063,84317,19443,33537,Tag0,unknown
12,1611470757611,51,-2048,-0.00045,97,48,85,413945,422187,16775982,80074,16774063,84317,19443,33537,Tag0,unknown
13,1611470757623,51,-2048,-0.00045,97,48,85,413945,422187,16775982,80074,16774063,84317,19443,33537,Tag0,unknown
14,1611470757690,25,-797,-0.0001751220703125,97,48,85,2032634,1571163,545754,216829,197800,145207,57774,160091,Tag0,unknown
15,1611470757731,25,-365,-8.02001953125e-05,97,48,85,2032634,1571163,545754,216829,197800,145207,57774,160091,Tag0,unknown
16,1611470757741,25,-331,-7.272949218750001e-05,97,48,85,2032634,1571163,545754,216829,197800,145207,57774,160091,Tag0,unknown
17,1611470757791,25,274,6.0205078125e-05,97,48,85,2032634,1571163,545754,216829,197800,145207,57774,160091,Tag0,unknown
18,1611470757807,25,1351,0.0002968505859375,97,48,85,2032634,1571163,545754,216829,197800,145207,57774,160091,Tag0,unknown
19,1611470757824,25,1377,0.0003025634765625,97,48,85,2032634,1571163,545754,216829,197800,145207,57774,160091,Tag0,unknown
20,1611470757856,25,1267,0.0002783935546875,97,48,85,2032634,1571163,545754,216829,197800,145207,57774,160091,Tag0,unknown
21,1611470757874,25,1653,0.0003632080078125,97,48,85,2032634,1571163,545754,216829,197800,145207,57774,160091,Tag0,unknown
22,1611470757913,25,1381,0.00030344238281250003,97,48,85,2032634,1571163,545754,216829,197800,145207,57774,160091,Tag0,unknown
23,1611470757924,25,1222,0.000268505859375,97,48,85,2032634,1571163,545754,216829,197800,145207,57774,160091,Tag0,unknown
24,1611470757940,25,550,0.000120849609375,97,48,85,2032634,1571163,545754,216829,197800,145207,57774,160091,Tag0,unknown
25,1611470757972,25,61,1.34033203125e-05,97,48,85,2032634,1571163,545754,216829,197800,145207,57774,160091,Tag0,unknown
26,1611470757991,25,-60,-1.318359375e-05,97,48,85,2032634,1571163,545754,216829,197800,145207,57774,160091,Tag0,unknown
27,1611470758029,25,386,8.481445312500001e-05,97,48,85,2032634,1571163,545754,216829,197800,145207,57774,160091,Tag0,unknown
28,1611470758041,25,529,0.0001162353515625,97,48,85,2032634,1571163,545754,216829,197800,145207,57774,160091,Tag0,unknown
29,1611470758087,25,177,3.889160156250001e-05,97,48,85,2032634,1571163,545754,216829,197800,145207,57774,160091,Tag0,unknown
30,1611470758107,25,283,6.218261718750001e-05,97,48,85,2032634,1571163,545754,216829,197800,145207,57774,160091,Tag0,unknown
31,1611470758147,25,-3,-6.591796875e-07,97,48,85,2032634,1571163,545754,216829,197800,145207,57774,160091,Tag0,unknown
32,1611470758157,25,49,1.07666015625e-05,97,48,85,2032634,1571163,545754,216829,197800,145207,57774,160091,Tag0,unknown
33,1611470758204,25,281,6.17431640625e-05,97,48,85,2032634,1571163,545754,216829,197800,145207,57774,160091,Tag0,unknown
34,1611470758224,25,257,5.64697265625e-05,97,48,85,2032634,1571163,545754,216829,197800,145207,57774,160091,Tag0,unknown
35,1611470758262,25,-56,-1.23046875e-05,97,48,85,2032634,1571163,545754,216829,197800,145207,57774,160091,Tag0,unknown
36,1611470758274,25,-8,-1.7578125e-06,97,48,85,2032634,1571163,545754,216829,197800,145207,57774,160091,Tag0,unknown
37,1611470758312,25,93,2.04345703125e-05,97,48,85,2032634,1571163,545754,216829,197800,145207,57774,160091,Tag0,unknown
38,1611470758324,25,-64,-1.40625e-05,97,48,85,2032634,1571163,545754,216829,197800,145207,57774,160091,Tag0,unknown
39,1611470758349,25,-182,-3.9990234375e-05,97,48,85,2032634,1571163,545754,216829,197800,145207,57774,160091,Tag0,unknown
40,1611470758359,25,-131,-2.87841796875e-05,97,48,85,2032634,1571163,545754,216829,197800,145207,57774,160091,Tag0,unknown
41,1611470758383,25,-159,-3.49365234375e-05,97,48,85,2032634,1571163,545754,216829,197800,145207,57774,160091,Tag0,unknown
42,1611470758393,25,730,0.000160400390625,97,48,85,2032634,1571163,545754,216829,197800,145207,57774,160091,Tag0,unknown
43,1611470758419,25,-2048,-0.00045,97,48,85,2032634,1571163,545754,216829,197800,145207,57774,160091,Tag0,unknown
44,1611470758453,25,-1894,-0.000416162109375,97,48,85,2032634,1571163,545754,216829,197800,145207,57774,160091,Tag0,unknown
45,1611470758475,25,235,5.16357421875e-05,97,48,85,2032634,1571163,545754,216829,197800,145207,57774,160091,Tag0,unknown
46,1611470758492,25,-247,-5.42724609375e-05,97,48,85,2032634,1571163,545754,216829,197800,145207,57774,160091,Tag0,unknown
47,1611470758508,25,-181,-3.97705078125e-05,97,48,85,2032634,1571163,545754,216829,197800,145207,57774,160091,Tag0,unknown
48,1611470758526,25,145,3.18603515625e-05,97,48,85,2032634,1571163,545754,216829,197800,145207,57774,160091,Tag0,unknown
49,1611470758542,25,161,3.53759765625e-05,97,48,85,2032634,1571163,545754,216829,197800,145207,57774,160091,Tag0,unknown
50,1611470758566,25,384,8.4375e-05,97,48,85,2032634,1571163,545754,216829,197800,145207,57774,160091,Tag0,unknown
51,1611470758576,25,809,0.0001777587890625,97,48,85,2032634,1571163,545754,216829,197800,145207,57774,160091,Tag0,unknown
52,1611470758599,25,869,0.0001909423828125,97,48,85,2032634,1571163,545754,216829,197800,145207,57774,160091,Tag0,unknown
53,1611470758609,25,474,0.000104150390625,97,48,85,2032634,1571163,545754,216829,197800,145207,57774,160091,Tag0,unknown
54,1611470758639,25,334,7.338867187500001e-05,97,48,85,2032634,1571163,545754,216829,197800,145207,57774,160091,Tag0,unknown
55,1611470758660,26,179,3.93310546875e-05,97,48,85,1252610,156645,18962,12623,27677,19632,16754411,21371,Tag0,unknown
56,1611470758679,26,65,1.42822265625e-05,97,48,85,1252610,156645,18962,12623,27677,19632,16754411,21371,Tag0,unknown
57,1611470758692,26,-150,-3.2958984375e-05,97,48,85,1252610,156645,18962,12623,27677,19632,16754411,21371,Tag0,unknown
58,1611470758713,26,-69,-1.51611328125e-05,97,48,85,1252610,156645,18962,12623,27677,19632,16754411,21371,Tag0,unknown
59,1611470758725,26,-67,-1.4721679687500003e-05,97,48,85,1252610,156645,18962,12623,27677,19632,16754411,21371,Tag0,unknown
60,1611470758751,26,256,5.625e-05,97,48,85,1252610,156645,18962,12623,27677,19632,16754411,21371,Tag0,unknown
61,1611470758784,26,332,7.294921875e-05,97,48,85,1252610,156645,18962,12623,27677,19632,16754411,21371,Tag0,unknown
62,1611470758794,26,-344,-7.558593750000001e-05,97,48,85,1252610,156645,18962,12623,27677,19632,16754411,21371,Tag0,unknown
63,1611470758809,26,128,2.8125e-05,97,48,85,1252610,156645,18962,12623,27677,19632,16754411,21371,Tag0,unknown
64,1611470758826,26,105,2.30712890625e-05,97,48,85,1252610,156645,18962,12623,27677,19632,16754411,21371,Tag0,unknown
65,1611470758842,26,-184,-4.04296875e-05,97,48,85,1252610,156645,18962,12623,27677,19632,16754411,21371,Tag0,unknown
66,1611470758862,26,-170,-3.7353515625e-05,97,48,85,1252610,156645,18962,12623,27677,19632,16754411,21371,Tag0,unknown
67,1611470758875,26,-347,-7.62451171875e-05,97,48,85,1252610,156645,18962,12623,27677,19632,16754411,21371,Tag0,unknown
68,1611470758898,26,59,1.29638671875e-05,97,48,85,1252610,156645,18962,12623,27677,19632,16754411,21371,Tag0,unknown
69,1611470758909,26,50,1.0986328125e-05,97,48,85,1252610,156645,18962,12623,27677,19632,16754411,21371,Tag0,unknown
70,1611470758932,26,-16,-3.515625e-06,97,48,85,1252610,156645,18962,12623,27677,19632,16754411,21371,Tag0,unknown
71,1611470758942,26,-93,-2.04345703125e-05,97,48,85,1252610,156645,18962,12623,27677,19632,16754411,21371,Tag0,unknown
72,1611470758971,26,-327,-7.18505859375e-05,97,48,85,1252610,156645,18962,12623,27677,19632,16754411,21371,Tag0,unknown
73,1611470759004,26,32,7.03125e-06,97,48,85,1252610,156645,18962,12623,27677,19632,16754411,21371,Tag0,unknown
74,1611470759026,26,-285,-6.26220703125e-05,97,48,85,1252610,156645,18962,12623,27677,19632,16754411,21371,Tag0,unknown
75,1611470759048,26,-176,-3.8671875e-05,97,48,85,1252610,156645,18962,12623,27677,19632,16754411,21371,Tag0,unknown
76,1611470759060,26,-243,-5.33935546875e-05,97,48,85,1252610,156645,18962,12623,27677,19632,16754411,21371,Tag0,unknown
77,1611470759082,26,23,5.0537109375e-06,97,48,85,1252610,156645,18962,12623,27677,19632,16754411,21371,Tag0,unknown
78,1611470759093,26,59,1.29638671875e-05,97,48,85,1252610,156645,18962,12623,27677,19632,16754411,21371,Tag0,unknown
79,1611470759118,26,-203,-4.4604492187500014e-05,97,48,85,1252610,156645,18962,12623,27677,19632,16754411,21371,Tag0,unknown
80,1611470759128,26,-145,-3.18603515625e-05,97,48,85,1252610,156645,18962,12623,27677,19632,16754411,21371,Tag0,unknown
81,1611470759143,26,297,6.525878906250001e-05,97,48,85,1252610,156645,18962,12623,27677,19632,16754411,21371,Tag0,unknown
82,1611470759183,26,-327,-7.18505859375e-05,97,48,85,1252610,156645,18962,12623,27677,19632,16754411,21371,Tag0,unknown
83,1611470759193,26,-277,-6.086425781250001e-05,97,48,85,1252610,156645,18962,12623,27677,19632,16754411,21371,Tag0,unknown
84,1611470759241,26,54,1.1865234375e-05,97,48,85,1252610,156645,18962,12623,27677,19632,16754411,21371,Tag0,unknown
85,1611470759260,26,83,1.82373046875e-05,97,48,85,1252610,156645,18962,12623,27677,19632,16754411,21371,Tag0,unknown
86,1611470759298,26,39,8.5693359375e-06,97,48,85,1252610,156645,18962,12623,27677,19632,16754411,21371,Tag0,unknown
87,1611470759310,26,-293,-6.43798828125e-05,97,48,85,1252610,156645,18962,12623,27677,19632,16754411,21371,Tag0,unknown
88,1611470759358,26,-277,-6.086425781250001e-05,97,48,85,1252610,156645,18962,12623,27677,19632,16754411,21371,Tag0,unknown
89,1611470759376,26,185,4.06494140625e-05,97,48,85,1252610,156645,18962,12623,27677,19632,16754411,21371,Tag0,unknown
90,1611470759409,26,-341,-7.492675781250003e-05,97,48,85,1252610,156645,18962,12623,27677,19632,16754411,21371,Tag0,unknown
91,1611470759427,26,17,3.7353515625e-06,97,48,85,1252610,156645,18962,12623,27677,19632,16754411,21371,Tag0,unknown
92,1611470759443,26,-7,-1.5380859375e-06,97,48,85,1252610,156645,18962,12623,27677,19632,16754411,21371,Tag0,unknown
93,1611470759467,26,-313,-6.87744140625e-05,97,48,85,1252610,156645,18962,12623,27677,19632,16754411,21371,Tag0,unknown
94,1611470759477,26,117,2.57080078125e-05,97,48,85,1252610,156645,18962,12623,27677,19632,16754411,21371,Tag0,unknown
95,1611470759507,26,5,1.0986328125e-06,97,48,85,1252610,156645,18962,12623,27677,19632,16754411,21371,Tag0,unknown
96,1611470759527,26,-112,-2.4609375e-05,97,48,85,1252610,156645,18962,12623,27677,19632,16754411,21371,Tag0,unknown
97,1611470759558,26,-117,-2.57080078125e-05,97,48,85,1252610,156645,18962,12623,27677,19632,16754411,21371,Tag0,unknown
98,1611470759577,26,311,6.833496093750001e-05,97,48,85,1252610,156645,18962,12623,27677,19632,16754411,21371,Tag0,unknown
99,1611470759594,26,113,2.48291015625e-05,97,48,56,1252610,156645,18962,12623,27677,19632,16754411,21371,Tag0,unknown
100,1611470759611,26,-125,-2.74658203125e-05,97,48,56,1252610,156645,18962,12623,27677,19632,16754411,21371,Tag0,unknown
101,1611470759628,26,-78,-1.7138671875e-05,97,48,56,1252610,156645,18962,12623,27677,19632,16754411,21371,Tag0,unknown
102,1611470759644,26,-56,-1.23046875e-05,97,48,56,1252610,156645,18962,12623,27677,19632,16754411,21371,Tag0,unknown
103,1611470759663,0,118,2.5927734375e-05,96,50,56,1767100,301263,16745170,97934,34158,16771985,16759164,28871,Tag0,unknown
104,1611470759695,0,-289,-6.35009765625e-05,96,50,56,1767100,301263,16745170,97934,34158,16771985,16759164,28871,Tag0,unknown
105,1611470759711,0,-315,-6.92138671875e-05,96,50,56,1767100,301263,16745170,97934,34158,16771985,16759164,28871,Tag0,unknown
106,1611470759753,0,-107,-2.35107421875e-05,96,50,56,1767100,301263,16745170,97934,34158,16771985,16759164,28871,Tag0,unknown
107,1611470759763,0,100,2.197265625e-05,96,50,38,1767100,301263,16745170,97934,34158,16771985,16759164,28871,Tag0,unknown
108,1611470759812,0,-107,-2.35107421875e-05,96,50,38,1767100,301263,16745170,97934,34158,16771985,16759164,28871,Tag0,unknown
109,1611470759827,0,-80,-1.7578125e-05,96,50,38,1767100,301263,16745170,97934,34158,16771985,16759164,28871,Tag0,unknown
110,1611470759868,0,100,2.197265625e-05,96,50,38,1767100,301263,16745170,97934,34158,16771985,16759164,28871,Tag0,unknown
111,1611470759887,0,-51,-1.12060546875e-05,96,50,38,1767100,301263,16745170,97934,34158,16771985,16759164,28871,Tag0,unknown
112,1611470759897,0,-369,-8.10791015625e-05,96,50,38,1767100,301263,16745170,97934,34158,16771985,16759164,28871,Tag0,unknown
113,1611470759912,0,121,2.6586914062500006e-05,96,50,38,1767100,301263,16745170,97934,34158,16771985,16759164,28871,Tag0,unknown
114,1611470759922,0,51,1.12060546875e-05,96,50,44,1767100,301263,16745170,97934,34158,16771985,16759164,28871,Tag0,unknown
115,1611470759933,0,265,5.82275390625e-05,96,50,44,1767100,301263,16745170,97934,34158,16771985,16759164,28871,Tag0,unknown
116,1611470759949,0,99,2.1752929687500006e-05,96,50,44,1767100,301263,16745170,97934,34158,16771985,16759164,28871,Tag0,unknown
117,1611470759972,0,99,2.1752929687500006e-05,96,50,44,1767100,301263,16745170,97934,34158,16771985,16759164,28871,Tag0,unknown
118,1611470759983,0,67,1.4721679687500003e-05,96,50,44,1767100,301263,16745170,97934,34158,16771985,16759164,28871,Tag0,unknown
119,1611470759993,0,-263,-5.778808593750001e-05,96,50,44,1767100,301263,16745170,97934,34158,16771985,16759164,28871,Tag0,unknown
120,1611470760003,0,-363,-7.97607421875e-05,96,50,44,1767100,301263,16745170,97934,34158,16771985,16759164,28871,Tag0,unknown
121,1611470760016,0,71,1.56005859375e-05,96,50,44,1767100,301263,16745170,97934,34158,16771985,16759164,28871,Tag0,unknown
122,1611470760030,0,-306,-6.723632812500001e-05,96,50,44,1767100,301263,16745170,97934,34158,16771985,16759164,28871,Tag0,unknown
123,1611470760046,0,17,3.7353515625e-06,96,50,44,1767100,301263,16745170,97934,34158,16771985,16759164,28871,Tag0,unknown
124,1611470760063,0,-132,-2.900390625e-05,96,50,44,1767100,301263,16745170,97934,34158,16771985,16759164,28871,Tag0,unknown
125,1611470760081,0,353,7.75634765625e-05,96,50,44,1767100,301263,16745170,97934,34158,16771985,16759164,28871,Tag0,unknown
126,1611470760096,0,-241,-5.29541015625e-05,96,50,44,1767100,301263,16745170,97934,34158,16771985,16759164,28871,Tag0,unknown
127,1611470760116,0,-1384,-0.0003041015625,96,50,44,1767100,301263,16745170,97934,34158,16771985,16759164,28871,Tag0,unknown
128,1611470760131,0,-1309,-0.00028762207031250004,96,50,44,1767100,301263,16745170,97934,34158,16771985,16759164,28871,Tag0,unknown
129,1611470760157,0,52,1.142578125e-05,96,50,44,1767100,301263,16745170,97934,34158,16771985,16759164,28871,Tag0,unknown
130,1611470760167,0,104,2.28515625e-05,96,50,44,1767100,301263,16745170,97934,34158,16771985,16759164,28871,Tag0,unknown
131,1611470760181,0,375,8.23974609375e-05,96,50,44,1767100,301263,16745170,97934,34158,16771985,16759164,28871,Tag0,unknown
132,1611470760200,0,311,6.833496093750001e-05,96,50,44,1767100,301263,16745170,97934,34158,16771985,16759164,28871,Tag0,unknown
133,1611470760210,0,289,6.35009765625e-05,96,50,44,1767100,301263,16745170,97934,34158,16771985,16759164,28871,Tag0,unknown
134,1611470760229,0,-119,-2.6147460937500007e-05,96,50,44,1767100,301263,16745170,97934,34158,16771985,16759164,28871,Tag0,unknown
135,1611470760246,0,-313,-6.87744140625e-05,96,50,44,1767100,301263,16745170,97934,34158,16771985,16759164,28871,Tag0,unknown
136,1611470760263,0,296,6.50390625e-05,96,50,44,1767100,301263,16745170,97934,34158,16771985,16759164,28871,Tag0,unknown
137,1611470760280,0,-9,-1.9775390625e-06,96,50,44,1767100,301263,16745170,97934,34158,16771985,16759164,28871,Tag0,unknown
138,1611470760290,0,-32,-7.03125e-06,96,50,44,1767100,301263,16745170,97934,34158,16771985,16759164,28871,Tag0,unknown
139,1611470760303,0,-317,-6.96533203125e-05,96,50,44,1767100,301263,16745170,97934,34158,16771985,16759164,28871,Tag0,unknown
140,1611470760315,0,-261,-5.73486328125e-05,96,50,44,1767100,301263,16745170,97934,34158,16771985,16759164,28871,Tag0,unknown
141,1611470760337,0,326,7.163085937500001e-05,96,50,44,1767100,301263,16745170,97934,34158,16771985,16759164,28871,Tag0,unknown
142,1611470760348,0,120,2.63671875e-05,96,50,44,1767100,301263,16745170,97934,34158,16771985,16759164,28871,Tag0,unknown
143,1611470760373,0,256,5.625e-05,96,50,44,1767100,301263,16745170,97934,34158,16771985,16759164,28871,Tag0,unknown
144,1611470760383,0,-137,-3.01025390625e-05,96,50,44,1767100,301263,16745170,97934,34158,16771985,16759164,28871,Tag0,unknown
145,1611470760406,0,75,1.64794921875e-05,96,50,44,1767100,301263,16745170,97934,34158,16771985,16759164,28871,Tag0,unknown
146,1611470760429,0,-31,-6.8115234375e-06,96,50,44,1767100,301263,16745170,97934,34158,16771985,16759164,28871,Tag0,unknown
147,1611470760446,0,-333,-7.316894531249999e-05,96,50,44,1767100,301263,16745170,97934,34158,16771985,16759164,28871,Tag0,unknown
148,1611470760464,0,-377,-8.28369140625e-05,96,50,44,1767100,301263,16745170,97934,34158,16771985,16759164,28871,Tag0,unknown
149,1611470760482,0,-78,-1.7138671875e-05,96,50,44,1767100,301263,16745170,97934,34158,16771985,16759164,28871,Tag0,unknown
150,1611470760498,0,-21,-4.614257812500002e-06,96,50,44,1767100,301263,16745170,97934,34158,16771985,16759164,28871,Tag0,unknown
151,1611470760508,0,-128,-2.8125e-05,96,50,44,1767100,301263,16745170,97934,34158,16771985,16759164,28871,Tag0,unknown
152,1611470760521,0,-291,-6.39404296875e-05,96,50,44,1767100,301263,16745170,97934,34158,16771985,16759164,28871,Tag0,unknown
153,1611470760532,0,-168,-3.6914062500000014e-05,96,50,44,1767100,301263,16745170,97934,34158,16771985,16759164,28871,Tag0,unknown
154,1611470760556,0,123,2.70263671875e-05,96,50,44,1767100,301263,16745170,97934,34158,16771985,16759164,28871,Tag0,unknown
155,1611470760568,0,98,2.1533203125e-05,96,50,44,1767100,301263,16745170,97934,34158,16771985,16759164,28871,Tag0,unknown
156,1611470760578,0,-333,-7.316894531249999e-05,96,50,44,1767100,301263,16745170,97934,34158,16771985,16759164,28871,Tag0,unknown
157,1611470760588,0,69,1.51611328125e-05,96,50,44,1767100,301263,16745170,97934,34158,16771985,16759164,28871,Tag0,unknown
158,1611470760599,0,61,1.34033203125e-05,96,50,44,1767100,301263,16745170,97934,34158,16771985,16759164,28871,Tag0,unknown
159,1611470760627,0,-331,-7.272949218750001e-05,96,50,44,1767100,301263,16745170,97934,34158,16771985,16759164,28871,Tag0,unknown
160,1611470760648,0,-345,-7.58056640625e-05,96,50,44,1767100,301263,16745170,97934,34158,16771985,16759164,28871,Tag0,unknown
161,1611470760668,0,102,2.2412109375e-05,100,54,44,41315,9714,8509,2464,9962,9013,922,387,Tag0,unknown
162,1611470760683,0,23,5.0537109375e-06,100,54,44,41315,9714,8509,2464,9962,9013,922,387,Tag0,unknown
163,1611470760693,0,-79,-1.7358398437500006e-05,100,54,44,41315,9714,8509,2464,9962,9013,922,387,Tag0,unknown
164,1611470760708,0,90,1.9775390625e-05,100,54,44,41315,9714,8509,2464,9962,9013,922,387,Tag0,unknown
165,1611470760718,0,-354,-7.778320312500001e-05,100,54,44,41315,9714,8509,2464,9962,9013,922,387,Tag0,unknown
166,1611470760741,0,-87,-1.91162109375e-05,100,54,49,41315,9714,8509,2464,9962,9013,922,387,Tag0,unknown
167,1611470760751,0,87,1.91162109375e-05,100,54,49,41315,9714,8509,2464,9962,9013,922,387,Tag0,unknown
168,1611470760761,0,-88,-1.93359375e-05,100,54,49,41315,9714,8509,2464,9962,9013,922,387,Tag0,unknown
169,1611470760771,0,103,2.26318359375e-05,100,54,49,41315,9714,8509,2464,9962,9013,922,387,Tag0,unknown
170,1611470760784,0,84,1.8457031250000007e-05,100,54,49,41315,9714,8509,2464,9962,9013,922,387,Tag0,unknown
171,1611470760800,0,-106,-2.3291015625000006e-05,100,54,49,41315,9714,8509,2464,9962,9013,922,387,Tag0,unknown
172,1611470760818,0,-76,-1.669921875e-05,100,54,49,41315,9714,8509,2464,9962,9013,922,387,Tag0,unknown
173,1611470760834,0,73,1.6040039062500002e-05,100,54,49,41315,9714,8509,2464,9962,9013,922,387,Tag0,unknown
174,1611470760844,0,-290,-6.3720703125e-05,100,54,49,41315,9714,8509,2464,9962,9013,922,387,Tag0,unknown
175,1611470760873,0,-289,-6.35009765625e-05,100,54,49,41315,9714,8509,2464,9962,9013,922,387,Tag0,unknown
176,1611470760886,0,-129,-2.83447265625e-05,100,54,49,41315,9714,8509,2464,9962,9013,922,387,Tag0,unknown
177,1611470760896,0,-35,-7.6904296875e-06,100,54,49,41315,9714,8509,2464,9962,9013,922,387,Tag0,unknown
178,1611470760913,0,-309,-6.78955078125e-05,100,54,42,41315,9714,8509,2464,9962,9013,922,387,Tag0,unknown
179,1611470760934,0,51,1.12060546875e-05,100,54,42,41315,9714,8509,2464,9962,9013,922,387,Tag0,unknown
180,1611470760944,0,-87,-1.91162109375e-05,100,54,42,41315,9714,8509,2464,9962,9013,922,387,Tag0,unknown
181,1611470760960,0,-257,-5.64697265625e-05,100,54,42,41315,9714,8509,2464,9962,9013,922,387,Tag0,unknown
182,1611470760970,0,23,5.0537109375e-06,100,54,42,41315,9714,8509,2464,9962,9013,922,387,Tag0,unknown
183,1611470760985,0,-27,-5.932617187500001e-06,100,54,42,41315,9714,8509,2464,9962,9013,922,387,Tag0,unknown
184,1611470760995,0,85,1.86767578125e-05,100,54,42,41315,9714,8509,2464,9962,9013,922,387,Tag0,unknown
185,1611470761005,0,-263,-5.778808593750001e-05,100,54,42,41315,9714,8509,2464,9962,9013,922,387,Tag0,unknown
186,1611470761034,0,-90,-1.9775390625e-05,100,54,42,41315,9714,8509,2464,9962,9013,922,387,Tag0,unknown
187,1611470761048,0,-45,-9.8876953125e-06,100,54,42,41315,9714,8509,2464,9962,9013,922,387,Tag0,unknown
188,1611470761087,0,72,1.58203125e-05,100,54,42,41315,9714,8509,2464,9962,9013,922,387,Tag0,unknown
189,1611470761103,0,59,1.29638671875e-05,100,54,42,41315,9714,8509,2464,9962,9013,922,387,Tag0,unknown
190,1611470761113,0,-79,-1.7358398437500006e-05,100,54,42,41315,9714,8509,2464,9962,9013,922,387,Tag0,unknown
191,1611470761123,0,48,1.0546875e-05,100,54,42,41315,9714,8509,2464,9962,9013,922,387,Tag0,unknown
192,1611470761133,0,-265,-5.82275390625e-05,100,54,42,41315,9714,8509,2464,9962,9013,922,387,Tag0,unknown
193,1611470761157,0,272,5.9765625e-05,100,54,42,41315,9714,8509,2464,9962,9013,922,387,Tag0,unknown
194,1611470761168,0,281,6.17431640625e-05,100,54,42,41315,9714,8509,2464,9962,9013,922,387,Tag0,unknown
195,1611470761178,0,57,1.25244140625e-05,100,54,42,41315,9714,8509,2464,9962,9013,922,387,Tag0,unknown
196,1611470761193,0,-83,-1.82373046875e-05,100,54,42,41315,9714,8509,2464,9962,9013,922,387,Tag0,unknown
197,1611470761203,0,98,2.1533203125e-05,100,54,42,41315,9714,8509,2464,9962,9013,922,387,Tag0,unknown
198,1611470761226,0,83,1.82373046875e-05,100,54,42,41315,9714,8509,2464,9962,9013,922,387,Tag0,unknown
199,1611470761236,0,53,1.1645507812500003e-05,100,54,42,41315,9714,8509,2464,9962,9013,922,387,Tag0,unknown
200,1611470761249,0,-105,-2.30712890625e-05,100,54,42,41315,9714,8509,2464,9962,9013,922,387,Tag0,unknown
201,1611470761267,0,75,1.64794921875e-05,100,54,42,41315,9714,8509,2464,9962,9013,922,387,Tag0,unknown
202,1611470761283,0,-157,-3.44970703125e-05,100,54,42,41315,9714,8509,2464,9962,9013,922,387,Tag0,unknown
203,1611470761302,0,-95,-2.08740234375e-05,100,54,42,41315,9714,8509,2464,9962,9013,922,387,Tag0,unknown
204,1611470761318,0,34,7.470703125e-06,100,54,42,41315,9714,8509,2464,9962,9013,922,387,Tag0,unknown
205,1611470761328,0,68,1.494140625e-05,100,54,42,41315,9714,8509,2464,9962,9013,922,387,Tag0,unknown
206,1611470761339,0,50,1.0986328125e-05,100,54,42,41315,9714,8509,2464,9962,9013,922,387,Tag0,unknown
207,1611470761350,0,23,5.0537109375e-06,100,54,42,41315,9714,8509,2464,9962,9013,922,387,Tag0,unknown
208,1611470761372,0,-86,-1.8896484375000006e-05,100,54,42,41315,9714,8509,2464,9962,9013,922,387,Tag0,unknown
209,1611470761384,0,-95,-2.08740234375e-05,100,54,42,41315,9714,8509,2464,9962,9013,922,387,Tag0,unknown
210,1611470761394,0,3,6.591796875e-07,100,54,42,41315,9714,8509,2464,9962,9013,922,387,Tag0,unknown
211,1611470761419,0,73,1.6040039062500002e-05,100,54,42,41315,9714,8509,2464,9962,9013,922,387,Tag0,unknown
212,1611470761435,0,-75,-1.64794921875e-05,100,54,42,41315,9714,8509,2464,9962,9013,922,387,Tag0,unknown
213,1611470761452,0,-109,-2.39501953125e-05,100,54,42,41315,9714,8509,2464,9962,9013,922,387,Tag0,unknown
214,1611470761469,0,-327,-7.18505859375e-05,100,54,42,41315,9714,8509,2464,9962,9013,922,387,Tag0,unknown
215,1611470761479,0,117,2.57080078125e-05,100,54,42,41315,9714,8509,2464,9962,9013,922,387,Tag0,unknown
216,1611470761490,0,21,4.614257812500002e-06,100,54,42,41315,9714,8509,2464,9962,9013,922,387,Tag0,unknown
217,1611470761501,0,-264,-5.80078125e-05,100,54,42,41315,9714,8509,2464,9962,9013,922,387,Tag0,unknown
218,1611470761523,0,332,7.294921875e-05,100,54,42,41315,9714,8509,2464,9962,9013,922,387,Tag0,unknown
219,1611470761536,0,-35,-7.6904296875e-06,100,54,42,41315,9714,8509,2464,9962,9013,922,387,Tag0,unknown
220,1611470761546,0,20,4.39453125e-06,100,54,42,41315,9714,8509,2464,9962,9013,922,387,Tag0,unknown
221,1611470761560,0,91,1.99951171875e-05,100,54,42,41315,9714,8509,2464,9962,9013,922,387,Tag0,unknown
222,1611470761570,0,-193,-4.240722656250001e-05,100,54,42,41315,9714,8509,2464,9962,9013,922,387,Tag0,unknown
223,1611470761593,0,-117,-2.57080078125e-05,100,54,42,41315,9714,8509,2464,9962,9013,922,387,Tag0,unknown
224,1611470761603,0,51,1.12060546875e-05,100,54,42,41315,9714,8509,2464,9962,9013,922,387,Tag0,unknown
225,1611470761616,0,-138,-3.0322265625e-05,100,54,42,41315,9714,8509,2464,9962,9013,922,387,Tag0,unknown
226,1611470761633,0,91,1.99951171875e-05,100,54,42,41315,9714,8509,2464,9962,9013,922,387,Tag0,unknown
227,1611470761652,0,-257,-5.64697265625e-05,77,53,42,34655,32908,9143,26851,2625,10020,2173,3126,Tag0,unknown
228,1611470761672,0,55,1.20849609375e-05,77,53,42,34655,32908,9143,26851,2625,10020,2173,3126,Tag0,unknown
229,1611470761684,0,18,3.955078125e-06,77,53,42,34655,32908,9143,26851,2625,10020,2173,3126,Tag0,unknown
230,1611470761705,0,96,2.109375e-05,77,53,42,34655,32908,9143,26851,2625,10020,2173,3126,Tag0,unknown
231,1611470761716,0,-121,-2.6586914062500006e-05,77,53,42,34655,32908,9143,26851,2625,10020,2173,3126,Tag0,unknown
232,1611470761745,0,87,1.91162109375e-05,77,53,42,34655,32908,9143,26851,2625,10020,2173,3126,Tag0,unknown
233,1611470761780,0,-264,-5.80078125e-05,77,53,42,34655,32908,9143,26851,2625,10020,2173,3126,Tag0,unknown
234,1611470761790,0,123,2.70263671875e-05,77,53,42,34655,32908,9143,26851,2625,10020,2173,3126,Tag0,unknown
235,1611470761802,0,-341,-7.492675781250003e-05,77,53,42,34655,32908,9143,26851,2625,10020,2173,3126,Tag0,unknown
236,1611470761812,0,107,2.35107421875e-05,77,53,42,34655,32908,9143,26851,2625,10020,2173,3126,Tag0,unknown
237,1611470761836,0,-322,-7.0751953125e-05,77,53,42,34655,32908,9143,26851,2625,10020,2173,3126,Tag0,unknown
238,1611470761852,0,-3,-6.591796875e-07,77,53,42,34655,32908,9143,26851,2625,10020,2173,3126,Tag0,unknown
239,1611470761868,0,-29,-6.3720703125e-06,77,53,42,34655,32908,9143,26851,2625,10020,2173,3126,Tag0,unknown
240,1611470761878,0,259,5.69091796875e-05,77,53,42,34655,32908,9143,26851,2625,10020,2173,3126,Tag0,unknown
241,1611470761939,0,-124,-2.724609375e-05,77,53,42,34655,32908,9143,26851,2625,10020,2173,3126,Tag0,unknown
242,1611470761964,0,-112,-2.4609375e-05,77,53,42,34655,32908,9143,26851,2625,10020,2173,3126,Tag0,unknown
243,1611470761974,0,-241,-5.29541015625e-05,77,53,42,34655,32908,9143,26851,2625,10020,2173,3126,Tag0,unknown
244,1611470761985,0,-85,-1.86767578125e-05,77,53,42,34655,32908,9143,26851,2625,10020,2173,3126,Tag0,unknown
245,1611470762005,0,-56,-1.23046875e-05,77,53,42,34655,32908,9143,26851,2625,10020,2173,3126,Tag0,unknown
246,1611470762020,0,-114,-2.5048828125000006e-05,77,53,42,34655,32908,9143,26851,2625,10020,2173,3126,Tag0,unknown
247,1611470762073,0,-296,-6.50390625e-05,77,53,42,34655,32908,9143,26851,2625,10020,2173,3126,Tag0,unknown
248,1611470762090,0,35,7.6904296875e-06,77,53,42,34655,32908,9143,26851,2625,10020,2173,3126,Tag0,unknown
249,1611470762100,0,-276,-6.064453125e-05,77,53,42,34655,32908,9143,26851,2625,10020,2173,3126,Tag0,unknown
250,1611470762213,0,115,2.52685546875e-05,77,53,42,34655,32908,9143,26851,2625,10020,2173,3126,Tag0,unknown
251,1611470762230,0,115,2.52685546875e-05,77,53,42,34655,32908,9143,26851,2625,10020,2173,3126,Tag0,unknown
252,1611470762240,0,-314,-6.8994140625e-05,77,53,42,34655,32908,9143,26851,2625,10020,2173,3126,Tag0,unknown
253,1611470762250,0,38,8.349609375e-06,77,53,42,34655,32908,9143,26851,2625,10020,2173,3126,Tag0,unknown
254,1611470762277,0,-95,-2.08740234375e-05,77,53,42,34655,32908,9143,26851,2625,10020,2173,3126,Tag0,unknown
255,1611470762287,0,-94,-2.0654296875e-05,77,53,42,34655,32908,9143,26851,2625,10020,2173,3126,Tag0,unknown
256,1611470762417,0,41,9.0087890625e-06,77,53,42,34655,32908,9143,26851,2625,10020,2173,3126,Tag0,unknown
257,1611470762447,0,94,2.0654296875e-05,77,53,42,34655,32908,9143,26851,2625,10020,2173,3126,Tag0,unknown
258,1611470762457,0,257,5.64697265625e-05,77,53,42,34655,32908,9143,26851,2625,10020,2173,3126,Tag0,unknown
259,1611470762474,0,-300,-6.591796875e-05,77,53,48,34655,32908,9143,26851,2625,10020,2173,3126,Tag0,unknown
260,1611470762484,0,57,1.25244140625e-05,77,53,48,34655,32908,9143,26851,2625,10020,2173,3126,Tag0,unknown
261,1611470762494,0,-27,-5.932617187500001e-06,77,53,48,34655,32908,9143,26851,2625,10020,2173,3126,Tag0,unknown
262,1611470762505,0,-257,-5.64697265625e-05,77,53,48,34655,32908,9143,26851,2625,10020,2173,3126,Tag0,unknown
263,1611470762515,0,35,7.6904296875e-06,77,53,48,34655,32908,9143,26851,2625,10020,2173,3126,Tag0,unknown
264,1611470762534,0,-79,-1.7358398437500006e-05,77,53,48,34655,32908,9143,26851,2625,10020,2173,3126,Tag0,unknown
265,1611470762561,0,-107,-2.35107421875e-05,77,53,53,34655,32908,9143,26851,2625,10020,2173,3126,Tag0,unknown
266,1611470762571,0,-142,-3.1201171875e-05,77,53,53,34655,32908,9143,26851,2625,10020,2173,3126,Tag0,unknown
267,1611470762585,0,-127,-2.79052734375e-05,77,53,53,34655,32908,9143,26851,2625,10020,2173,3126,Tag0,unknown
268,1611470762603,0,-281,-6.17431640625e-05,77,53,53,34655,32908,9143,26851,2625,10020,2173,3126,Tag0,unknown
269,1611470762621,0,-369,-8.10791015625e-05,77,53,53,34655,32908,9143,26851,2625,10020,2173,3126,Tag0,unknown
270,1611470762638,0,261,5.73486328125e-05,77,53,53,34655,32908,9143,26851,2625,10020,2173,3126,Tag0,unknown
271,1611470762654,0,119,2.6147460937500007e-05,77,53,53,34655,32908,9143,26851,2625,10020,2173,3126,Tag0,unknown
272,1611470762664,0,54,1.1865234375e-05,50,51,53,742359,261367,16771017,16757466,27289,12957,8233,4651,Tag0,unknown
273,1611470762678,0,123,2.70263671875e-05,50,51,53,742359,261367,16771017,16757466,27289,12957,8233,4651,Tag0,unknown
274,1611470762688,0,263,5.778808593750001e-05,50,51,53,742359,261367,16771017,16757466,27289,12957,8233,4651,Tag0,unknown
275,1611470762702,0,39,8.5693359375e-06,50,51,53,742359,261367,16771017,16757466,27289,12957,8233,4651,Tag0,unknown
276,1611470762720,0,-311,-6.833496093750001e-05,50,51,53,742359,261367,16771017,16757466,27289,12957,8233,4651,Tag0,unknown
277,1611470762735,0,60,1.318359375e-05,50,51,53,742359,261367,16771017,16757466,27289,12957,8233,4651,Tag0,unknown
278,1611470762761,0,-353,-7.75634765625e-05,50,51,53,742359,261367,16771017,16757466,27289,12957,8233,4651,Tag0,unknown
279,1611470762771,0,16,3.515625e-06,50,51,53,742359,261367,16771017,16757466,27289,12957,8233,4651,Tag0,unknown
280,1611470762799,0,83,1.82373046875e-05,50,51,53,742359,261367,16771017,16757466,27289,12957,8233,4651,Tag0,unknown
281,1611470762809,0,-145,-3.18603515625e-05,50,51,53,742359,261367,16771017,16757466,27289,12957,8233,4651,Tag0,unknown
282,1611470762820,0,-58,-1.2744140625e-05,50,51,53,742359,261367,16771017,16757466,27289,12957,8233,4651,Tag0,unknown
283,1611470762830,0,-350,-7.6904296875e-05,50,51,53,742359,261367,16771017,16757466,27289,12957,8233,4651,Tag0,unknown
284,1611470762840,0,-286,-6.2841796875e-05,50,51,53,742359,261367,16771017,16757466,27289,12957,8233,4651,Tag0,unknown
285,1611470762855,0,101,2.21923828125e-05,50,51,53,742359,261367,16771017,16757466,27289,12957,8233,4651,Tag0,unknown
286,1611470762872,0,266,5.8447265625e-05,50,51,53,742359,261367,16771017,16757466,27289,12957,8233,4651,Tag0,unknown
287,1611470762888,0,-120,-2.63671875e-05,50,51,53,742359,261367,16771017,16757466,27289,12957,8233,4651,Tag0,unknown
288,1611470762898,0,-107,-2.35107421875e-05,50,51,53,742359,261367,16771017,16757466,27289,12957,8233,4651,Tag0,unknown
289,1611470762909,0,59,1.29638671875e-05,50,51,53,742359,261367,16771017,16757466,27289,12957,8233,4651,Tag0,unknown
290,1611470762921,0,18,3.955078125e-06,50,51,53,742359,261367,16771017,16757466,27289,12957,8233,4651,Tag0,unknown
291,1611470762942,0,51,1.12060546875e-05,50,51,53,742359,261367,16771017,16757466,27289,12957,8233,4651,Tag0,unknown
292,1611470762955,0,-283,-6.218261718750001e-05,50,51,53,742359,261367,16771017,16757466,27289,12957,8233,4651,Tag0,unknown
293,1611470762965,0,93,2.04345703125e-05,50,51,53,742359,261367,16771017,16757466,27289,12957,8233,4651,Tag0,unknown
294,1611470762980,0,1,2.197265625e-07,50,51,53,742359,261367,16771017,16757466,27289,12957,8233,4651,Tag0,unknown
295,1611470763017,0,-83,-1.82373046875e-05,50,51,53,742359,261367,16771017,16757466,27289,12957,8233,4651,Tag0,unknown
296,1611470763037,0,118,2.5927734375e-05,50,51,53,742359,261367,16771017,16757466,27289,12957,8233,4651,Tag0,unknown
297,1611470763047,0,83,1.82373046875e-05,50,51,53,742359,261367,16771017,16757466,27289,12957,8233,4651,Tag0,unknown
298,1611470763057,0,9,1.9775390625e-06,50,51,53,742359,261367,16771017,16757466,27289,12957,8233,4651,Tag0,unknown
299,1611470763072,0,-145,-3.18603515625e-05,50,51,53,742359,261367,16771017,16757466,27289,12957,8233,4651,Tag0,unknown
300,1611470763091,0,85,1.86767578125e-05,50,51,53,742359,261367,16771017,16757466,27289,12957,8233,4651,Tag0,unknown
301,1611470763106,0,87,1.91162109375e-05,50,51,53,742359,261367,16771017,16757466,27289,12957,8233,4651,Tag0,unknown
302,1611470763116,0,69,1.51611328125e-05,50,51,53,742359,261367,16771017,16757466,27289,12957,8233,4651,Tag0,unknown
303,1611470763132,0,17,3.7353515625e-06,50,51,53,742359,261367,16771017,16757466,27289,12957,8233,4651,Tag0,unknown
304,1611470763142,0,-149,-3.27392578125e-05,50,51,53,742359,261367,16771017,16757466,27289,12957,8233,4651,Tag0,unknown
305,1611470763155,0,-45,-9.8876953125e-06,50,51,53,742359,261367,16771017,16757466,27289,12957,8233,4651,Tag0,unknown
306,1611470763171,0,42,9.228515625000003e-06,50,51,53,742359,261367,16771017,16757466,27289,12957,8233,4651,Tag0,unknown
307,1611470763188,0,119,2.6147460937500007e-05,50,51,53,742359,261367,16771017,16757466,27289,12957,8233,4651,Tag0,unknown
308,1611470763206,0,1,2.197265625e-07,50,51,53,742359,261367,16771017,16757466,27289,12957,8233,4651,Tag0,unknown
309,1611470763219,0,-311,-6.833496093750001e-05,50,51,53,742359,261367,16771017,16757466,27289,12957,8233,4651,Tag0,unknown
310,1611470763240,0,-280,-6.15234375e-05,50,51,53,742359,261367,16771017,16757466,27289,12957,8233,4651,Tag0,unknown
311,1611470763254,0,-344,-7.558593750000001e-05,50,51,53,742359,261367,16771017,16757466,27289,12957,8233,4651,Tag0,unknown
312,1611470763274,0,-39,-8.5693359375e-06,50,51,53,742359,261367,16771017,16757466,27289,12957,8233,4651,Tag0,unknown
313,1611470763289,0,326,7.163085937500001e-05,50,51,53,742359,261367,16771017,16757466,27289,12957,8233,4651,Tag0,unknown
314,1611470763312,0,-73,-1.6040039062500002e-05,50,51,53,742359,261367,16771017,16757466,27289,12957,8233,4651,Tag0,unknown
315,1611470763323,0,-111,-2.43896484375e-05,50,51,53,742359,261367,16771017,16757466,27289,12957,8233,4651,Tag0,unknown
316,1611470763333,0,67,1.4721679687500003e-05,50,51,53,742359,261367,16771017,16757466,27289,12957,8233,4651,Tag0,unknown
317,1611470763343,0,65,1.42822265625e-05,50,51,53,742359,261367,16771017,16757466,27289,12957,8233,4651,Tag0,unknown
318,1611470763357,0,114,2.5048828125000006e-05,50,51,53,742359,261367,16771017,16757466,27289,12957,8233,4651,Tag0,unknown
319,1611470763382,0,-28,-6.15234375e-06,50,51,53,742359,261367,16771017,16757466,27289,12957,8233,4651,Tag0,unknown
320,1611470763392,0,69,1.51611328125e-05,50,51,53,742359,261367,16771017,16757466,27289,12957,8233,4651,Tag0,unknown
321,1611470763405,0,36,7.91015625e-06,50,51,53,742359,261367,16771017,16757466,27289,12957,8233,4651,Tag0,unknown
322,1611470763433,0,17,3.7353515625e-06,50,51,53,742359,261367,16771017,16757466,27289,12957,8233,4651,Tag0,unknown
323,1611470763454,0,-128,-2.8125e-05,50,51,53,742359,261367,16771017,16757466,27289,12957,8233,4651,Tag0,unknown
324,1611470763470,0,-327,-7.18505859375e-05,50,51,53,742359,261367,16771017,16757466,27289,12957,8233,4651,Tag0,unknown
325,1611470763488,0,67,1.4721679687500003e-05,50,51,53,742359,261367,16771017,16757466,27289,12957,8233,4651,Tag0,unknown
326,1611470763498,0,100,2.197265625e-05,50,51,53,742359,261367,16771017,16757466,27289,12957,8233,4651,Tag0,unknown
327,1611470763508,0,263,5.778808593750001e-05,50,51,53,742359,261367,16771017,16757466,27289,12957,8233,4651,Tag0,unknown
328,1611470763523,0,35,7.6904296875e-06,50,51,53,742359,261367,16771017,16757466,27289,12957,8233,4651,Tag0,unknown
329,1611470763533,0,283,6.218261718750001e-05,50,51,53,742359,261367,16771017,16757466,27289,12957,8233,4651,Tag0,unknown
330,1611470763555,0,57,1.25244140625e-05,50,51,53,742359,261367,16771017,16757466,27289,12957,8233,4651,Tag0,unknown
331,1611470763576,0,-105,-2.30712890625e-05,50,51,53,742359,261367,16771017,16757466,27289,12957,8233,4651,Tag0,unknown
332,1611470763588,0,-293,-6.43798828125e-05,50,51,53,742359,261367,16771017,16757466,27289,12957,8233,4651,Tag0,unknown
333,1611470763598,0,85,1.86767578125e-05,50,51,53,742359,261367,16771017,16757466,27289,12957,8233,4651,Tag0,unknown
334,1611470763613,0,77,1.69189453125e-05,50,51,53,742359,261367,16771017,16757466,27289,12957,8233,4651,Tag0,unknown
335,1611470763623,0,-238,-5.2294921875000014e-05,50,51,53,742359,261367,16771017,16757466,27289,12957,8233,4651,Tag0,unknown
336,1611470763640,0,-88,-1.93359375e-05,63,53,53,908208,44065,26885,25798,8936,16773755,18826,7861,Tag0,unknown
337,1611470763654,0,-277,-6.086425781250001e-05,63,53,53,908208,44065,26885,25798,8936,16773755,18826,7861,Tag0,unknown
338,1611470763671,0,42,9.228515625000003e-06,63,53,53,908208,44065,26885,25798,8936,16773755,18826,7861,Tag0,unknown
339,1611470763688,0,48,1.0546875e-05,63,53,53,908208,44065,26885,25798,8936,16773755,18826,7861,Tag0,unknown
340,1611470763705,0,99,2.1752929687500006e-05,63,53,53,908208,44065,26885,25798,8936,16773755,18826,7861,Tag0,unknown
341,1611470763715,0,-76,-1.669921875e-05,63,53,53,908208,44065,26885,25798,8936,16773755,18826,7861,Tag0,unknown
342,1611470763728,0,117,2.57080078125e-05,63,53,53,908208,44065,26885,25798,8936,16773755,18826,7861,Tag0,unknown
343,1611470763740,0,-283,-6.218261718750001e-05,63,53,53,908208,44065,26885,25798,8936,16773755,18826,7861,Tag0,unknown
344,1611470763761,0,53,1.1645507812500003e-05,63,53,53,908208,44065,26885,25798,8936,16773755,18826,7861,Tag0,unknown
345,1611470763774,0,26,5.712890625e-06,63,53,53,908208,44065,26885,25798,8936,16773755,18826,7861,Tag0,unknown
346,1611470763784,0,91,1.99951171875e-05,63,53,53,908208,44065,26885,25798,8936,16773755,18826,7861,Tag0,unknown
347,1611470763794,0,73,1.6040039062500002e-05,63,53,53,908208,44065,26885,25798,8936,16773755,18826,7861,Tag0,unknown
348,1611470763807,0,71,1.56005859375e-05,63,53,53,908208,44065,26885,25798,8936,16773755,18826,7861,Tag0,unknown
349,1611470763821,0,69,1.51611328125e-05,63,53,53,908208,44065,26885,25798,8936,16773755,18826,7861,Tag0,unknown
350,1611470763838,0,-107,-2.35107421875e-05,63,53,53,908208,44065,26885,25798,8936,16773755,18826,7861,Tag0,unknown
351,1611470763854,0,48,1.0546875e-05,63,53,53,908208,44065,26885,25798,8936,16773755,18826,7861,Tag0,unknown
352,1611470763872,0,55,1.20849609375e-05,63,53,53,908208,44065,26885,25798,8936,16773755,18826,7861,Tag0,unknown
353,1611470763888,0,-269,-5.91064453125e-05,63,53,53,908208,44065,26885,25798,8936,16773755,18826,7861,Tag0,unknown
354,1611470763908,0,-120,-2.63671875e-05,63,53,53,908208,44065,26885,25798,8936,16773755,18826,7861,Tag0,unknown
355,1611470763924,0,-325,-7.14111328125e-05,63,53,53,908208,44065,26885,25798,8936,16773755,18826,7861,Tag0,unknown
356,1611470763934,0,-53,-1.1645507812500003e-05,63,53,53,908208,44065,26885,25798,8936,16773755,18826,7861,Tag0,unknown
357,1611470763948,0,53,1.1645507812500003e-05,63,53,53,908208,44065,26885,25798,8936,16773755,18826,7861,Tag0,unknown
358,1611470763958,0,-281,-6.17431640625e-05,63,53,53,908208,44065,26885,25798,8936,16773755,18826,7861,Tag0,unknown
359,1611470763981,0,-123,-2.70263671875e-05,63,53,53,908208,44065,26885,25798,8936,16773755,18826,7861,Tag0,unknown
360,1611470763992,0,-121,-2.6586914062500006e-05,63,53,53,908208,44065,26885,25798,8936,16773755,18826,7861,Tag0,unknown
361,1611470764002,0,-67,-1.4721679687500003e-05,63,53,53,908208,44065,26885,25798,8936,16773755,18826,7861,Tag0,unknown
362,1611470764012,0,8,1.7578125e-06,63,53,53,908208,44065,26885,25798,8936,16773755,18826,7861,Tag0,unknown
363,1611470764025,0,-309,-6.78955078125e-05,63,53,53,908208,44065,26885,25798,8936,16773755,18826,7861,Tag0,unknown
364,1611470764040,0,-267,-5.86669921875e-05,63,53,53,908208,44065,26885,25798,8936,16773755,18826,7861,Tag0,unknown
365,1611470764058,0,298,6.5478515625e-05,63,53,53,908208,44065,26885,25798,8936,16773755,18826,7861,Tag0,unknown
366,1611470764073,0,-127,-2.79052734375e-05,63,53,53,908208,44065,26885,25798,8936,16773755,18826,7861,Tag0,unknown
367,1611470764092,0,50,1.0986328125e-05,63,53,53,908208,44065,26885,25798,8936,16773755,18826,7861,Tag0,unknown
368,1611470764105,0,-101,-2.21923828125e-05,63,53,53,908208,44065,26885,25798,8936,16773755,18826,7861,Tag0,unknown
369,1611470764126,0,123,2.70263671875e-05,63,53,53,908208,44065,26885,25798,8936,16773755,18826,7861,Tag0,unknown
370,1611470764138,0,-283,-6.218261718750001e-05,63,53,53,908208,44065,26885,25798,8936,16773755,18826,7861,Tag0,unknown
371,1611470764167,0,71,1.56005859375e-05,63,53,53,908208,44065,26885,25798,8936,16773755,18826,7861,Tag0,unknown
372,1611470764177,0,-341,-7.492675781250003e-05,63,53,53,908208,44065,26885,25798,8936,16773755,18826,7861,Tag0,unknown
373,1611470764200,0,-85,-1.86767578125e-05,63,53,53,908208,44065,26885,25798,8936,16773755,18826,7861,Tag0,unknown
374,1611470764210,0,-68,-1.494140625e-05,63,53,53,908208,44065,26885,25798,8936,16773755,18826,7861,Tag0,unknown
375,1611470764222,0,89,1.95556640625e-05,63,53,53,908208,44065,26885,25798,8936,16773755,18826,7861,Tag0,unknown
376,1611470764240,0,80,1.7578125e-05,63,53,40,908208,44065,26885,25798,8936,16773755,18826,7861,Tag0,unknown
377,1611470764255,0,99,2.1752929687500006e-05,63,53,40,908208,44065,26885,25798,8936,16773755,18826,7861,Tag0,unknown
378,1611470764272,0,-125,-2.74658203125e-05,63,53,40,908208,44065,26885,25798,8936,16773755,18826,7861,Tag0,unknown
379,1611470764288,0,-289,-6.35009765625e-05,63,53,40,908208,44065,26885,25798,8936,16773755,18826,7861,Tag0,unknown
380,1611470764311,0,41,9.0087890625e-06,63,53,40,908208,44065,26885,25798,8936,16773755,18826,7861,Tag0,unknown
381,1611470764329,0,-333,-7.316894531249999e-05,63,53,40,908208,44065,26885,25798,8936,16773755,18826,7861,Tag0,unknown
382,1611470764339,0,-95,-2.08740234375e-05,63,53,40,908208,44065,26885,25798,8936,16773755,18826,7861,Tag0,unknown
383,1611470764359,0,68,1.494140625e-05,63,53,40,908208,44065,26885,25798,8936,16773755,18826,7861,Tag0,unknown
384,1611470764369,0,57,1.25244140625e-05,63,53,40,908208,44065,26885,25798,8936,16773755,18826,7861,Tag0,unknown
385,1611470764391,0,66,1.4501953125e-05,63,53,40,908208,44065,26885,25798,8936,16773755,18826,7861,Tag0,unknown
386,1611470764416,0,-55,-1.20849609375e-05,63,53,40,908208,44065,26885,25798,8936,16773755,18826,7861,Tag0,unknown
387,1611470764426,0,113,2.48291015625e-05,63,53,40,908208,44065,26885,25798,8936,16773755,18826,7861,Tag0,unknown
388,1611470764442,0,277,6.086425781250001e-05,63,53,40,908208,44065,26885,25798,8936,16773755,18826,7861,Tag0,unknown
389,1611470764466,0,-266,-5.8447265625e-05,63,53,40,908208,44065,26885,25798,8936,16773755,18826,7861,Tag0,unknown
390,1611470764477,0,-126,-2.7685546875e-05,63,53,40,908208,44065,26885,25798,8936,16773755,18826,7861,Tag0,unknown
391,1611470764487,0,-319,-7.00927734375e-05,63,53,40,908208,44065,26885,25798,8936,16773755,18826,7861,Tag0,unknown
392,1611470764497,0,80,1.7578125e-05,63,53,40,908208,44065,26885,25798,8936,16773755,18826,7861,Tag0,unknown
393,1611470764512,0,-306,-6.723632812500001e-05,63,53,40,908208,44065,26885,25798,8936,16773755,18826,7861,Tag0,unknown
394,1611470764540,0,-56,-1.23046875e-05,63,53,40,908208,44065,26885,25798,8936,16773755,18826,7861,Tag0,unknown
395,1611470764555,0,-114,-2.5048828125000006e-05,63,53,40,908208,44065,26885,25798,8936,16773755,18826,7861,Tag0,unknown
396,1611470764577,0,114,2.5048828125000006e-05,63,53,40,908208,44065,26885,25798,8936,16773755,18826,7861,Tag0,unknown
397,1611470764590,0,-370,-8.1298828125e-05,63,53,40,908208,44065,26885,25798,8936,16773755,18826,7861,Tag0,unknown
398,1611470764611,0,-260,-5.712890625e-05,63,53,40,908208,44065,26885,25798,8936,16773755,18826,7861,Tag0,unknown
399,1611470764625,0,55,1.20849609375e-05,63,53,40,908208,44065,26885,25798,8936,16773755,18826,7861,Tag0,unknown
400,1611470764635,0,-109,-2.39501953125e-05,50,56,40,1553508,225783,16765438,87035,11947,16754408,7497,5886,Tag0,unknown
401,1611470764656,0,567,0.0001245849609375,50,56,40,1553508,225783,16765438,87035,11947,16754408,7497,5886,Tag0,unknown
402,1611470764680,0,275,6.04248046875e-05,50,56,69,1553508,225783,16765438,87035,11947,16754408,7497,5886,Tag0,unknown
403,1611470764690,0,328,7.207031249999999e-05,50,56,69,1553508,225783,16765438,87035,11947,16754408,7497,5886,Tag0,unknown
404,1611470764713,0,-35,-7.6904296875e-06,50,56,69,1553508,225783,16765438,87035,11947,16754408,7497,5886,Tag0,unknown
405,1611470764724,0,103,2.26318359375e-05,50,56,69,1553508,225783,16765438,87035,11947,16754408,7497,5886,Tag0,unknown
406,1611470764748,0,-69,-1.51611328125e-05,50,56,69,1553508,225783,16765438,87035,11947,16754408,7497,5886,Tag0,unknown
407,1611470764762,0,-79,-1.7358398437500006e-05,50,56,69,1553508,225783,16765438,87035,11947,16754408,7497,5886,Tag0,unknown
408,1611470764772,0,-279,-6.13037109375e-05,50,56,69,1553508,225783,16765438,87035,11947,16754408,7497,5886,Tag0,unknown
409,1611470764789,0,-157,-3.44970703125e-05,50,56,69,1553508,225783,16765438,87035,11947,16754408,7497,5886,Tag0,unknown
410,1611470764807,0,-133,-2.92236328125e-05,50,56,69,1553508,225783,16765438,87035,11947,16754408,7497,5886,Tag0,unknown
411,1611470764824,0,71,1.56005859375e-05,50,56,69,1553508,225783,16765438,87035,11947,16754408,7497,5886,Tag0,unknown
412,1611470764839,0,-194,-4.2626953125e-05,50,56,69,1553508,225783,16765438,87035,11947,16754408,7497,5886,Tag0,unknown
413,1611470764869,0,26,5.712890625e-06,50,56,69,1553508,225783,16765438,87035,11947,16754408,7497,5886,Tag0,unknown
414,1611470764889,0,-328,-7.207031249999999e-05,50,56,69,1553508,225783,16765438,87035,11947,16754408,7497,5886,Tag0,unknown
415,1611470764909,0,-153,-3.3618164062500004e-05,50,56,69,1553508,225783,16765438,87035,11947,16754408,7497,5886,Tag0,unknown
416,1611470764924,0,-226,-4.9658203125e-05,50,56,69,1553508,225783,16765438,87035,11947,16754408,7497,5886,Tag0,unknown
417,1611470764944,0,27,5.932617187500001e-06,50,56,69,1553508,225783,16765438,87035,11947,16754408,7497,5886,Tag0,unknown
418,1611470764959,0,-324,-7.119140625e-05,50,56,69,1553508,225783,16765438,87035,11947,16754408,7497,5886,Tag0,unknown
419,1611470764969,0,85,1.86767578125e-05,50,56,69,1553508,225783,16765438,87035,11947,16754408,7497,5886,Tag0,unknown
420,1611470764982,0,101,2.21923828125e-05,50,56,69,1553508,225783,16765438,87035,11947,16754408,7497,5886,Tag0,unknown
421,1611470764995,0,-170,-3.7353515625e-05,50,56,69,1553508,225783,16765438,87035,11947,16754408,7497,5886,Tag0,unknown
422,1611470765016,0,-72,-1.58203125e-05,50,56,69,1553508,225783,16765438,87035,11947,16754408,7497,5886,Tag0,unknown
423,1611470765026,0,-70,-1.5380859375e-05,50,56,69,1553508,225783,16765438,87035,11947,16754408,7497,5886,Tag0,unknown
424,1611470765042,0,1137,0.0002498291015625,50,56,69,1553508,225783,16765438,87035,11947,16754408,7497,5886,Tag0,unknown
425,1611470765059,0,1031,0.0002265380859375,50,56,69,1553508,225783,16765438,87035,11947,16754408,7497,5886,Tag0,unknown
426,1611470765075,0,507,0.0001114013671875,50,56,69,1553508,225783,16765438,87035,11947,16754408,7497,5886,Tag0,unknown
427,1611470765097,0,414,9.0966796875e-05,50,56,69,1553508,225783,16765438,87035,11947,16754408,7497,5886,Tag0,unknown
428,1611470765107,0,167,3.66943359375e-05,50,56,69,1553508,225783,16765438,87035,11947,16754408,7497,5886,Tag0,unknown
429,1611470765117,0,313,6.87744140625e-05,50,56,69,1553508,225783,16765438,87035,11947,16754408,7497,5886,Tag0,unknown
430,1611470765128,0,103,2.26318359375e-05,50,56,69,1553508,225783,16765438,87035,11947,16754408,7497,5886,Tag0,unknown
431,1611470765140,0,-259,-5.69091796875e-05,50,56,69,1553508,225783,16765438,87035,11947,16754408,7497,5886,Tag0,unknown
432,1611470765162,0,-345,-7.58056640625e-05,50,56,69,1553508,225783,16765438,87035,11947,16754408,7497,5886,Tag0,unknown
433,1611470765175,0,-165,-3.62548828125e-05,50,56,69,1553508,225783,16765438,87035,11947,16754408,7497,5886,Tag0,unknown
434,1611470765200,0,-1064,-0.0002337890625,50,56,69,1553508,225783,16765438,87035,11947,16754408,7497,5886,Tag0,unknown
435,1611470765210,0,-713,-0.0001566650390625,50,56,69,1553508,225783,16765438,87035,11947,16754408,7497,5886,Tag0,unknown
436,1611470765235,0,-535,-0.0001175537109375,50,56,69,1553508,225783,16765438,87035,11947,16754408,7497,5886,Tag0,unknown
437,1611470765245,0,-466,-0.000102392578125,50,56,69,1553508,225783,16765438,87035,11947,16754408,7497,5886,Tag0,unknown
438,1611470765255,0,-505,-0.0001109619140625,50,56,69,1553508,225783,16765438,87035,11947,16754408,7497,5886,Tag0,unknown
439,1611470765265,0,-205,-4.50439453125e-05,50,56,69,1553508,225783,16765438,87035,11947,16754408,7497,5886,Tag0,unknown
440,1611470765287,0,-396,-8.701171875000001e-05,50,56,69,1553508,225783,16765438,87035,11947,16754408,7497,5886,Tag0,unknown
441,1611470765297,0,-553,-0.0001215087890625,50,56,69,1553508,225783,16765438,87035,11947,16754408,7497,5886,Tag0,unknown
442,1611470765308,0,-293,-6.43798828125e-05,50,56,69,1553508,225783,16765438,87035,11947,16754408,7497,5886,Tag0,unknown
443,1611470765324,0,768,0.00016875,50,56,69,1553508,225783,16765438,87035,11947,16754408,7497,5886,Tag0,unknown
444,1611470765341,0,739,0.0001623779296875,50,56,69,1553508,225783,16765438,87035,11947,16754408,7497,5886,Tag0,unknown
445,1611470765358,0,994,0.000218408203125,50,56,69,1553508,225783,16765438,87035,11947,16754408,7497,5886,Tag0,unknown
446,1611470765375,0,939,0.0002063232421875,50,56,69,1553508,225783,16765438,87035,11947,16754408,7497,5886,Tag0,unknown
447,1611470765385,0,-471,-0.0001034912109375,50,56,69,1553508,225783,16765438,87035,11947,16754408,7497,5886,Tag0,unknown
448,1611470765396,0,-764,-0.00016787109375,50,56,69,1553508,225783,16765438,87035,11947,16754408,7497,5886,Tag0,unknown
449,1611470765410,0,-1000,-0.0002197265625,50,56,69,1553508,225783,16765438,87035,11947,16754408,7497,5886,Tag0,unknown
450,1611470765430,0,-809,-0.0001777587890625,50,56,69,1553508,225783,16765438,87035,11947,16754408,7497,5886,Tag0,unknown
451,1611470765443,0,-503,-0.0001105224609375,50,56,69,1553508,225783,16765438,87035,11947,16754408,7497,5886,Tag0,unknown
452,1611470765453,0,-225,-4.94384765625e-05,50,56,69,1553508,225783,16765438,87035,11947,16754408,7497,5886,Tag0,unknown
453,1611470765468,0,-211,-4.63623046875e-05,50,56,69,1553508,225783,16765438,87035,11947,16754408,7497,5886,Tag0,unknown
454,1611470765502,0,279,6.13037109375e-05,50,56,69,1553508,225783,16765438,87035,11947,16754408,7497,5886,Tag0,unknown
455,1611470765525,0,12,2.63671875e-06,50,56,69,1553508,225783,16765438,87035,11947,16754408,7497,5886,Tag0,unknown
456,1611470765544,0,330,7.2509765625e-05,50,56,69,1553508,225783,16765438,87035,11947,16754408,7497,5886,Tag0,unknown
457,1611470765560,0,-79,-1.7358398437500006e-05,50,56,69,1553508,225783,16765438,87035,11947,16754408,7497,5886,Tag0,unknown
458,1611470765578,0,131,2.87841796875e-05,50,56,69,1553508,225783,16765438,87035,11947,16754408,7497,5886,Tag0,unknown
459,1611470765594,0,-61,-1.34033203125e-05,50,56,69,1553508,225783,16765438,87035,11947,16754408,7497,5886,Tag0,unknown
460,1611470765604,0,82,1.8017578125e-05,50,56,69,1553508,225783,16765438,87035,11947,16754408,7497,5886,Tag0,unknown
461,1611470765618,0,-88,-1.93359375e-05,50,56,69,1553508,225783,16765438,87035,11947,16754408,7497,5886,Tag0,unknown
462,1611470765628,0,-331,-7.272949218750001e-05,50,56,69,1553508,225783,16765438,87035,11947,16754408,7497,5886,Tag0,unknown
463,1611470765650,0,1478,0.000324755859375,54,47,69,561052,100892,12513,14263,24661,23807,15896,9770,Tag0,unknown
464,1611470765675,0,-2048,-0.00045,54,47,69,561052,100892,12513,14263,24661,23807,15896,9770,Tag0,unknown
465,1611470765691,0,1789,0.0003930908203125,54,47,69,561052,100892,12513,14263,24661,23807,15896,9770,Tag0,unknown
466,1611470765708,0,1791,0.0003935302734375,54,47,69,561052,100892,12513,14263,24661,23807,15896,9770,Tag0,unknown
467,1611470765727,0,-922,-0.000202587890625,54,47,69,561052,100892,12513,14263,24661,23807,15896,9770,Tag0,unknown
468,1611470765746,0,-969,-0.0002129150390625,54,47,69,561052,100892,12513,14263,24661,23807,15896,9770,Tag0,unknown
469,1611470765761,0,-372,-8.173828125e-05,54,47,69,561052,100892,12513,14263,24661,23807,15896,9770,Tag0,unknown
470,1611470765778,0,5,1.0986328125e-06,54,47,69,561052,100892,12513,14263,24661,23807,15896,9770,Tag0,unknown
471,1611470765788,0,633,0.00013908691406250002,54,47,69,561052,100892,12513,14263,24661,23807,15896,9770,Tag0,unknown
472,1611470765801,0,247,5.42724609375e-05,54,47,69,561052,100892,12513,14263,24661,23807,15896,9770,Tag0,unknown
473,1611470765812,0,620,0.00013623046875,54,47,69,561052,100892,12513,14263,24661,23807,15896,9770,Tag0,unknown
474,1611470765834,0,691,0.0001518310546875,54,47,69,561052,100892,12513,14263,24661,23807,15896,9770,Tag0,unknown
475,1611470765847,0,745,0.0001636962890625,54,47,69,561052,100892,12513,14263,24661,23807,15896,9770,Tag0,unknown
476,1611470765857,0,841,0.0001847900390625,54,47,69,561052,100892,12513,14263,24661,23807,15896,9770,Tag0,unknown
477,1611470765876,0,386,8.481445312500001e-05,54,47,69,561052,100892,12513,14263,24661,23807,15896,9770,Tag0,unknown
478,1611470765892,0,489,0.0001074462890625,54,47,69,561052,100892,12513,14263,24661,23807,15896,9770,Tag0,unknown
479,1611470765909,0,481,0.0001056884765625,54,47,69,561052,100892,12513,14263,24661,23807,15896,9770,Tag0,unknown
480,1611470765927,0,576,0.0001265625,54,47,69,561052,100892,12513,14263,24661,23807,15896,9770,Tag0,unknown
481,1611470765937,0,386,8.481445312500001e-05,54,47,69,561052,100892,12513,14263,24661,23807,15896,9770,Tag0,unknown
482,1611470765949,0,219,4.81201171875e-05,54,47,69,561052,100892,12513,14263,24661,23807,15896,9770,Tag0,unknown
483,1611470765961,0,249,5.47119140625e-05,54,47,69,561052,100892,12513,14263,24661,23807,15896,9770,Tag0,unknown
484,1611470765995,0,156,3.427734375e-05,54,47,69,561052,100892,12513,14263,24661,23807,15896,9770,Tag0,unknown
485,1611470766011,0,376,8.261718750000001e-05,54,47,69,561052,100892,12513,14263,24661,23807,15896,9770,Tag0,unknown
486,1611470766021,0,375,8.23974609375e-05,54,47,69,561052,100892,12513,14263,24661,23807,15896,9770,Tag0,unknown
487,1611470766031,0,347,7.62451171875e-05,54,47,69,561052,100892,12513,14263,24661,23807,15896,9770,Tag0,unknown
488,1611470766043,0,305,6.70166015625e-05,54,47,69,561052,100892,12513,14263,24661,23807,15896,9770,Tag0,unknown
489,1611470766053,0,277,6.086425781250001e-05,54,47,69,561052,100892,12513,14263,24661,23807,15896,9770,Tag0,unknown
490,1611470766066,0,-67,-1.4721679687500003e-05,54,47,69,561052,100892,12513,14263,24661,23807,15896,9770,Tag0,unknown
491,1611470766076,0,118,2.5927734375e-05,54,47,69,561052,100892,12513,14263,24661,23807,15896,9770,Tag0,unknown
492,1611470766101,0,1296,0.000284765625,54,47,69,561052,100892,12513,14263,24661,23807,15896,9770,Tag0,unknown
493,1611470766111,0,68,1.494140625e-05,54,47,69,561052,100892,12513,14263,24661,23807,15896,9770,Tag0,unknown
494,1611470766126,0,-168,-3.6914062500000014e-05,54,47,69,561052,100892,12513,14263,24661,23807,15896,9770,Tag0,unknown
495,1611470766136,0,-135,-2.96630859375e-05,54,47,69,561052,100892,12513,14263,24661,23807,15896,9770,Tag0,unknown
496,1611470766147,0,1245,0.0002735595703125,54,47,69,561052,100892,12513,14263,24661,23807,15896,9770,Tag0,unknown
497,1611470766162,0,1042,0.000228955078125,54,47,69,561052,100892,12513,14263,24661,23807,15896,9770,Tag0,unknown
498,1611470766179,0,715,0.0001571044921875,54,47,69,561052,100892,12513,14263,24661,23807,15896,9770,Tag0,unknown
499,1611470766194,0,465,0.0001021728515625,54,47,69,561052,100892,12513,14263,24661,23807,15896,9770,Tag0,unknown
500,1611470766220,0,295,6.48193359375e-05,54,47,69,561052,100892,12513,14263,24661,23807,15896,9770,Tag0,unknown
501,1611470766230,0,-13,-2.8564453125e-06,54,47,69,561052,100892,12513,14263,24661,23807,15896,9770,Tag0,unknown
502,1611470766244,0,55,1.20849609375e-05,54,47,69,561052,100892,12513,14263,24661,23807,15896,9770,Tag0,unknown
503,1611470766264,0,-424,-9.31640625e-05,54,47,69,561052,100892,12513,14263,24661,23807,15896,9770,Tag0,unknown
504,1611470766275,0,-522,-0.000114697265625,54,47,69,561052,100892,12513,14263,24661,23807,15896,9770,Tag0,unknown
505,1611470766298,0,-468,-0.00010283203125,54,47,69,561052,100892,12513,14263,24661,23807,15896,9770,Tag0,unknown
506,1611470766309,0,-478,-0.000105029296875,54,47,69,561052,100892,12513,14263,24661,23807,15896,9770,Tag0,unknown
507,1611470766339,0,-545,-0.0001197509765625,54,47,69,561052,100892,12513,14263,24661,23807,15896,9770,Tag0,unknown
508,1611470766349,0,-249,-5.47119140625e-05,54,47,69,561052,100892,12513,14263,24661,23807,15896,9770,Tag0,unknown
509,1611470766372,0,-172,-3.779296875000001e-05,54,47,69,561052,100892,12513,14263,24661,23807,15896,9770,Tag0,unknown
510,1611470766382,0,-469,-0.0001030517578125,54,47,69,561052,100892,12513,14263,24661,23807,15896,9770,Tag0,unknown
511,1611470766395,0,-632,-0.00013886718750000002,54,47,69,561052,100892,12513,14263,24661,23807,15896,9770,Tag0,unknown
512,1611470766405,0,-614,-0.000134912109375,54,47,69,561052,100892,12513,14263,24661,23807,15896,9770,Tag0,unknown
513,1611470766415,0,-805,-0.0001768798828125,54,47,69,561052,100892,12513,14263,24661,23807,15896,9770,Tag0,unknown
514,1611470766428,0,-437,-9.60205078125e-05,54,47,69,561052,100892,12513,14263,24661,23807,15896,9770,Tag0,unknown
515,1611470766445,0,-449,-9.86572265625e-05,54,47,69,561052,100892,12513,14263,24661,23807,15896,9770,Tag0,unknown
516,1611470766461,0,-347,-7.62451171875e-05,54,47,69,561052,100892,12513,14263,24661,23807,15896,9770,Tag0,unknown
517,1611470766472,0,-87,-1.91162109375e-05,54,47,69,561052,100892,12513,14263,24661,23807,15896,9770,Tag0,unknown
518,1611470766493,0,-323,-7.09716796875e-05,54,47,69,561052,100892,12513,14263,24661,23807,15896,9770,Tag0,unknown
519,1611470766514,0,11,2.4169921875e-06,54,47,69,561052,100892,12513,14263,24661,23807,15896,9770,Tag0,unknown
520,1611470766527,0,19,4.1748046875e-06,54,47,69,561052,100892,12513,14263,24661,23807,15896,9770,Tag0,unknown
521,1611470766544,0,295,6.48193359375e-05,54,47,69,561052,100892,12513,14263,24661,23807,15896,9770,Tag0,unknown
522,1611470766561,0,-3,-6.591796875e-07,54,47,69,561052,100892,12513,14263,24661,23807,15896,9770,Tag0,unknown
523,1611470766582,0,-83,-1.82373046875e-05,54,47,69,561052,100892,12513,14263,24661,23807,15896,9770,Tag0,unknown
524,1611470766596,0,-376,-8.261718750000001e-05,54,47,69,561052,100892,12513,14263,24661,23807,15896,9770,Tag0,unknown
525,1611470766613,0,-340,-7.470703125e-05,54,47,69,561052,100892,12513,14263,24661,23807,15896,9770,Tag0,unknown
526,1611470766638,26,-321,-7.053222656250001e-05,54,47,69,747159,1083415,60250,272445,147358,131330,16758055,19957,Tag0,unknown
527,1611470766648,26,-2091,-0.0004594482421875,54,47,69,747159,1083415,60250,272445,147358,131330,16758055,19957,Tag0,unknown
528,1611470766667,26,-2048,-0.00045,54,47,69,747159,1083415,60250,272445,147358,131330,16758055,19957,Tag0,unknown
529,1611470766678,26,-2048,-0.00045,54,47,69,747159,1083415,60250,272445,147358,131330,16758055,19957,Tag0,unknown
530,1611470766701,26,-1499,-0.00032937011718750005,54,47,69,747159,1083415,60250,272445,147358,131330,16758055,19957,Tag0,unknown
531,1611470766712,26,-1437,-0.0003157470703125,54,47,69,747159,1083415,60250,272445,147358,131330,16758055,19957,Tag0,unknown
532,1611470766722,26,-237,-5.20751953125e-05,54,47,69,747159,1083415,60250,272445,147358,131330,16758055,19957,Tag0,unknown
533,1611470766732,26,-324,-7.119140625e-05,54,47,69,747159,1083415,60250,272445,147358,131330,16758055,19957,Tag0,unknown
534,1611470766747,26,1,2.197265625e-07,54,47,69,747159,1083415,60250,272445,147358,131330,16758055,19957,Tag0,unknown
535,1611470766765,26,610,0.000134033203125,54,47,69,747159,1083415,60250,272445,147358,131330,16758055,19957,Tag0,unknown
536,1611470766782,26,552,0.0001212890625,54,47,69,747159,1083415,60250,272445,147358,131330,16758055,19957,Tag0,unknown
537,1611470766799,26,498,0.000109423828125,54,47,69,747159,1083415,60250,272445,147358,131330,16758055,19957,Tag0,unknown
538,1611470766809,26,775,0.0001702880859375,54,47,69,747159,1083415,60250,272445,147358,131330,16758055,19957,Tag0,unknown
539,1611470766819,26,452,9.931640625e-05,54,47,69,747159,1083415,60250,272445,147358,131330,16758055,19957,Tag0,unknown
540,1611470766833,26,795,0.0001746826171875,54,47,69,747159,1083415,60250,272445,147358,131330,16758055,19957,Tag0,unknown
541,1611470766848,26,776,0.0001705078125,54,47,69,747159,1083415,60250,272445,147358,131330,16758055,19957,Tag0,unknown
542,1611470766860,26,473,0.0001039306640625,54,47,69,747159,1083415,60250,272445,147358,131330,16758055,19957,Tag0,unknown
543,1611470766928,26,563,0.0001237060546875,54,47,69,747159,1083415,60250,272445,147358,131330,16758055,19957,Tag0,unknown
544,1611470766955,26,187,4.10888671875e-05,54,47,69,747159,1083415,60250,272445,147358,131330,16758055,19957,Tag0,unknown
545,1611470766965,26,215,4.72412109375e-05,54,47,69,747159,1083415,60250,272445,147358,131330,16758055,19957,Tag0,unknown
546,1611470766996,26,789,0.00017336425781250002,54,47,69,747159,1083415,60250,272445,147358,131330,16758055,19957,Tag0,unknown
547,1611470767013,26,392,8.61328125e-05,54,47,69,747159,1083415,60250,272445,147358,131330,16758055,19957,Tag0,unknown
548,1611470767063,26,356,7.822265625e-05,54,47,69,747159,1083415,60250,272445,147358,131330,16758055,19957,Tag0,unknown
549,1611470767079,26,225,4.94384765625e-05,54,47,69,747159,1083415,60250,272445,147358,131330,16758055,19957,Tag0,unknown
550,1611470767130,26,137,3.01025390625e-05,54,47,69,747159,1083415,60250,272445,147358,131330,16758055,19957,Tag0,unknown
551,1611470767147,26,359,7.88818359375e-05,54,47,69,747159,1083415,60250,272445,147358,131330,16758055,19957,Tag0,unknown
552,1611470767197,26,-61,-1.34033203125e-05,54,47,69,747159,1083415,60250,272445,147358,131330,16758055,19957,Tag0,unknown
553,1611470767219,26,-38,-8.349609375e-06,54,47,69,747159,1083415,60250,272445,147358,131330,16758055,19957,Tag0,unknown
554,1611470767229,26,257,5.64697265625e-05,54,47,69,747159,1083415,60250,272445,147358,131330,16758055,19957,Tag0,unknown
555,1611470767265,26,-41,-9.0087890625e-06,54,47,69,747159,1083415,60250,272445,147358,131330,16758055,19957,Tag0,unknown
556,1611470767283,26,321,7.053222656250001e-05,54,47,69,747159,1083415,60250,272445,147358,131330,16758055,19957,Tag0,unknown
557,1611470767293,26,-28,-6.15234375e-06,54,47,69,747159,1083415,60250,272445,147358,131330,16758055,19957,Tag0,unknown
558,1611470767333,26,-115,-2.52685546875e-05,54,47,69,747159,1083415,60250,272445,147358,131330,16758055,19957,Tag0,unknown
559,1611470767350,26,-135,-2.96630859375e-05,54,47,69,747159,1083415,60250,272445,147358,131330,16758055,19957,Tag0,unknown
560,1611470767360,26,262,5.7568359375e-05,54,47,69,747159,1083415,60250,272445,147358,131330,16758055,19957,Tag0,unknown
561,1611470767400,26,-60,-1.318359375e-05,54,47,69,747159,1083415,60250,272445,147358,131330,16758055,19957,Tag0,unknown
562,1611470767413,26,-23,-5.0537109375e-06,54,47,69,747159,1083415,60250,272445,147358,131330,16758055,19957,Tag0,unknown
563,1611470767458,26,1364,0.0002997070312500001,54,47,69,747159,1083415,60250,272445,147358,131330,16758055,19957,Tag0,unknown
564,1611470767481,26,1314,0.000288720703125,54,47,69,747159,1083415,60250,272445,147358,131330,16758055,19957,Tag0,unknown
565,1611470767491,26,885,0.0001944580078125,54,47,69,747159,1083415,60250,272445,147358,131330,16758055,19957,Tag0,unknown
566,1611470767501,26,242,5.317382812500001e-05,54,47,69,747159,1083415,60250,272445,147358,131330,16758055,19957,Tag0,unknown
567,1611470767512,26,-85,-1.86767578125e-05,54,47,69,747159,1083415,60250,272445,147358,131330,16758055,19957,Tag0,unknown
568,1611470767522,26,-308,-6.767578125e-05,54,47,69,747159,1083415,60250,272445,147358,131330,16758055,19957,Tag0,unknown
569,1611470767532,26,-45,-9.8876953125e-06,54,47,69,747159,1083415,60250,272445,147358,131330,16758055,19957,Tag0,unknown
570,1611470767544,26,-13,-2.8564453125e-06,54,47,69,747159,1083415,60250,272445,147358,131330,16758055,19957,Tag0,unknown
571,1611470767561,26,-348,-7.646484375e-05,54,47,69,747159,1083415,60250,272445,147358,131330,16758055,19957,Tag0,unknown
572,1611470767578,26,-205,-4.50439453125e-05,54,47,69,747159,1083415,60250,272445,147358,131330,16758055,19957,Tag0,unknown
573,1611470767614,26,53,1.1645507812500003e-05,54,47,69,747159,1083415,60250,272445,147358,131330,16758055,19957,Tag0,unknown
574,1611470767634,26,84,1.8457031250000007e-05,54,47,69,747159,1083415,60250,272445,147358,131330,16758055,19957,Tag0,unknown
575,1611470767644,0,-516,-0.00011337890625,81,54,69,811199,16760496,68291,15895,16749751,16756679,10040,2388,Tag0,unknown
576,1611470767666,0,68,1.494140625e-05,81,54,69,811199,16760496,68291,15895,16749751,16756679,10040,2388,Tag0,unknown
577,1611470767676,0,-85,-1.86767578125e-05,81,54,69,811199,16760496,68291,15895,16749751,16756679,10040,2388,Tag0,unknown
578,1611470767686,0,-53,-1.1645507812500003e-05,81,54,52,811199,16760496,68291,15895,16749751,16756679,10040,2388,Tag0,unknown
579,1611470767696,0,39,8.5693359375e-06,81,54,52,811199,16760496,68291,15895,16749751,16756679,10040,2388,Tag0,unknown
580,1611470767719,0,775,0.0001702880859375,81,54,52,811199,16760496,68291,15895,16749751,16756679,10040,2388,Tag0,unknown
581,1611470767729,0,81,1.77978515625e-05,81,54,52,811199,16760496,68291,15895,16749751,16756679,10040,2388,Tag0,unknown
582,1611470767745,0,100,2.197265625e-05,81,54,52,811199,16760496,68291,15895,16749751,16756679,10040,2388,Tag0,unknown
583,1611470767763,0,11,2.4169921875e-06,81,54,52,811199,16760496,68291,15895,16749751,16756679,10040,2388,Tag0,unknown
584,1611470767781,0,27,5.932617187500001e-06,81,54,52,811199,16760496,68291,15895,16749751,16756679,10040,2388,Tag0,unknown
585,1611470767799,0,-339,-7.448730468750001e-05,81,54,52,811199,16760496,68291,15895,16749751,16756679,10040,2388,Tag0,unknown
586,1611470767814,0,-109,-2.39501953125e-05,81,54,52,811199,16760496,68291,15895,16749751,16756679,10040,2388,Tag0,unknown
587,1611470767824,0,61,1.34033203125e-05,81,54,52,811199,16760496,68291,15895,16749751,16756679,10040,2388,Tag0,unknown
588,1611470767835,0,-258,-5.6689453125e-05,81,54,52,811199,16760496,68291,15895,16749751,16756679,10040,2388,Tag0,unknown
589,1611470767847,0,-556,-0.00012216796875000002,81,54,52,811199,16760496,68291,15895,16749751,16756679,10040,2388,Tag0,unknown
590,1611470767871,0,-42,-9.228515625000003e-06,81,54,52,811199,16760496,68291,15895,16749751,16756679,10040,2388,Tag0,unknown
591,1611470767882,0,-51,-1.12060546875e-05,81,54,52,811199,16760496,68291,15895,16749751,16756679,10040,2388,Tag0,unknown
592,1611470767897,0,-87,-1.91162109375e-05,81,54,52,811199,16760496,68291,15895,16749751,16756679,10040,2388,Tag0,unknown
593,1611470767912,0,56,1.23046875e-05,81,54,52,811199,16760496,68291,15895,16749751,16756679,10040,2388,Tag0,unknown
594,1611470767936,0,-48,-1.0546875e-05,81,54,52,811199,16760496,68291,15895,16749751,16756679,10040,2388,Tag0,unknown
595,1611470767946,0,-54,-1.1865234375e-05,81,54,52,811199,16760496,68291,15895,16749751,16756679,10040,2388,Tag0,unknown
596,1611470767962,0,55,1.20849609375e-05,81,54,52,811199,16760496,68291,15895,16749751,16756679,10040,2388,Tag0,unknown
597,1611470767980,0,-341,-7.492675781250003e-05,81,54,52,811199,16760496,68291,15895,16749751,16756679,10040,2388,Tag0,unknown
598,1611470768005,0,-299,-6.56982421875e-05,81,54,52,811199,16760496,68291,15895,16749751,16756679,10040,2388,Tag0,unknown
599,1611470768017,0,52,1.142578125e-05,81,54,52,811199,16760496,68291,15895,16749751,16756679,10040,2388,Tag0,unknown
600,1611470768027,0,-27,-5.932617187500001e-06,81,54,52,811199,16760496,68291,15895,16749751,16756679,10040,2388,Tag0,unknown
601,1611470768037,0,28,6.15234375e-06,81,54,52,811199,16760496,68291,15895,16749751,16756679,10040,2388,Tag0,unknown
602,1611470768049,0,103,2.26318359375e-05,81,54,52,811199,16760496,68291,15895,16749751,16756679,10040,2388,Tag0,unknown
603,1611470768076,0,376,8.261718750000001e-05,81,54,52,811199,16760496,68291,15895,16749751,16756679,10040,2388,Tag0,unknown
604,1611470768086,0,-47,-1.03271484375e-05,81,54,52,811199,16760496,68291,15895,16749751,16756679,10040,2388,Tag0,unknown
605,1611470768098,0,265,5.82275390625e-05,81,54,52,811199,16760496,68291,15895,16749751,16756679,10040,2388,Tag0,unknown
606,1611470768115,0,299,6.56982421875e-05,81,54,52,811199,16760496,68291,15895,16749751,16756679,10040,2388,Tag0,unknown
607,1611470768132,0,-95,-2.08740234375e-05,81,54,52,811199,16760496,68291,15895,16749751,16756679,10040,2388,Tag0,unknown
608,1611470768142,0,265,5.82275390625e-05,81,54,52,811199,16760496,68291,15895,16749751,16756679,10040,2388,Tag0,unknown
609,1611470768152,0,105,2.30712890625e-05,81,54,52,811199,16760496,68291,15895,16749751,16756679,10040,2388,Tag0,unknown
610,1611470768164,0,-315,-6.92138671875e-05,81,54,52,811199,16760496,68291,15895,16749751,16756679,10040,2388,Tag0,unknown
611,1611470768183,0,-94,-2.0654296875e-05,81,54,52,811199,16760496,68291,15895,16749751,16756679,10040,2388,Tag0,unknown
612,1611470768196,0,-74,-1.6259765625e-05,81,54,52,811199,16760496,68291,15895,16749751,16756679,10040,2388,Tag0,unknown
613,1611470768220,0,-101,-2.21923828125e-05,81,54,52,811199,16760496,68291,15895,16749751,16756679,10040,2388,Tag0,unknown
614,1611470768230,0,-305,-6.70166015625e-05,81,54,52,811199,16760496,68291,15895,16749751,16756679,10040,2388,Tag0,unknown
615,1611470768255,0,-88,-1.93359375e-05,81,54,52,811199,16760496,68291,15895,16749751,16756679,10040,2388,Tag0,unknown
616,1611470768266,0,113,2.48291015625e-05,81,54,52,811199,16760496,68291,15895,16749751,16756679,10040,2388,Tag0,unknown
617,1611470768276,0,-32,-7.03125e-06,81,54,52,811199,16760496,68291,15895,16749751,16756679,10040,2388,Tag0,unknown
618,1611470768286,0,-213,-4.68017578125e-05,81,54,52,811199,16760496,68291,15895,16749751,16756679,10040,2388,Tag0,unknown
619,1611470768299,0,-314,-6.8994140625e-05,81,54,52,811199,16760496,68291,15895,16749751,16756679,10040,2388,Tag0,unknown
620,1611470768315,0,-2048,-0.00045,81,54,52,811199,16760496,68291,15895,16749751,16756679,10040,2388,Tag0,unknown
621,1611470768333,0,-1485,-0.0003262939453125,81,54,52,811199,16760496,68291,15895,16749751,16756679,10040,2388,Tag0,unknown
622,1611470768349,0,-1233,-0.00027092285156250003,81,54,52,811199,16760496,68291,15895,16749751,16756679,10040,2388,Tag0,unknown
623,1611470768359,0,-313,-6.87744140625e-05,81,54,52,811199,16760496,68291,15895,16749751,16756679,10040,2388,Tag0,unknown
624,1611470768369,0,8,1.7578125e-06,81,54,52,811199,16760496,68291,15895,16749751,16756679,10040,2388,Tag0,unknown
625,1611470768381,0,81,1.77978515625e-05,81,54,52,811199,16760496,68291,15895,16749751,16756679,10040,2388,Tag0,unknown
626,1611470768401,0,209,4.59228515625e-05,81,54,52,811199,16760496,68291,15895,16749751,16756679,10040,2388,Tag0,unknown
627,1611470768416,0,540,0.00011865234375,81,54,52,811199,16760496,68291,15895,16749751,16756679,10040,2388,Tag0,unknown
628,1611470768426,0,513,0.0001127197265625,81,54,52,811199,16760496,68291,15895,16749751,16756679,10040,2388,Tag0,unknown
629,1611470768436,0,592,0.000130078125,81,54,52,811199,16760496,68291,15895,16749751,16756679,10040,2388,Tag0,unknown
630,1611470768449,0,231,5.07568359375e-05,81,54,52,811199,16760496,68291,15895,16749751,16756679,10040,2388,Tag0,unknown
631,1611470768475,0,416,9.140625e-05,81,54,52,811199,16760496,68291,15895,16749751,16756679,10040,2388,Tag0,unknown
632,1611470768497,0,529,0.0001162353515625,81,54,52,811199,16760496,68291,15895,16749751,16756679,10040,2388,Tag0,unknown
633,1611470768514,0,167,3.66943359375e-05,81,54,52,811199,16760496,68291,15895,16749751,16756679,10040,2388,Tag0,unknown
634,1611470768530,0,91,1.99951171875e-05,81,54,52,811199,16760496,68291,15895,16749751,16756679,10040,2388,Tag0,unknown
635,1611470768554,0,232,5.09765625e-05,81,54,52,811199,16760496,68291,15895,16749751,16756679,10040,2388,Tag0,unknown
636,1611470768566,0,210,4.6142578125e-05,81,54,52,811199,16760496,68291,15895,16749751,16756679,10040,2388,Tag0,unknown
637,1611470768576,0,144,3.1640625e-05,81,54,52,811199,16760496,68291,15895,16749751,16756679,10040,2388,Tag0,unknown
638,1611470768586,0,311,6.833496093750001e-05,81,54,52,811199,16760496,68291,15895,16749751,16756679,10040,2388,Tag0,unknown
639,1611470768598,0,291,6.39404296875e-05,81,54,52,811199,16760496,68291,15895,16749751,16756679,10040,2388,Tag0,unknown
640,1611470768608,0,157,3.44970703125e-05,81,54,52,811199,16760496,68291,15895,16749751,16756679,10040,2388,Tag0,unknown
641,1611470768618,0,-26,-5.712890625e-06,75,57,52,1364334,459991,128456,88395,126602,100619,95009,43578,Tag0,unknown
642,1611470768630,0,181,3.97705078125e-05,75,57,52,1364334,459991,128456,88395,126602,100619,95009,43578,Tag0,unknown
643,1611470768646,0,300,6.591796875e-05,75,57,52,1364334,459991,128456,88395,126602,100619,95009,43578,Tag0,unknown
644,1611470768664,0,278,6.108398437500001e-05,75,57,52,1364334,459991,128456,88395,126602,100619,95009,43578,Tag0,unknown
645,1611470768680,0,-90,-1.9775390625e-05,75,57,52,1364334,459991,128456,88395,126602,100619,95009,43578,Tag0,unknown
646,1611470768690,0,-124,-2.724609375e-05,75,57,52,1364334,459991,128456,88395,126602,100619,95009,43578,Tag0,unknown
647,1611470768700,0,-41,-9.0087890625e-06,75,57,52,1364334,459991,128456,88395,126602,100619,95009,43578,Tag0,unknown
648,1611470768714,0,89,1.95556640625e-05,75,57,52,1364334,459991,128456,88395,126602,100619,95009,43578,Tag0,unknown
649,1611470768734,0,-44,-9.66796875e-06,75,57,52,1364334,459991,128456,88395,126602,100619,95009,43578,Tag0,unknown
650,1611470768748,0,277,6.086425781250001e-05,75,57,52,1364334,459991,128456,88395,126602,100619,95009,43578,Tag0,unknown
651,1611470768758,0,-64,-1.40625e-05,75,57,52,1364334,459991,128456,88395,126602,100619,95009,43578,Tag0,unknown
652,1611470768772,0,102,2.2412109375e-05,75,57,52,1364334,459991,128456,88395,126602,100619,95009,43578,Tag0,unknown
653,1611470768782,0,-328,-7.207031249999999e-05,75,57,52,1364334,459991,128456,88395,126602,100619,95009,43578,Tag0,unknown
654,1611470768806,0,-118,-2.5927734375e-05,75,57,52,1364334,459991,128456,88395,126602,100619,95009,43578,Tag0,unknown
655,1611470768816,0,124,2.724609375e-05,75,57,52,1364334,459991,128456,88395,126602,100619,95009,43578,Tag0,unknown
656,1611470768830,0,-111,-2.43896484375e-05,75,57,52,1364334,459991,128456,88395,126602,100619,95009,43578,Tag0,unknown
657,1611470768848,0,81,1.77978515625e-05,75,57,52,1364334,459991,128456,88395,126602,100619,95009,43578,Tag0,unknown
658,1611470768865,0,-180,-3.955078125e-05,75,57,52,1364334,459991,128456,88395,126602,100619,95009,43578,Tag0,unknown
659,1611470768881,0,64,1.40625e-05,75,57,52,1364334,459991,128456,88395,126602,100619,95009,43578,Tag0,unknown
660,1611470768899,0,-116,-2.548828125e-05,75,57,52,1364334,459991,128456,88395,126602,100619,95009,43578,Tag0,unknown
661,1611470768909,0,-261,-5.73486328125e-05,75,57,52,1364334,459991,128456,88395,126602,100619,95009,43578,Tag0,unknown
662,1611470768919,0,-360,-7.91015625e-05,75,57,52,1364334,459991,128456,88395,126602,100619,95009,43578,Tag0,unknown
663,1611470768932,0,-133,-2.92236328125e-05,75,57,52,1364334,459991,128456,88395,126602,100619,95009,43578,Tag0,unknown
664,1611470768953,0,-16,-3.515625e-06,75,57,52,1364334,459991,128456,88395,126602,100619,95009,43578,Tag0,unknown
665,1611470768966,0,-37,-8.1298828125e-06,75,57,52,1364334,459991,128456,88395,126602,100619,95009,43578,Tag0,unknown
666,1611470768976,0,-275,-6.04248046875e-05,75,57,40,1364334,459991,128456,88395,126602,100619,95009,43578,Tag0,unknown
667,1611470768990,0,73,1.6040039062500002e-05,75,57,40,1364334,459991,128456,88395,126602,100619,95009,43578,Tag0,unknown
668,1611470769000,0,-375,-8.23974609375e-05,75,57,40,1364334,459991,128456,88395,126602,100619,95009,43578,Tag0,unknown
669,1611470769025,0,125,2.74658203125e-05,75,57,40,1364334,459991,128456,88395,126602,100619,95009,43578,Tag0,unknown
670,1611470769035,0,73,1.6040039062500002e-05,75,57,40,1364334,459991,128456,88395,126602,100619,95009,43578,Tag0,unknown
671,1611470769048,0,106,2.3291015625000006e-05,75,57,40,1364334,459991,128456,88395,126602,100619,95009,43578,Tag0,unknown
672,1611470769068,0,-281,-6.17431640625e-05,75,57,40,1364334,459991,128456,88395,126602,100619,95009,43578,Tag0,unknown
673,1611470769083,0,-344,-7.558593750000001e-05,75,57,40,1364334,459991,128456,88395,126602,100619,95009,43578,Tag0,unknown
674,1611470769102,0,124,2.724609375e-05,75,57,40,1364334,459991,128456,88395,126602,100619,95009,43578,Tag0,unknown
675,1611470769117,0,84,1.8457031250000007e-05,75,57,40,1364334,459991,128456,88395,126602,100619,95009,43578,Tag0,unknown
676,1611470769127,0,955,0.0002098388671875,75,57,40,1364334,459991,128456,88395,126602,100619,95009,43578,Tag0,unknown
677,1611470769139,0,257,5.64697265625e-05,75,57,106,1364334,459991,128456,88395,126602,100619,95009,43578,Tag0,unknown
678,1611470769151,0,-290,-6.3720703125e-05,75,57,106,1364334,459991,128456,88395,126602,100619,95009,43578,Tag0,unknown
679,1611470769170,0,-111,-2.43896484375e-05,75,57,106,1364334,459991,128456,88395,126602,100619,95009,43578,Tag0,unknown
680,1611470769182,0,55,1.20849609375e-05,75,57,106,1364334,459991,128456,88395,126602,100619,95009,43578,Tag0,unknown
681,1611470769209,0,45,9.8876953125e-06,75,57,106,1364334,459991,128456,88395,126602,100619,95009,43578,Tag0,unknown
682,1611470769233,0,121,2.6586914062500006e-05,75,57,106,1364334,459991,128456,88395,126602,100619,95009,43578,Tag0,unknown
683,1611470769251,0,-262,-5.7568359375e-05,75,57,106,1364334,459991,128456,88395,126602,100619,95009,43578,Tag0,unknown
684,1611470769261,0,-291,-6.39404296875e-05,75,57,106,1364334,459991,128456,88395,126602,100619,95009,43578,Tag0,unknown
685,1611470769271,0,330,7.2509765625e-05,75,57,106,1364334,459991,128456,88395,126602,100619,95009,43578,Tag0,unknown
686,1611470769284,0,887,0.00019489746093750006,75,57,106,1364334,459991,128456,88395,126602,100619,95009,43578,Tag0,unknown
687,1611470769300,0,311,6.833496093750001e-05,75,57,106,1364334,459991,128456,88395,126602,100619,95009,43578,Tag0,unknown
688,1611470769316,0,-2048,-0.00045,75,57,106,1364334,459991,128456,88395,126602,100619,95009,43578,Tag0,unknown
689,1611470769333,0,-1698,-0.000373095703125,75,57,106,1364334,459991,128456,88395,126602,100619,95009,43578,Tag0,unknown
690,1611470769343,0,-743,-0.00016325683593750002,75,57,106,1364334,459991,128456,88395,126602,100619,95009,43578,Tag0,unknown
691,1611470769356,0,-475,-0.0001043701171875,75,57,106,1364334,459991,128456,88395,126602,100619,95009,43578,Tag0,unknown
692,1611470769368,0,-597,-0.00013117675781250005,75,57,106,1364334,459991,128456,88395,126602,100619,95009,43578,Tag0,unknown
693,1611470769390,0,54,1.1865234375e-05,75,57,106,1364334,459991,128456,88395,126602,100619,95009,43578,Tag0,unknown
694,1611470769400,0,121,2.6586914062500006e-05,75,57,106,1364334,459991,128456,88395,126602,100619,95009,43578,Tag0,unknown
695,1611470769410,0,-128,-2.8125e-05,75,57,106,1364334,459991,128456,88395,126602,100619,95009,43578,Tag0,unknown
696,1611470769420,0,-61,-1.34033203125e-05,75,57,106,1364334,459991,128456,88395,126602,100619,95009,43578,Tag0,unknown
697,1611470769434,0,-107,-2.35107421875e-05,75,57,106,1364334,459991,128456,88395,126602,100619,95009,43578,Tag0,unknown
698,1611470769450,0,325,7.14111328125e-05,75,57,106,1364334,459991,128456,88395,126602,100619,95009,43578,Tag0,unknown
699,1611470769468,0,269,5.91064453125e-05,75,57,106,1364334,459991,128456,88395,126602,100619,95009,43578,Tag0,unknown
700,1611470769484,0,276,6.064453125e-05,75,57,106,1364334,459991,128456,88395,126602,100619,95009,43578,Tag0,unknown
701,1611470769494,0,291,6.39404296875e-05,75,57,106,1364334,459991,128456,88395,126602,100619,95009,43578,Tag0,unknown
702,1611470769504,0,-258,-5.6689453125e-05,75,57,106,1364334,459991,128456,88395,126602,100619,95009,43578,Tag0,unknown
703,1611470769517,0,68,1.494140625e-05,75,57,106,1364334,459991,128456,88395,126602,100619,95009,43578,Tag0,unknown
704,1611470769535,0,135,2.96630859375e-05,75,57,106,1364334,459991,128456,88395,126602,100619,95009,43578,Tag0,unknown
705,1611470769551,0,325,7.14111328125e-05,75,57,106,1364334,459991,128456,88395,126602,100619,95009,43578,Tag0,unknown
706,1611470769569,0,73,1.6040039062500002e-05,75,57,106,1364334,459991,128456,88395,126602,100619,95009,43578,Tag0,unknown
707,1611470769585,0,112,2.4609375e-05,75,57,106,1364334,459991,128456,88395,126602,100619,95009,43578,Tag0,unknown
708,1611470769595,0,-43,-9.4482421875e-06,75,57,106,1364334,459991,128456,88395,126602,100619,95009,43578,Tag0,unknown
709,1611470769607,0,-58,-1.2744140625e-05,75,57,106,1364334,459991,128456,88395,126602,100619,95009,43578,Tag0,unknown
710,1611470769620,0,43,9.4482421875e-06,91,57,106,85151,9626,15432,4438,12273,16025,6768,2286,Tag0,unknown
711,1611470769638,0,1191,0.0002616943359375,91,57,106,85151,9626,15432,4438,12273,16025,6768,2286,Tag0,unknown
712,1611470769649,0,1143,0.0002511474609375,91,57,106,85151,9626,15432,4438,12273,16025,6768,2286,Tag0,unknown
713,1611470769666,0,151,3.31787109375e-05,91,57,106,85151,9626,15432,4438,12273,16025,6768,2286,Tag0,unknown
714,1611470769682,0,-196,-4.306640625e-05,91,57,106,85151,9626,15432,4438,12273,16025,6768,2286,Tag0,unknown
715,1611470769700,0,-487,-0.0001070068359375,91,57,106,85151,9626,15432,4438,12273,16025,6768,2286,Tag0,unknown
716,1611470769721,0,-181,-3.97705078125e-05,91,57,106,85151,9626,15432,4438,12273,16025,6768,2286,Tag0,unknown
717,1611470769735,0,-371,-8.151855468750001e-05,91,57,106,85151,9626,15432,4438,12273,16025,6768,2286,Tag0,unknown
718,1611470769745,0,-785,-0.0001724853515625,91,57,106,85151,9626,15432,4438,12273,16025,6768,2286,Tag0,unknown
719,1611470769768,0,-519,-0.0001140380859375,91,57,106,85151,9626,15432,4438,12273,16025,6768,2286,Tag0,unknown
720,1611470769797,0,-148,-3.251953125e-05,91,57,106,85151,9626,15432,4438,12273,16025,6768,2286,Tag0,unknown
721,1611470769817,0,-196,-4.306640625e-05,91,57,106,85151,9626,15432,4438,12273,16025,6768,2286,Tag0,unknown
722,1611470769827,0,88,1.93359375e-05,91,57,106,85151,9626,15432,4438,12273,16025,6768,2286,Tag0,unknown
723,1611470769851,0,-195,-4.28466796875e-05,91,57,106,85151,9626,15432,4438,12273,16025,6768,2286,Tag0,unknown
724,1611470769869,0,327,7.18505859375e-05,91,57,106,85151,9626,15432,4438,12273,16025,6768,2286,Tag0,unknown
725,1611470769885,0,345,7.58056640625e-05,91,57,106,85151,9626,15432,4438,12273,16025,6768,2286,Tag0,unknown
726,1611470769895,0,-95,-2.08740234375e-05,91,57,106,85151,9626,15432,4438,12273,16025,6768,2286,Tag0,unknown
727,1611470769907,0,119,2.6147460937500007e-05,91,57,106,85151,9626,15432,4438,12273,16025,6768,2286,Tag0,unknown
728,1611470769918,0,69,1.51611328125e-05,91,57,106,85151,9626,15432,4438,12273,16025,6768,2286,Tag0,unknown
729,1611470769940,0,-93,-2.04345703125e-05,91,57,106,85151,9626,15432,4438,12273,16025,6768,2286,Tag0,unknown
730,1611470769951,0,-123,-2.70263671875e-05,91,57,106,85151,9626,15432,4438,12273,16025,6768,2286,Tag0,unknown
731,1611470769961,0,28,6.15234375e-06,91,57,106,85151,9626,15432,4438,12273,16025,6768,2286,Tag0,unknown
732,1611470769971,0,294,6.4599609375e-05,91,57,106,85151,9626,15432,4438,12273,16025,6768,2286,Tag0,unknown
733,1611470770006,0,16,3.515625e-06,91,57,106,85151,9626,15432,4438,12273,16025,6768,2286,Tag0,unknown
734,1611470770017,0,-273,-5.9985351562500014e-05,91,57,106,85151,9626,15432,4438,12273,16025,6768,2286,Tag0,unknown
735,1611470770027,0,1644,0.00036123046875,91,57,106,85151,9626,15432,4438,12273,16025,6768,2286,Tag0,unknown
736,1611470770063,0,1326,0.000291357421875,91,57,106,85151,9626,15432,4438,12273,16025,6768,2286,Tag0,unknown
737,1611470770086,0,1385,0.0003043212890625,91,57,106,85151,9626,15432,4438,12273,16025,6768,2286,Tag0,unknown
738,1611470770096,0,-345,-7.58056640625e-05,91,57,106,85151,9626,15432,4438,12273,16025,6768,2286,Tag0,unknown
739,1611470770106,0,-549,-0.0001206298828125,91,57,106,85151,9626,15432,4438,12273,16025,6768,2286,Tag0,unknown
740,1611470770124,0,-519,-0.0001140380859375,91,57,106,85151,9626,15432,4438,12273,16025,6768,2286,Tag0,unknown
741,1611470770136,0,-571,-0.0001254638671875,91,57,106,85151,9626,15432,4438,12273,16025,6768,2286,Tag0,unknown
742,1611470770146,0,-267,-5.86669921875e-05,91,57,106,85151,9626,15432,4438,12273,16025,6768,2286,Tag0,unknown
743,1611470770156,0,20,4.39453125e-06,91,57,106,85151,9626,15432,4438,12273,16025,6768,2286,Tag0,unknown
744,1611470770185,0,-281,-6.17431640625e-05,91,57,106,85151,9626,15432,4438,12273,16025,6768,2286,Tag0,unknown
745,1611470770195,0,101,2.21923828125e-05,91,57,106,85151,9626,15432,4438,12273,16025,6768,2286,Tag0,unknown
746,1611470770207,0,-115,-2.52685546875e-05,91,57,106,85151,9626,15432,4438,12273,16025,6768,2286,Tag0,unknown
747,1611470770219,0,19,4.1748046875e-06,91,57,106,85151,9626,15432,4438,12273,16025,6768,2286,Tag0,unknown
748,1611470770235,0,100,2.197265625e-05,91,57,106,85151,9626,15432,4438,12273,16025,6768,2286,Tag0,unknown
749,1611470770251,0,-98,-2.1533203125e-05,91,57,106,85151,9626,15432,4438,12273,16025,6768,2286,Tag0,unknown
750,1611470770268,0,-111,-2.43896484375e-05,91,57,106,85151,9626,15432,4438,12273,16025,6768,2286,Tag0,unknown
751,1611470770283,0,96,2.109375e-05,91,57,106,85151,9626,15432,4438,12273,16025,6768,2286,Tag0,unknown
752,1611470770308,0,-109,-2.39501953125e-05,91,57,106,85151,9626,15432,4438,12273,16025,6768,2286,Tag0,unknown
753,1611470770318,0,-102,-2.2412109375e-05,91,57,106,85151,9626,15432,4438,12273,16025,6768,2286,Tag0,unknown
754,1611470770344,0,-88,-1.93359375e-05,91,57,106,85151,9626,15432,4438,12273,16025,6768,2286,Tag0,unknown
755,1611470770354,0,49,1.07666015625e-05,91,57,106,85151,9626,15432,4438,12273,16025,6768,2286,Tag0,unknown
756,1611470770378,0,39,8.5693359375e-06,91,57,106,85151,9626,15432,4438,12273,16025,6768,2286,Tag0,unknown
757,1611470770388,0,67,1.4721679687500003e-05,91,57,106,85151,9626,15432,4438,12273,16025,6768,2286,Tag0,unknown
758,1611470770402,0,103,2.26318359375e-05,91,57,106,85151,9626,15432,4438,12273,16025,6768,2286,Tag0,unknown
759,1611470770418,0,40,8.7890625e-06,91,57,106,85151,9626,15432,4438,12273,16025,6768,2286,Tag0,unknown
760,1611470770435,0,-355,-7.80029296875e-05,91,57,106,85151,9626,15432,4438,12273,16025,6768,2286,Tag0,unknown
761,1611470770452,0,-55,-1.20849609375e-05,91,57,106,85151,9626,15432,4438,12273,16025,6768,2286,Tag0,unknown
762,1611470770469,0,86,1.8896484375000006e-05,91,57,106,85151,9626,15432,4438,12273,16025,6768,2286,Tag0,unknown
763,1611470770479,0,-10,-2.197265625e-06,91,57,106,85151,9626,15432,4438,12273,16025,6768,2286,Tag0,unknown
764,1611470770490,0,-94,-2.0654296875e-05,91,57,43,85151,9626,15432,4438,12273,16025,6768,2286,Tag0,unknown
765,1611470770501,0,294,6.4599609375e-05,91,57,43,85151,9626,15432,4438,12273,16025,6768,2286,Tag0,unknown
766,1611470770524,0,-77,-1.69189453125e-05,91,57,43,85151,9626,15432,4438,12273,16025,6768,2286,Tag0,unknown
767,1611470770535,0,-126,-2.7685546875e-05,91,57,43,85151,9626,15432,4438,12273,16025,6768,2286,Tag0,unknown
768,1611470770545,0,36,7.91015625e-06,91,57,43,85151,9626,15432,4438,12273,16025,6768,2286,Tag0,unknown
769,1611470770565,0,64,1.40625e-05,91,57,43,85151,9626,15432,4438,12273,16025,6768,2286,Tag0,unknown
770,1611470770584,0,64,1.40625e-05,91,57,43,85151,9626,15432,4438,12273,16025,6768,2286,Tag0,unknown
771,1611470770605,0,-787,-0.0001729248046875,100,69,43,801219,210236,74349,85776,91331,37090,30322,19676,Tag0,unknown
772,1611470770619,0,-340,-7.470703125e-05,100,69,43,801219,210236,74349,85776,91331,37090,30322,19676,Tag0,unknown
773,1611470770636,0,9,1.9775390625e-06,100,69,43,801219,210236,74349,85776,91331,37090,30322,19676,Tag0,unknown
774,1611470770656,0,8,1.7578125e-06,100,69,43,801219,210236,74349,85776,91331,37090,30322,19676,Tag0,unknown
775,1611470770670,0,11,2.4169921875e-06,100,69,43,801219,210236,74349,85776,91331,37090,30322,19676,Tag0,unknown
776,1611470770680,0,76,1.669921875e-05,100,69,43,801219,210236,74349,85776,91331,37090,30322,19676,Tag0,unknown
777,1611470770690,0,22,4.833984375e-06,100,69,43,801219,210236,74349,85776,91331,37090,30322,19676,Tag0,unknown
778,1611470770709,0,-305,-6.70166015625e-05,100,69,43,801219,210236,74349,85776,91331,37090,30322,19676,Tag0,unknown
779,1611470770719,0,-309,-6.78955078125e-05,100,69,43,801219,210236,74349,85776,91331,37090,30322,19676,Tag0,unknown
780,1611470770729,0,-297,-6.525878906250001e-05,100,69,43,801219,210236,74349,85776,91331,37090,30322,19676,Tag0,unknown
781,1611470770750,0,-363,-7.97607421875e-05,100,69,43,801219,210236,74349,85776,91331,37090,30322,19676,Tag0,unknown
782,1611470770767,0,96,2.109375e-05,100,69,43,801219,210236,74349,85776,91331,37090,30322,19676,Tag0,unknown
783,1611470770784,0,45,9.8876953125e-06,100,69,43,801219,210236,74349,85776,91331,37090,30322,19676,Tag0,unknown
784,1611470770803,0,91,1.99951171875e-05,100,69,43,801219,210236,74349,85776,91331,37090,30322,19676,Tag0,unknown
785,1611470770813,0,-53,-1.1645507812500003e-05,100,69,43,801219,210236,74349,85776,91331,37090,30322,19676,Tag0,unknown
786,1611470770824,0,-88,-1.93359375e-05,100,69,43,801219,210236,74349,85776,91331,37090,30322,19676,Tag0,unknown
787,1611470770836,0,267,5.86669921875e-05,100,69,43,801219,210236,74349,85776,91331,37090,30322,19676,Tag0,unknown
788,1611470770856,0,147,3.22998046875e-05,100,69,43,801219,210236,74349,85776,91331,37090,30322,19676,Tag0,unknown
789,1611470770869,0,345,7.58056640625e-05,100,69,43,801219,210236,74349,85776,91331,37090,30322,19676,Tag0,unknown
790,1611470770879,0,-95,-2.08740234375e-05,100,69,43,801219,210236,74349,85776,91331,37090,30322,19676,Tag0,unknown
791,1611470770895,0,-340,-7.470703125e-05,100,69,43,801219,210236,74349,85776,91331,37090,30322,19676,Tag0,unknown
792,1611470770905,0,45,9.8876953125e-06,100,69,43,801219,210236,74349,85776,91331,37090,30322,19676,Tag0,unknown
793,1611470770930,0,-360,-7.91015625e-05,100,69,43,801219,210236,74349,85776,91331,37090,30322,19676,Tag0,unknown
794,1611470770952,0,-152,-3.33984375e-05,100,69,43,801219,210236,74349,85776,91331,37090,30322,19676,Tag0,unknown
795,1611470770968,0,-360,-7.91015625e-05,100,69,43,801219,210236,74349,85776,91331,37090,30322,19676,Tag0,unknown
796,1611470770985,0,-359,-7.88818359375e-05,100,69,43,801219,210236,74349,85776,91331,37090,30322,19676,Tag0,unknown
797,1611470771005,0,-85,-1.86767578125e-05,100,69,43,801219,210236,74349,85776,91331,37090,30322,19676,Tag0,unknown
798,1611470771018,0,96,2.109375e-05,100,69,43,801219,210236,74349,85776,91331,37090,30322,19676,Tag0,unknown
799,1611470771035,0,27,5.932617187500001e-06,100,69,43,801219,210236,74349,85776,91331,37090,30322,19676,Tag0,unknown
800,1611470771054,0,44,9.66796875e-06,100,69,43,801219,210236,74349,85776,91331,37090,30322,19676,Tag0,unknown
801,1611470771080,0,82,1.8017578125e-05,100,69,43,801219,210236,74349,85776,91331,37090,30322,19676,Tag0,unknown
802,1611470771090,0,45,9.8876953125e-06,100,69,43,801219,210236,74349,85776,91331,37090,30322,19676,Tag0,unknown
803,1611470771104,0,42,9.228515625000003e-06,100,69,43,801219,210236,74349,85776,91331,37090,30322,19676,Tag0,unknown
804,1611470771114,0,28,6.15234375e-06,100,69,43,801219,210236,74349,85776,91331,37090,30322,19676,Tag0,unknown
805,1611470771124,0,-381,-8.371582031250001e-05,100,69,43,801219,210236,74349,85776,91331,37090,30322,19676,Tag0,unknown
806,1611470771147,0,77,1.69189453125e-05,100,69,43,801219,210236,74349,85776,91331,37090,30322,19676,Tag0,unknown
807,1611470771157,0,73,1.6040039062500002e-05,100,69,43,801219,210236,74349,85776,91331,37090,30322,19676,Tag0,unknown
808,1611470771170,0,-321,-7.053222656250001e-05,100,69,43,801219,210236,74349,85776,91331,37090,30322,19676,Tag0,unknown
809,1611470771180,0,80,1.7578125e-05,100,69,43,801219,210236,74349,85776,91331,37090,30322,19676,Tag0,unknown
810,1611470771192,0,-309,-6.78955078125e-05,100,69,43,801219,210236,74349,85776,91331,37090,30322,19676,Tag0,unknown
811,1611470771203,0,-301,-6.613769531250001e-05,100,69,43,801219,210236,74349,85776,91331,37090,30322,19676,Tag0,unknown
812,1611470771226,0,-83,-1.82373046875e-05,100,69,43,801219,210236,74349,85776,91331,37090,30322,19676,Tag0,unknown
813,1611470771245,0,80,1.7578125e-05,100,69,43,801219,210236,74349,85776,91331,37090,30322,19676,Tag0,unknown
814,1611470771255,0,51,1.12060546875e-05,100,69,43,801219,210236,74349,85776,91331,37090,30322,19676,Tag0,unknown
815,1611470771266,0,-70,-1.5380859375e-05,100,69,41,801219,210236,74349,85776,91331,37090,30322,19676,Tag0,unknown
816,1611470771286,0,11,2.4169921875e-06,100,69,41,801219,210236,74349,85776,91331,37090,30322,19676,Tag0,unknown
817,1611470771303,0,28,6.15234375e-06,100,69,41,801219,210236,74349,85776,91331,37090,30322,19676,Tag0,unknown
818,1611470771318,0,-90,-1.9775390625e-05,100,69,41,801219,210236,74349,85776,91331,37090,30322,19676,Tag0,unknown
819,1611470771344,0,16,3.515625e-06,100,69,41,801219,210236,74349,85776,91331,37090,30322,19676,Tag0,unknown
820,1611470771354,0,-99,-2.1752929687500006e-05,100,69,41,801219,210236,74349,85776,91331,37090,30322,19676,Tag0,unknown
821,1611470771369,0,67,1.4721679687500003e-05,100,69,41,801219,210236,74349,85776,91331,37090,30322,19676,Tag0,unknown
822,1611470771386,0,-541,-0.0001188720703125,100,69,41,801219,210236,74349,85776,91331,37090,30322,19676,Tag0,unknown
823,1611470771405,0,-452,-9.931640625e-05,100,69,41,801219,210236,74349,85776,91331,37090,30322,19676,Tag0,unknown
824,1611470771421,0,-133,-2.92236328125e-05,100,69,41,801219,210236,74349,85776,91331,37090,30322,19676,Tag0,unknown
825,1611470771437,0,-360,-7.91015625e-05,100,69,41,801219,210236,74349,85776,91331,37090,30322,19676,Tag0,unknown
826,1611470771447,0,66,1.4501953125e-05,100,69,41,801219,210236,74349,85776,91331,37090,30322,19676,Tag0,unknown
827,1611470771458,0,-290,-6.3720703125e-05,100,69,41,801219,210236,74349,85776,91331,37090,30322,19676,Tag0,unknown
828,1611470771470,0,-364,-7.998046875e-05,100,69,41,801219,210236,74349,85776,91331,37090,30322,19676,Tag0,unknown
829,1611470771491,0,-86,-1.8896484375000006e-05,100,69,50,801219,210236,74349,85776,91331,37090,30322,19676,Tag0,unknown
830,1611470771504,0,-4,-8.7890625e-07,100,69,50,801219,210236,74349,85776,91331,37090,30322,19676,Tag0,unknown
831,1611470771514,0,35,7.6904296875e-06,100,69,50,801219,210236,74349,85776,91331,37090,30322,19676,Tag0,unknown
832,1611470771528,0,-76,-1.669921875e-05,100,69,50,801219,210236,74349,85776,91331,37090,30322,19676,Tag0,unknown
833,1611470771538,0,71,1.56005859375e-05,100,69,50,801219,210236,74349,85776,91331,37090,30322,19676,Tag0,unknown
834,1611470771561,0,50,1.0986328125e-05,100,69,50,801219,210236,74349,85776,91331,37090,30322,19676,Tag0,unknown
835,1611470771571,0,98,2.1533203125e-05,100,69,50,801219,210236,74349,85776,91331,37090,30322,19676,Tag0,unknown
836,1611470771581,0,323,7.09716796875e-05,100,69,50,801219,210236,74349,85776,91331,37090,30322,19676,Tag0,unknown
837,1611470771591,0,-63,-1.38427734375e-05,100,69,50,801219,210236,74349,85776,91331,37090,30322,19676,Tag0,unknown
838,1611470771607,0,102,2.2412109375e-05,83,64,50,755209,82647,27800,7680,3917,8370,741,3364,Tag0,unknown
839,1611470771626,0,270,5.9326171875e-05,83,64,50,755209,82647,27800,7680,3917,8370,741,3364,Tag0,unknown
840,1611470771636,0,322,7.0751953125e-05,83,64,50,755209,82647,27800,7680,3917,8370,741,3364,Tag0,unknown
841,1611470771652,0,134,2.9443359375000006e-05,83,64,50,755209,82647,27800,7680,3917,8370,741,3364,Tag0,unknown
842,1611470771676,0,-111,-2.43896484375e-05,83,64,50,755209,82647,27800,7680,3917,8370,741,3364,Tag0,unknown
843,1611470771686,0,312,6.85546875e-05,83,64,50,755209,82647,27800,7680,3917,8370,741,3364,Tag0,unknown
844,1611470771715,0,-821,-0.0001803955078125,83,64,50,755209,82647,27800,7680,3917,8370,741,3364,Tag0,unknown
845,1611470771725,0,-675,-0.0001483154296875,83,64,50,755209,82647,27800,7680,3917,8370,741,3364,Tag0,unknown
846,1611470771738,0,-487,-0.0001070068359375,83,64,50,755209,82647,27800,7680,3917,8370,741,3364,Tag0,unknown
847,1611470771756,0,-583,-0.0001281005859375,83,64,50,755209,82647,27800,7680,3917,8370,741,3364,Tag0,unknown
848,1611470771771,0,-187,-4.10888671875e-05,83,64,50,755209,82647,27800,7680,3917,8370,741,3364,Tag0,unknown
849,1611470771788,0,-292,-6.416015625000001e-05,83,64,121,755209,82647,27800,7680,3917,8370,741,3364,Tag0,unknown
850,1611470771804,0,75,1.64794921875e-05,83,64,121,755209,82647,27800,7680,3917,8370,741,3364,Tag0,unknown
851,1611470771824,0,-39,-8.5693359375e-06,83,64,121,755209,82647,27800,7680,3917,8370,741,3364,Tag0,unknown
852,1611470771838,0,105,2.30712890625e-05,83,64,121,755209,82647,27800,7680,3917,8370,741,3364,Tag0,unknown
853,1611470771848,0,-71,-1.56005859375e-05,83,64,121,755209,82647,27800,7680,3917,8370,741,3364,Tag0,unknown
854,1611470771861,0,-47,-1.03271484375e-05,83,64,121,755209,82647,27800,7680,3917,8370,741,3364,Tag0,unknown
855,1611470771871,0,-355,-7.80029296875e-05,83,64,121,755209,82647,27800,7680,3917,8370,741,3364,Tag0,unknown
856,1611470771936,0,26,5.712890625e-06,83,64,121,755209,82647,27800,7680,3917,8370,741,3364,Tag0,unknown
857,1611470771960,0,29,6.3720703125e-06,83,64,121,755209,82647,27800,7680,3917,8370,741,3364,Tag0,unknown
858,1611470772004,0,107,2.35107421875e-05,83,64,121,755209,82647,27800,7680,3917,8370,741,3364,Tag0,unknown
859,1611470772022,0,-121,-2.6586914062500006e-05,83,64,121,755209,82647,27800,7680,3917,8370,741,3364,Tag0,unknown
860,1611470772032,0,67,1.4721679687500003e-05,83,64,121,755209,82647,27800,7680,3917,8370,741,3364,Tag0,unknown
861,1611470772070,0,101,2.21923828125e-05,83,64,121,755209,82647,27800,7680,3917,8370,741,3364,Tag0,unknown
862,1611470772087,0,-265,-5.82275390625e-05,83,64,121,755209,82647,27800,7680,3917,8370,741,3364,Tag0,unknown
863,1611470772137,0,71,1.56005859375e-05,83,64,121,755209,82647,27800,7680,3917,8370,741,3364,Tag0,unknown
864,1611470772155,0,119,2.6147460937500007e-05,83,64,121,755209,82647,27800,7680,3917,8370,741,3364,Tag0,unknown
865,1611470772205,0,-23,-5.0537109375e-06,83,64,121,755209,82647,27800,7680,3917,8370,741,3364,Tag0,unknown
866,1611470772226,0,80,1.7578125e-05,83,64,121,755209,82647,27800,7680,3917,8370,741,3364,Tag0,unknown
867,1611470772238,0,-122,-2.6806640625e-05,83,64,37,755209,82647,27800,7680,3917,8370,741,3364,Tag0,unknown
868,1611470772275,0,101,2.21923828125e-05,83,64,37,755209,82647,27800,7680,3917,8370,741,3364,Tag0,unknown
869,1611470772289,0,113,2.48291015625e-05,83,64,37,755209,82647,27800,7680,3917,8370,741,3364,Tag0,unknown
870,1611470772343,0,87,1.91162109375e-05,83,64,37,755209,82647,27800,7680,3917,8370,741,3364,Tag0,unknown
871,1611470772357,0,125,2.74658203125e-05,83,64,37,755209,82647,27800,7680,3917,8370,741,3364,Tag0,unknown
872,1611470772410,0,50,1.0986328125e-05,83,64,37,755209,82647,27800,7680,3917,8370,741,3364,Tag0,unknown
873,1611470772423,0,104,2.28515625e-05,83,64,37,755209,82647,27800,7680,3917,8370,741,3364,Tag0,unknown
874,1611470772433,0,77,1.69189453125e-05,83,64,37,755209,82647,27800,7680,3917,8370,741,3364,Tag0,unknown
875,1611470772443,0,-47,-1.03271484375e-05,83,64,37,755209,82647,27800,7680,3917,8370,741,3364,Tag0,unknown
876,1611470772467,0,-91,-1.99951171875e-05,83,64,37,755209,82647,27800,7680,3917,8370,741,3364,Tag0,unknown
877,1611470772490,0,291,6.39404296875e-05,83,64,37,755209,82647,27800,7680,3917,8370,741,3364,Tag0,unknown
878,1611470772500,0,1244,0.00027333984375000004,83,64,37,755209,82647,27800,7680,3917,8370,741,3364,Tag0,unknown
879,1611470772510,0,425,9.33837890625e-05,83,64,37,755209,82647,27800,7680,3917,8370,741,3364,Tag0,unknown
880,1611470772521,0,-145,-3.18603515625e-05,83,64,37,755209,82647,27800,7680,3917,8370,741,3364,Tag0,unknown
881,1611470772531,0,490,0.000107666015625,83,64,37,755209,82647,27800,7680,3917,8370,741,3364,Tag0,unknown
882,1611470772541,0,-267,-5.86669921875e-05,83,64,37,755209,82647,27800,7680,3917,8370,741,3364,Tag0,unknown
883,1611470772569,0,-541,-0.0001188720703125,83,64,37,755209,82647,27800,7680,3917,8370,741,3364,Tag0,unknown
884,1611470772588,0,-413,-9.07470703125e-05,83,64,37,755209,82647,27800,7680,3917,8370,741,3364,Tag0,unknown
885,1611470772606,0,-809,-0.0001777587890625,83,64,37,755209,82647,27800,7680,3917,8370,741,3364,Tag0,unknown
886,1611470772630,0,-876,-0.00019248046875,83,57,37,1558424,252813,43775,10499,120806,33600,32199,16048,Tag0,unknown
887,1611470772640,0,-378,-8.3056640625e-05,83,57,37,1558424,252813,43775,10499,120806,33600,32199,16048,Tag0,unknown
888,1611470772659,0,-545,-0.0001197509765625,83,57,37,1558424,252813,43775,10499,120806,33600,32199,16048,Tag0,unknown
889,1611470772669,0,-355,-7.80029296875e-05,83,57,37,1558424,252813,43775,10499,120806,33600,32199,16048,Tag0,unknown
890,1611470772687,0,-291,-6.39404296875e-05,83,57,37,1558424,252813,43775,10499,120806,33600,32199,16048,Tag0,unknown
891,1611470772709,0,87,1.91162109375e-05,83,57,37,1558424,252813,43775,10499,120806,33600,32199,16048,Tag0,unknown
892,1611470772721,0,-96,-2.109375e-05,83,57,37,1558424,252813,43775,10499,120806,33600,32199,16048,Tag0,unknown
893,1611470772748,0,-123,-2.70263671875e-05,83,57,37,1558424,252813,43775,10499,120806,33600,32199,16048,Tag0,unknown
894,1611470772759,0,19,4.1748046875e-06,83,57,37,1558424,252813,43775,10499,120806,33600,32199,16048,Tag0,unknown
895,1611470772774,0,-187,-4.10888671875e-05,83,57,37,1558424,252813,43775,10499,120806,33600,32199,16048,Tag0,unknown
896,1611470772784,0,21,4.614257812500002e-06,83,57,37,1558424,252813,43775,10499,120806,33600,32199,16048,Tag0,unknown
897,1611470772794,0,-233,-5.119628906250001e-05,83,57,37,1558424,252813,43775,10499,120806,33600,32199,16048,Tag0,unknown
898,1611470772817,0,331,7.272949218750001e-05,83,57,37,1558424,252813,43775,10499,120806,33600,32199,16048,Tag0,unknown
899,1611470772827,0,83,1.82373046875e-05,83,57,37,1558424,252813,43775,10499,120806,33600,32199,16048,Tag0,unknown
900,1611470772839,0,273,5.9985351562500014e-05,83,57,37,1558424,252813,43775,10499,120806,33600,32199,16048,Tag0,unknown
901,1611470772866,0,41,9.0087890625e-06,83,57,37,1558424,252813,43775,10499,120806,33600,32199,16048,Tag0,unknown
902,1611470772888,0,40,8.7890625e-06,83,57,37,1558424,252813,43775,10499,120806,33600,32199,16048,Tag0,unknown
903,1611470772905,0,-318,-6.9873046875e-05,83,57,37,1558424,252813,43775,10499,120806,33600,32199,16048,Tag0,unknown
904,1611470772922,0,5,1.0986328125e-06,83,57,37,1558424,252813,43775,10499,120806,33600,32199,16048,Tag0,unknown
905,1611470772941,0,297,6.525878906250001e-05,83,57,37,1558424,252813,43775,10499,120806,33600,32199,16048,Tag0,unknown
906,1611470772957,0,-34,-7.470703125e-06,83,57,37,1558424,252813,43775,10499,120806,33600,32199,16048,Tag0,unknown
907,1611470772967,0,-203,-4.4604492187500014e-05,83,57,37,1558424,252813,43775,10499,120806,33600,32199,16048,Tag0,unknown
908,1611470772991,0,1028,0.00022587890625,83,57,37,1558424,252813,43775,10499,120806,33600,32199,16048,Tag0,unknown
909,1611470773008,0,1153,0.0002533447265625,83,57,37,1558424,252813,43775,10499,120806,33600,32199,16048,Tag0,unknown
910,1611470773018,0,-2048,-0.00045,83,57,37,1558424,252813,43775,10499,120806,33600,32199,16048,Tag0,unknown
911,1611470773048,0,-1879,-0.0004128662109375,83,57,37,1558424,252813,43775,10499,120806,33600,32199,16048,Tag0,unknown
912,1611470773058,0,-1449,-0.0003183837890625,83,57,37,1558424,252813,43775,10499,120806,33600,32199,16048,Tag0,unknown
913,1611470773073,0,-340,-7.470703125e-05,83,57,37,1558424,252813,43775,10499,120806,33600,32199,16048,Tag0,unknown
914,1611470773099,0,-7,-1.5380859375e-06,83,57,37,1558424,252813,43775,10499,120806,33600,32199,16048,Tag0,unknown
915,1611470773109,0,171,3.75732421875e-05,83,57,37,1558424,252813,43775,10499,120806,33600,32199,16048,Tag0,unknown
916,1611470773123,0,245,5.38330078125e-05,83,57,37,1558424,252813,43775,10499,120806,33600,32199,16048,Tag0,unknown
917,1611470773159,0,616,0.0001353515625,83,57,37,1558424,252813,43775,10499,120806,33600,32199,16048,Tag0,unknown
918,1611470773172,0,398,8.745117187499999e-05,83,57,37,1558424,252813,43775,10499,120806,33600,32199,16048,Tag0,unknown
919,1611470773196,0,384,8.4375e-05,83,57,37,1558424,252813,43775,10499,120806,33600,32199,16048,Tag0,unknown
920,1611470773207,0,548,0.00012041015625,83,57,37,1558424,252813,43775,10499,120806,33600,32199,16048,Tag0,unknown
921,1611470773230,0,209,4.59228515625e-05,83,57,37,1558424,252813,43775,10499,120806,33600,32199,16048,Tag0,unknown
922,1611470773241,0,513,0.0001127197265625,83,57,37,1558424,252813,43775,10499,120806,33600,32199,16048,Tag0,unknown
923,1611470773258,0,246,5.4052734375e-05,83,57,37,1558424,252813,43775,10499,120806,33600,32199,16048,Tag0,unknown
924,1611470773277,0,-31,-6.8115234375e-06,83,57,37,1558424,252813,43775,10499,120806,33600,32199,16048,Tag0,unknown
925,1611470773291,0,-109,-2.39501953125e-05,83,57,37,1558424,252813,43775,10499,120806,33600,32199,16048,Tag0,unknown
926,1611470773301,0,281,6.17431640625e-05,83,57,37,1558424,252813,43775,10499,120806,33600,32199,16048,Tag0,unknown
927,1611470773316,0,113,2.48291015625e-05,83,57,37,1558424,252813,43775,10499,120806,33600,32199,16048,Tag0,unknown
928,1611470773326,0,105,2.30712890625e-05,83,57,37,1558424,252813,43775,10499,120806,33600,32199,16048,Tag0,unknown
929,1611470773353,0,306,6.723632812500001e-05,83,57,37,1558424,252813,43775,10499,120806,33600,32199,16048,Tag0,unknown
930,1611470773363,0,-27,-5.932617187500001e-06,83,57,37,1558424,252813,43775,10499,120806,33600,32199,16048,Tag0,unknown
931,1611470773376,0,-67,-1.4721679687500003e-05,83,57,37,1558424,252813,43775,10499,120806,33600,32199,16048,Tag0,unknown
932,1611470773386,0,258,5.6689453125e-05,83,57,37,1558424,252813,43775,10499,120806,33600,32199,16048,Tag0,unknown
933,1611470773396,0,-123,-2.70263671875e-05,83,57,37,1558424,252813,43775,10499,120806,33600,32199,16048,Tag0,unknown
934,1611470773407,0,40,8.7890625e-06,83,57,37,1558424,252813,43775,10499,120806,33600,32199,16048,Tag0,unknown
935,1611470773423,0,295,6.48193359375e-05,83,57,37,1558424,252813,43775,10499,120806,33600,32199,16048,Tag0,unknown
936,1611470773439,0,-39,-8.5693359375e-06,83,57,37,1558424,252813,43775,10499,120806,33600,32199,16048,Tag0,unknown
937,1611470773461,0,34,7.470703125e-06,83,57,39,1558424,252813,43775,10499,120806,33600,32199,16048,Tag0,unknown
938,1611470773473,0,-295,-6.48193359375e-05,83,57,39,1558424,252813,43775,10499,120806,33600,32199,16048,Tag0,unknown
939,1611470773495,0,101,2.21923828125e-05,83,57,39,1558424,252813,43775,10499,120806,33600,32199,16048,Tag0,unknown
940,1611470773508,0,-108,-2.373046875e-05,83,57,39,1558424,252813,43775,10499,120806,33600,32199,16048,Tag0,unknown
941,1611470773518,0,112,2.4609375e-05,83,57,39,1558424,252813,43775,10499,120806,33600,32199,16048,Tag0,unknown
942,1611470773528,0,75,1.64794921875e-05,83,57,39,1558424,252813,43775,10499,120806,33600,32199,16048,Tag0,unknown
943,1611470773541,0,-321,-7.053222656250001e-05,83,57,39,1558424,252813,43775,10499,120806,33600,32199,16048,Tag0,unknown
944,1611470773557,0,-12,-2.63671875e-06,83,57,39,1558424,252813,43775,10499,120806,33600,32199,16048,Tag0,unknown
945,1611470773575,0,349,7.668457031250001e-05,83,57,39,1558424,252813,43775,10499,120806,33600,32199,16048,Tag0,unknown
946,1611470773591,0,-277,-6.086425781250001e-05,83,57,39,1558424,252813,43775,10499,120806,33600,32199,16048,Tag0,unknown
947,1611470773601,0,264,5.80078125e-05,74,64,39,2070923,16761650,16762091,16754166,24083,29244,13622,10295,Tag0,unknown
948,1611470773619,0,263,5.778808593750001e-05,74,64,39,2070923,16761650,16762091,16754166,24083,29244,13622,10295,Tag0,unknown
949,1611470773629,0,107,2.35107421875e-05,74,64,39,2070923,16761650,16762091,16754166,24083,29244,13622,10295,Tag0,unknown
950,1611470773642,0,-291,-6.39404296875e-05,74,64,39,2070923,16761650,16762091,16754166,24083,29244,13622,10295,Tag0,unknown
951,1611470773656,0,19,4.1748046875e-06,74,64,39,2070923,16761650,16762091,16754166,24083,29244,13622,10295,Tag0,unknown
952,1611470773674,0,124,2.724609375e-05,74,64,39,2070923,16761650,16762091,16754166,24083,29244,13622,10295,Tag0,unknown
953,1611470773690,0,-31,-6.8115234375e-06,74,64,39,2070923,16761650,16762091,16754166,24083,29244,13622,10295,Tag0,unknown
954,1611470773708,0,-72,-1.58203125e-05,74,64,39,2070923,16761650,16762091,16754166,24083,29244,13622,10295,Tag0,unknown
955,1611470773730,0,256,5.625e-05,74,64,39,2070923,16761650,16762091,16754166,24083,29244,13622,10295,Tag0,unknown
956,1611470773740,0,66,1.4501953125e-05,74,64,39,2070923,16761650,16762091,16754166,24083,29244,13622,10295,Tag0,unknown
957,1611470773750,0,-124,-2.724609375e-05,74,64,39,2070923,16761650,16762091,16754166,24083,29244,13622,10295,Tag0,unknown
958,1611470773760,0,68,1.494140625e-05,74,64,39,2070923,16761650,16762091,16754166,24083,29244,13622,10295,Tag0,unknown
959,1611470773778,0,64,1.40625e-05,74,64,39,2070923,16761650,16762091,16754166,24083,29244,13622,10295,Tag0,unknown
960,1611470773789,0,36,7.91015625e-06,74,64,39,2070923,16761650,16762091,16754166,24083,29244,13622,10295,Tag0,unknown
961,1611470773818,0,-1122,-0.000246533203125,74,64,39,2070923,16761650,16762091,16754166,24083,29244,13622,10295,Tag0,unknown
962,1611470773840,0,-427,-9.38232421875e-05,74,64,39,2070923,16761650,16762091,16754166,24083,29244,13622,10295,Tag0,unknown
963,1611470773860,0,-475,-0.0001043701171875,74,64,39,2070923,16761650,16762091,16754166,24083,29244,13622,10295,Tag0,unknown
964,1611470773871,0,-372,-8.173828125e-05,74,64,39,2070923,16761650,16762091,16754166,24083,29244,13622,10295,Tag0,unknown
965,1611470773881,0,-369,-8.10791015625e-05,74,64,39,2070923,16761650,16762091,16754166,24083,29244,13622,10295,Tag0,unknown
966,1611470773892,0,11,2.4169921875e-06,74,64,39,2070923,16761650,16762091,16754166,24083,29244,13622,10295,Tag0,unknown
967,1611470773909,0,-308,-6.767578125e-05,74,64,39,2070923,16761650,16762091,16754166,24083,29244,13622,10295,Tag0,unknown
968,1611470773925,0,-69,-1.51611328125e-05,74,64,39,2070923,16761650,16762091,16754166,24083,29244,13622,10295,Tag0,unknown
969,1611470773941,0,17,3.7353515625e-06,74,64,39,2070923,16761650,16762091,16754166,24083,29244,13622,10295,Tag0,unknown
970,1611470773951,0,-9,-1.9775390625e-06,74,64,39,2070923,16761650,16762091,16754166,24083,29244,13622,10295,Tag0,unknown
971,1611470773963,0,92,2.021484375e-05,74,64,39,2070923,16761650,16762091,16754166,24083,29244,13622,10295,Tag0,unknown
972,1611470773973,0,-258,-5.6689453125e-05,74,64,39,2070923,16761650,16762091,16754166,24083,29244,13622,10295,Tag0,unknown
973,1611470773998,0,1067,0.0002344482421875,74,64,39,2070923,16761650,16762091,16754166,24083,29244,13622,10295,Tag0,unknown
974,1611470774011,0,339,7.448730468750001e-05,74,64,39,2070923,16761650,16762091,16754166,24083,29244,13622,10295,Tag0,unknown
975,1611470774024,0,-770,-0.000169189453125,74,64,39,2070923,16761650,16762091,16754166,24083,29244,13622,10295,Tag0,unknown
976,1611470774041,0,-279,-6.13037109375e-05,74,64,39,2070923,16761650,16762091,16754166,24083,29244,13622,10295,Tag0,unknown
977,1611470774058,0,-124,-2.724609375e-05,74,64,39,2070923,16761650,16762091,16754166,24083,29244,13622,10295,Tag0,unknown
978,1611470774068,0,121,2.6586914062500006e-05,74,64,39,2070923,16761650,16762091,16754166,24083,29244,13622,10295,Tag0,unknown
979,1611470774084,0,-354,-7.778320312500001e-05,74,64,39,2070923,16761650,16762091,16754166,24083,29244,13622,10295,Tag0,unknown
980,1611470774094,0,-87,-1.91162109375e-05,74,64,39,2070923,16761650,16762091,16754166,24083,29244,13622,10295,Tag0,unknown
981,1611470774118,0,-14,-3.076171875e-06,74,64,39,2070923,16761650,16762091,16754166,24083,29244,13622,10295,Tag0,unknown
982,1611470774128,0,113,2.48291015625e-05,74,64,39,2070923,16761650,16762091,16754166,24083,29244,13622,10295,Tag0,unknown
983,1611470774142,0,-276,-6.064453125e-05,74,64,39,2070923,16761650,16762091,16754166,24083,29244,13622,10295,Tag0,unknown
984,1611470774160,0,40,8.7890625e-06,74,64,39,2070923,16761650,16762091,16754166,24083,29244,13622,10295,Tag0,unknown
985,1611470774176,0,42,9.228515625000003e-06,74,64,39,2070923,16761650,16762091,16754166,24083,29244,13622,10295,Tag0,unknown
986,1611470774193,0,-95,-2.08740234375e-05,74,64,39,2070923,16761650,16762091,16754166,24083,29244,13622,10295,Tag0,unknown
987,1611470774209,0,13,2.8564453125e-06,74,64,39,2070923,16761650,16762091,16754166,24083,29244,13622,10295,Tag0,unknown
988,1611470774219,0,-21,-4.614257812500002e-06,74,64,39,2070923,16761650,16762091,16754166,24083,29244,13622,10295,Tag0,unknown
989,1611470774232,0,61,1.34033203125e-05,74,64,39,2070923,16761650,16762091,16754166,24083,29244,13622,10295,Tag0,unknown
990,1611470774242,0,-185,-4.06494140625e-05,74,64,39,2070923,16761650,16762091,16754166,24083,29244,13622,10295,Tag0,unknown
991,1611470774267,0,93,2.04345703125e-05,74,64,39,2070923,16761650,16762091,16754166,24083,29244,13622,10295,Tag0,unknown
992,1611470774277,0,-90,-1.9775390625e-05,74,64,39,2070923,16761650,16762091,16754166,24083,29244,13622,10295,Tag0,unknown
993,1611470774290,0,260,5.712890625e-05,74,64,39,2070923,16761650,16762091,16754166,24083,29244,13622,10295,Tag0,unknown
994,1611470774307,0,-315,-6.92138671875e-05,74,64,39,2070923,16761650,16762091,16754166,24083,29244,13622,10295,Tag0,unknown
995,1611470774325,0,82,1.8017578125e-05,74,64,39,2070923,16761650,16762091,16754166,24083,29244,13622,10295,Tag0,unknown
996,1611470774343,0,-121,-2.6586914062500006e-05,74,64,39,2070923,16761650,16762091,16754166,24083,29244,13622,10295,Tag0,unknown
997,1611470774360,0,108,2.373046875e-05,74,64,39,2070923,16761650,16762091,16754166,24083,29244,13622,10295,Tag0,unknown
998,1611470774370,0,20,4.39453125e-06,74,64,39,2070923,16761650,16762091,16754166,24083,29244,13622,10295,Tag0,unknown
999,1611470774380,0,-277,-6.086425781250001e-05,74,64,39,2070923,16761650,16762091,16754166,24083,29244,13622,10295,Tag0,unknown
1000,1611470774393,0,3,6.591796875e-07,74,64,39,2070923,16761650,16762091,16754166,24083,29244,13622,10295,Tag0,unknown
1001,1611470774411,0,-279,-6.13037109375e-05,74,64,39,2070923,16761650,16762091,16754166,24083,29244,13622,10295,Tag0,unknown
1002,1611470774427,0,53,1.1645507812500003e-05,74,64,39,2070923,16761650,16762091,16754166,24083,29244,13622,10295,Tag0,unknown
1003,1611470774437,0,76,1.669921875e-05,74,64,39,2070923,16761650,16762091,16754166,24083,29244,13622,10295,Tag0,unknown
1004,1611470774450,0,-197,-4.32861328125e-05,74,64,39,2070923,16761650,16762091,16754166,24083,29244,13622,10295,Tag0,unknown
1005,1611470774460,0,-309,-6.78955078125e-05,74,64,39,2070923,16761650,16762091,16754166,24083,29244,13622,10295,Tag0,unknown
1006,1611470774483,0,-118,-2.5927734375e-05,74,64,39,2070923,16761650,16762091,16754166,24083,29244,13622,10295,Tag0,unknown
1007,1611470774493,0,101,2.21923828125e-05,74,64,39,2070923,16761650,16762091,16754166,24083,29244,13622,10295,Tag0,unknown
1008,1611470774508,0,275,6.04248046875e-05,74,64,39,2070923,16761650,16762091,16754166,24083,29244,13622,10295,Tag0,unknown
1009,1611470774525,0,97,2.13134765625e-05,74,64,39,2070923,16761650,16762091,16754166,24083,29244,13622,10295,Tag0,unknown
1010,1611470774542,0,-26,-5.712890625e-06,74,64,39,2070923,16761650,16762091,16754166,24083,29244,13622,10295,Tag0,unknown
1011,1611470774560,0,-69,-1.51611328125e-05,74,64,39,2070923,16761650,16762091,16754166,24083,29244,13622,10295,Tag0,unknown
1012,1611470774577,0,55,1.20849609375e-05,74,64,39,2070923,16761650,16762091,16754166,24083,29244,13622,10295,Tag0,unknown
1013,1611470774587,0,-106,-2.3291015625000006e-05,74,64,39,2070923,16761650,16762091,16754166,24083,29244,13622,10295,Tag0,unknown
1014,1611470774612,0,34,7.470703125e-06,60,64,39,16773371,187019,16762695,74217,25235,25253,19194,6641,Tag0,unknown
1015,1611470774630,0,18,3.955078125e-06,60,64,39,16773371,187019,16762695,74217,25235,25253,19194,6641,Tag0,unknown
1016,1611470774641,0,-292,-6.416015625000001e-05,60,64,39,16773371,187019,16762695,74217,25235,25253,19194,6641,Tag0,unknown
1017,1611470774658,0,-11,-2.4169921875e-06,60,64,39,16773371,187019,16762695,74217,25235,25253,19194,6641,Tag0,unknown
1018,1611470774675,0,-92,-2.021484375e-05,60,64,39,16773371,187019,16762695,74217,25235,25253,19194,6641,Tag0,unknown
1019,1611470774691,0,43,9.4482421875e-06,60,64,39,16773371,187019,16762695,74217,25235,25253,19194,6641,Tag0,unknown
1020,1611470774709,0,17,3.7353515625e-06,60,64,39,16773371,187019,16762695,74217,25235,25253,19194,6641,Tag0,unknown
1021,1611470774727,0,-308,-6.767578125e-05,60,64,39,16773371,187019,16762695,74217,25235,25253,19194,6641,Tag0,unknown
1022,1611470774745,0,56,1.23046875e-05,60,64,39,16773371,187019,16762695,74217,25235,25253,19194,6641,Tag0,unknown
1023,1611470774760,0,-125,-2.74658203125e-05,60,64,39,16773371,187019,16762695,74217,25235,25253,19194,6641,Tag0,unknown
1024,1611470774770,0,74,1.6259765625e-05,60,64,39,16773371,187019,16762695,74217,25235,25253,19194,6641,Tag0,unknown
1025,1611470774786,0,49,1.07666015625e-05,60,64,39,16773371,187019,16762695,74217,25235,25253,19194,6641,Tag0,unknown
1026,1611470774796,0,45,9.8876953125e-06,60,64,39,16773371,187019,16762695,74217,25235,25253,19194,6641,Tag0,unknown
