,timestampMs,poorSignal,eegRawValue,eegRawValueVolts,attention,meditation,blinkStrength,delta,theta,alphaLow,alphaHigh,betaLow,betaHigh,gammaLow,gammaMid,tagEvent,location
0,1611470104983,80,1791,0.0003935302734375,0,0,0,764717,722090,16759920,20529,19667,17463,8067,9157,Tag0,unknown
1,1611470104999,80,1607,0.0003531005859375,0,0,0,764717,722090,16759920,20529,19667,17463,8067,9157,Tag0,unknown
2,1611470105017,80,1054,0.000231591796875,0,0,0,764717,722090,16759920,20529,19667,17463,8067,9157,Tag0,unknown
3,1611470105043,80,-579,-0.0001272216796875,0,0,0,764717,722090,16759920,20529,19667,17463,8067,9157,Tag0,unknown
4,1611470105064,80,1693,0.0003719970703125,0,0,0,764717,722090,16759920,20529,19667,17463,8067,9157,Tag0,unknown
5,1611470105084,80,-2048,-0.00045,0,0,0,1333189,286001,39343,126998,162728,113818,76997,76996,Tag0,unknown
6,1611470105105,80,1791,0.0003935302734375,0,0,0,1333189,286001,39343,126998,162728,113818,76997,76996,Tag0,unknown
7,1611470105116,80,1791,0.0003935302734375,0,0,0,1333189,286001,39343,126998,162728,113818,76997,76996,Tag0,unknown
8,1611470105139,80,1237,0.0002718017578125,0,0,0,1333189,286001,39343,126998,162728,113818,76997,76996,Tag0,unknown
9,1611470105150,80,1187,0.0002608154296875,0,0,0,1333189,286001,39343,126998,162728,113818,76997,76996,Tag0,unknown
10,1611470105160,80,-2048,-0.00045,0,0,0,1333189,286001,39343,126998,162728,113818,76997,76996,Tag0,unknown
11,1611470105178,80,1791,0.0003935302734375,0,0,0,1333189,286001,39343,126998,162728,113818,76997,76996,Tag0,unknown
12,1611470105188,80,1665,0.0003658447265625,0,0,0,1333189,286001,39343,126998,162728,113818,76997,76996,Tag0,unknown
13,1611470105200,80,1410,0.000309814453125,0,0,0,1333189,286001,39343,126998,162728,113818,76997,76996,Tag0,unknown
14,1611470105217,80,1607,0.0003531005859375,0,0,0,1333189,286001,39343,126998,162728,113818,76997,76996,Tag0,unknown
15,1611470105233,80,1129,0.0002480712890625,0,0,0,1333189,286001,39343,126998,162728,113818,76997,76996,Tag0,unknown
16,1611470105252,80,1319,0.0002898193359375,0,0,0,1333189,286001,39343,126998,162728,113818,76997,76996,Tag0,unknown
17,1611470105266,80,1145,0.0002515869140625,0,0,0,1333189,286001,39343,126998,162728,113818,76997,76996,Tag0,unknown
18,1611470105284,80,870,0.000191162109375,0,0,0,1333189,286001,39343,126998,162728,113818,76997,76996,Tag0,unknown
19,1611470105299,80,839,0.0001843505859375,0,0,0,1333189,286001,39343,126998,162728,113818,76997,76996,Tag0,unknown
20,1611470105326,80,1791,0.0003935302734375,0,0,0,1333189,286001,39343,126998,162728,113818,76997,76996,Tag0,unknown
21,1611470105336,80,1791,0.0003935302734375,0,0,0,1333189,286001,39343,126998,162728,113818,76997,76996,Tag0,unknown
22,1611470105359,80,1831,0.0004023193359375,0,0,0,1333189,286001,39343,126998,162728,113818,76997,76996,Tag0,unknown
23,1611470105369,80,1589,0.00034914550781250004,0,0,0,1333189,286001,39343,126998,162728,113818,76997,76996,Tag0,unknown
24,1611470105384,80,-2048,-0.00045,0,0,0,1333189,286001,39343,126998,162728,113818,76997,76996,Tag0,unknown
25,1611470105410,80,-2048,-0.00045,0,0,0,1333189,286001,39343,126998,162728,113818,76997,76996,Tag0,unknown
26,1611470105420,80,1791,0.0003935302734375,0,0,0,1333189,286001,39343,126998,162728,113818,76997,76996,Tag0,unknown
27,1611470105434,80,1791,0.0003935302734375,0,0,0,1333189,286001,39343,126998,162728,113818,76997,76996,Tag0,unknown
28,1611470105452,80,1223,0.0002687255859375,0,0,0,1333189,286001,39343,126998,162728,113818,76997,76996,Tag0,unknown
29,1611470105466,80,1539,0.00033815917968750005,0,0,0,1333189,286001,39343,126998,162728,113818,76997,76996,Tag0,unknown
30,1611470105502,80,1177,0.0002586181640625,0,0,0,1333189,286001,39343,126998,162728,113818,76997,76996,Tag0,unknown
31,1611470105520,80,1383,0.00030388183593750003,0,0,0,1333189,286001,39343,126998,162728,113818,76997,76996,Tag0,unknown
32,1611470105531,80,716,0.00015732421875,0,0,0,1333189,286001,39343,126998,162728,113818,76997,76996,Tag0,unknown
33,1611470105541,80,769,0.0001689697265625,0,0,0,1333189,286001,39343,126998,162728,113818,76997,76996,Tag0,unknown
34,1611470105551,80,535,0.0001175537109375,0,0,0,1333189,286001,39343,126998,162728,113818,76997,76996,Tag0,unknown
35,1611470105561,80,115,2.52685546875e-05,0,0,0,1333189,286001,39343,126998,162728,113818,76997,76996,Tag0,unknown
36,1611470105577,80,-2048,-0.00045,0,0,0,1333189,286001,39343,126998,162728,113818,76997,76996,Tag0,unknown
37,1611470105587,80,-2048,-0.00045,0,0,0,1333189,286001,39343,126998,162728,113818,76997,76996,Tag0,unknown
38,1611470105600,80,-2104,-0.0004623046875,0,0,0,1333189,286001,39343,126998,162728,113818,76997,76996,Tag0,unknown
39,1611470105617,80,-1257,-0.0002761962890625,0,0,0,1333189,286001,39343,126998,162728,113818,76997,76996,Tag0,unknown
40,1611470105636,80,-1208,-0.0002654296875,0,0,0,1333189,286001,39343,126998,162728,113818,76997,76996,Tag0,unknown
41,1611470105651,80,-747,-0.00016413574218750006,0,0,0,1333189,286001,39343,126998,162728,113818,76997,76996,Tag0,unknown
42,1611470105670,80,-717,-0.00015754394531250002,0,0,0,1333189,286001,39343,126998,162728,113818,76997,76996,Tag0,unknown
43,1611470105681,80,-492,-0.00010810546875,0,0,0,1333189,286001,39343,126998,162728,113818,76997,76996,Tag0,unknown
44,1611470105693,80,-589,-0.0001294189453125,0,0,0,1333189,286001,39343,126998,162728,113818,76997,76996,Tag0,unknown
45,1611470105706,80,-249,-5.47119140625e-05,0,0,0,1333189,286001,39343,126998,162728,113818,76997,76996,Tag0,unknown
46,1611470105723,80,-606,-0.000133154296875,0,0,0,1333189,286001,39343,126998,162728,113818,76997,76996,Tag0,unknown
47,1611470105736,80,-573,-0.0001259033203125,0,0,0,1333189,286001,39343,126998,162728,113818,76997,76996,Tag0,unknown
48,1611470105746,80,1791,0.0003935302734375,0,0,0,1333189,286001,39343,126998,162728,113818,76997,76996,Tag0,unknown
49,1611470105760,80,-2029,-0.0004458251953125,0,0,0,1333189,286001,39343,126998,162728,113818,76997,76996,Tag0,unknown
50,1611470105770,80,-2130,-0.000468017578125,0,0,0,1333189,286001,39343,126998,162728,113818,76997,76996,Tag0,unknown
51,1611470105795,80,1293,0.0002841064453125,0,0,0,1333189,286001,39343,126998,162728,113818,76997,76996,Tag0,unknown
52,1611470105805,80,1791,0.0003935302734375,0,0,0,1333189,286001,39343,126998,162728,113818,76997,76996,Tag0,unknown
53,1611470105818,80,1791,0.0003935302734375,0,0,0,1333189,286001,39343,126998,162728,113818,76997,76996,Tag0,unknown
54,1611470105835,80,-2048,-0.00045,0,0,0,1333189,286001,39343,126998,162728,113818,76997,76996,Tag0,unknown
55,1611470105850,80,-2048,-0.00045,0,0,0,1333189,286001,39343,126998,162728,113818,76997,76996,Tag0,unknown
56,1611470105868,80,1791,0.0003935302734375,0,0,0,1333189,286001,39343,126998,162728,113818,76997,76996,Tag0,unknown
57,1611470105889,80,1791,0.0003935302734375,0,0,0,1333189,286001,39343,126998,162728,113818,76997,76996,Tag0,unknown
58,1611470105899,80,1601,0.0003517822265625,0,0,0,1333189,286001,39343,126998,162728,113818,76997,76996,Tag0,unknown
59,1611470105909,80,907,0.0001992919921875,0,0,0,1333189,286001,39343,126998,162728,113818,76997,76996,Tag0,unknown
60,1611470105920,80,1083,0.0002379638671875,0,0,0,1333189,286001,39343,126998,162728,113818,76997,76996,Tag0,unknown
61,1611470105944,80,1791,0.0003935302734375,0,0,0,1333189,286001,39343,126998,162728,113818,76997,76996,Tag0,unknown
62,1611470105954,80,1749,0.0003843017578125,0,0,0,1333189,286001,39343,126998,162728,113818,76997,76996,Tag0,unknown
63,1611470105970,80,-2048,-0.00045,0,0,0,1333189,286001,39343,126998,162728,113818,76997,76996,Tag0,unknown
64,1611470105987,80,-1699,-0.0003733154296875,0,0,0,1333189,286001,39343,126998,162728,113818,76997,76996,Tag0,unknown
65,1611470106016,80,-875,-0.0001922607421875,0,0,0,1333189,286001,39343,126998,162728,113818,76997,76996,Tag0,unknown
66,1611470106035,80,1791,0.0003935302734375,0,0,0,1333189,286001,39343,126998,162728,113818,76997,76996,Tag0,unknown
67,1611470106055,80,-2046,-0.000449560546875,0,0,0,1333189,286001,39343,126998,162728,113818,76997,76996,Tag0,unknown
68,1611470106069,80,-1165,-0.0002559814453125,0,0,0,1333189,286001,39343,126998,162728,113818,76997,76996,Tag0,unknown
69,1611470106092,80,-1915,-0.0004207763671875,0,0,0,1525296,785587,1181019,1102073,733590,927326,320601,377127,Tag0,unknown
70,1611470106102,80,1791,0.0003935302734375,0,0,0,1525296,785587,1181019,1102073,733590,927326,320601,377127,Tag0,unknown
71,1611470106112,80,1791,0.0003935302734375,0,0,0,1525296,785587,1181019,1102073,733590,927326,320601,377127,Tag0,unknown
72,1611470106127,80,1845,0.0004053955078125,0,0,0,1525296,785587,1181019,1102073,733590,927326,320601,377127,Tag0,unknown
73,1611470106137,80,1292,0.00028388671875,0,0,0,1525296,785587,1181019,1102073,733590,927326,320601,377127,Tag0,unknown
74,1611470106150,80,707,0.00015534667968750002,0,0,0,1525296,785587,1181019,1102073,733590,927326,320601,377127,Tag0,unknown
75,1611470106167,80,-2048,-0.00045,0,0,0,1525296,785587,1181019,1102073,733590,927326,320601,377127,Tag0,unknown
76,1611470106186,80,-2048,-0.00045,0,0,0,1525296,785587,1181019,1102073,733590,927326,320601,377127,Tag0,unknown
77,1611470106205,80,1791,0.0003935302734375,0,0,0,1525296,785587,1181019,1102073,733590,927326,320601,377127,Tag0,unknown
78,1611470106220,80,1456,0.000319921875,0,0,0,1525296,785587,1181019,1102073,733590,927326,320601,377127,Tag0,unknown
79,1611470106230,80,-2048,-0.00045,0,0,0,1525296,785587,1181019,1102073,733590,927326,320601,377127,Tag0,unknown
80,1611470106252,80,-1031,-0.0002265380859375,0,0,0,1525296,785587,1181019,1102073,733590,927326,320601,377127,Tag0,unknown
81,1611470106272,80,1791,0.0003935302734375,0,0,0,1525296,785587,1181019,1102073,733590,927326,320601,377127,Tag0,unknown
82,1611470106287,80,1791,0.0003935302734375,0,0,0,1525296,785587,1181019,1102073,733590,927326,320601,377127,Tag0,unknown
83,1611470106297,80,1005,0.0002208251953125,0,0,0,1525296,785587,1181019,1102073,733590,927326,320601,377127,Tag0,unknown
84,1611470106313,80,757,0.0001663330078125,0,0,0,1525296,785587,1181019,1102073,733590,927326,320601,377127,Tag0,unknown
85,1611470106323,80,659,0.00014479980468750002,0,0,0,1525296,785587,1181019,1102073,733590,927326,320601,377127,Tag0,unknown
86,1611470106346,80,393,8.63525390625e-05,0,0,0,1525296,785587,1181019,1102073,733590,927326,320601,377127,Tag0,unknown
87,1611470106356,80,627,0.0001377685546875,0,0,0,1525296,785587,1181019,1102073,733590,927326,320601,377127,Tag0,unknown
88,1611470106372,80,198,4.350585937500001e-05,0,0,0,1525296,785587,1181019,1102073,733590,927326,320601,377127,Tag0,unknown
89,1611470106388,80,-2048,-0.00045,0,0,0,1525296,785587,1181019,1102073,733590,927326,320601,377127,Tag0,unknown
90,1611470106403,80,-2048,-0.00045,0,0,0,1525296,785587,1181019,1102073,733590,927326,320601,377127,Tag0,unknown
91,1611470106419,80,-2048,-0.00045,0,0,0,1525296,785587,1181019,1102073,733590,927326,320601,377127,Tag0,unknown
92,1611470106442,80,-2048,-0.00045,0,0,0,1525296,785587,1181019,1102073,733590,927326,320601,377127,Tag0,unknown
93,1611470106459,80,-2048,-0.00045,0,0,0,1525296,785587,1181019,1102073,733590,927326,320601,377127,Tag0,unknown
94,1611470106469,80,-2047,-0.0004497802734375,0,0,0,1525296,785587,1181019,1102073,733590,927326,320601,377127,Tag0,unknown
95,1611470106479,80,1791,0.0003935302734375,0,0,0,1525296,785587,1181019,1102073,733590,927326,320601,377127,Tag0,unknown
96,1611470106489,80,-1733,-0.0003807861328125,0,0,0,1525296,785587,1181019,1102073,733590,927326,320601,377127,Tag0,unknown
97,1611470106503,80,1791,0.0003935302734375,0,0,0,1525296,785587,1181019,1102073,733590,927326,320601,377127,Tag0,unknown
98,1611470106520,80,-2048,-0.00045,0,0,0,1525296,785587,1181019,1102073,733590,927326,320601,377127,Tag0,unknown
99,1611470106537,80,-1688,-0.0003708984375,0,0,0,1525296,785587,1181019,1102073,733590,927326,320601,377127,Tag0,unknown
100,1611470106558,80,1791,0.0003935302734375,0,0,0,1525296,785587,1181019,1102073,733590,927326,320601,377127,Tag0,unknown
101,1611470106570,80,1791,0.0003935302734375,0,0,0,1525296,785587,1181019,1102073,733590,927326,320601,377127,Tag0,unknown
102,1611470106593,80,-2089,-0.0004590087890625,0,0,0,1525296,785587,1181019,1102073,733590,927326,320601,377127,Tag0,unknown
103,1611470106604,80,-1265,-0.0002779541015625,0,0,0,1525296,785587,1181019,1102073,733590,927326,320601,377127,Tag0,unknown
104,1611470106614,80,1093,0.0002401611328125,0,0,0,1525296,785587,1181019,1102073,733590,927326,320601,377127,Tag0,unknown
105,1611470106629,80,-2048,-0.00045,0,0,0,1525296,785587,1181019,1102073,733590,927326,320601,377127,Tag0,unknown
106,1611470106663,80,1791,0.0003935302734375,0,0,0,1525296,785587,1181019,1102073,733590,927326,320601,377127,Tag0,unknown
107,1611470106688,80,-2048,-0.00045,0,0,0,1525296,785587,1181019,1102073,733590,927326,320601,377127,Tag0,unknown
108,1611470106698,80,-2048,-0.00045,0,0,0,1525296,785587,1181019,1102073,733590,927326,320601,377127,Tag0,unknown
109,1611470106708,80,1791,0.0003935302734375,0,0,0,1525296,785587,1181019,1102073,733590,927326,320601,377127,Tag0,unknown
110,1611470106720,80,1791,0.0003935302734375,0,0,0,1525296,785587,1181019,1102073,733590,927326,320601,377127,Tag0,unknown
111,1611470106737,80,1671,0.0003671630859375,0,0,0,1525296,785587,1181019,1102073,733590,927326,320601,377127,Tag0,unknown
112,1611470106753,80,-2048,-0.00045,0,0,0,1525296,785587,1181019,1102073,733590,927326,320601,377127,Tag0,unknown
113,1611470106782,80,-2164,-0.0004754882812500001,0,0,0,1525296,785587,1181019,1102073,733590,927326,320601,377127,Tag0,unknown
114,1611470106802,80,1791,0.0003935302734375,0,0,0,1525296,785587,1181019,1102073,733590,927326,320601,377127,Tag0,unknown
115,1611470106824,80,-2048,-0.00045,0,0,0,1525296,785587,1181019,1102073,733590,927326,320601,377127,Tag0,unknown
116,1611470106839,80,-2048,-0.00045,0,0,0,1525296,785587,1181019,1102073,733590,927326,320601,377127,Tag0,unknown
117,1611470106859,80,-1644,-0.00036123046875,0,0,0,1525296,785587,1181019,1102073,733590,927326,320601,377127,Tag0,unknown
118,1611470106873,80,-2013,-0.0004423095703125,0,0,0,1525296,785587,1181019,1102073,733590,927326,320601,377127,Tag0,unknown
119,1611470106925,80,1791,0.0003935302734375,0,0,0,1525296,785587,1181019,1102073,733590,927326,320601,377127,Tag0,unknown
120,1611470106941,80,1791,0.0003935302734375,0,0,0,1525296,785587,1181019,1102073,733590,927326,320601,377127,Tag0,unknown
121,1611470106951,80,-2048,-0.00045,0,0,0,1525296,785587,1181019,1102073,733590,927326,320601,377127,Tag0,unknown
122,1611470106993,80,1791,0.0003935302734375,0,0,0,1525296,785587,1181019,1102073,733590,927326,320601,377127,Tag0,unknown
123,1611470107005,80,1791,0.0003935302734375,0,0,0,1525296,785587,1181019,1102073,733590,927326,320601,377127,Tag0,unknown
124,1611470107063,80,-2048,-0.00045,0,0,0,1525296,785587,1181019,1102073,733590,927326,320601,377127,Tag0,unknown
125,1611470107073,80,-1117,-0.0002454345703125,0,0,0,1525296,785587,1181019,1102073,733590,927326,320601,377127,Tag0,unknown
126,1611470107130,80,-1733,-0.0003807861328125,0,0,0,1525296,785587,1181019,1102073,733590,927326,320601,377127,Tag0,unknown
127,1611470107140,80,-1881,-0.0004133056640625,0,0,0,1525296,785587,1181019,1102073,733590,927326,320601,377127,Tag0,unknown
128,1611470107199,80,1791,0.0003935302734375,0,0,0,1525296,785587,1181019,1102073,733590,927326,320601,377127,Tag0,unknown
129,1611470107237,80,1791,0.0003935302734375,0,0,0,1525296,785587,1181019,1102073,733590,927326,320601,377127,Tag0,unknown
130,1611470107265,80,-2048,-0.00045,0,0,0,1525296,785587,1181019,1102073,733590,927326,320601,377127,Tag0,unknown
131,1611470107275,80,-2048,-0.00045,0,0,0,1525296,785587,1181019,1102073,733590,927326,320601,377127,Tag0,unknown
132,1611470107288,80,-1985,-0.0004361572265625,0,0,0,1525296,785587,1181019,1102073,733590,927326,320601,377127,Tag0,unknown
133,1611470107335,80,-2093,-0.0004598876953125,0,0,0,1525296,785587,1181019,1102073,733590,927326,320601,377127,Tag0,unknown
134,1611470107359,80,-1768,-0.0003884765625,0,0,0,1525296,785587,1181019,1102073,733590,927326,320601,377127,Tag0,unknown
135,1611470107403,80,1791,0.0003935302734375,0,0,0,1525296,785587,1181019,1102073,733590,927326,320601,377127,Tag0,unknown
136,1611470107422,80,1791,0.0003935302734375,0,0,0,1525296,785587,1181019,1102073,733590,927326,320601,377127,Tag0,unknown
137,1611470107432,80,-1713,-0.0003763916015625,0,0,0,1525296,785587,1181019,1102073,733590,927326,320601,377127,Tag0,unknown
138,1611470107449,51,-1727,-0.0003794677734375,0,0,0,1150067,701645,233764,127744,204929,112389,80706,46422,Tag0,unknown
139,1611470107469,51,-1515,-0.0003328857421875,0,0,0,1150067,701645,233764,127744,204929,112389,80706,46422,Tag0,unknown
140,1611470107479,51,-981,-0.0002155517578125,0,0,0,1150067,701645,233764,127744,204929,112389,80706,46422,Tag0,unknown
141,1611470107489,51,5,1.0986328125e-06,0,0,0,1150067,701645,233764,127744,204929,112389,80706,46422,Tag0,unknown
142,1611470107499,51,38,8.349609375e-06,0,0,0,1150067,701645,233764,127744,204929,112389,80706,46422,Tag0,unknown
143,1611470107509,51,66,1.4501953125e-05,0,0,0,1150067,701645,233764,127744,204929,112389,80706,46422,Tag0,unknown
144,1611470107525,51,67,1.4721679687500003e-05,0,0,0,1150067,701645,233764,127744,204929,112389,80706,46422,Tag0,unknown
145,1611470107536,51,68,1.494140625e-05,0,0,0,1150067,701645,233764,127744,204929,112389,80706,46422,Tag0,unknown
146,1611470107560,51,67,1.4721679687500003e-05,0,0,0,1150067,701645,233764,127744,204929,112389,80706,46422,Tag0,unknown
147,1611470107570,51,67,1.4721679687500003e-05,0,0,0,1150067,701645,233764,127744,204929,112389,80706,46422,Tag0,unknown
148,1611470107588,51,67,1.4721679687500003e-05,0,0,0,1150067,701645,233764,127744,204929,112389,80706,46422,Tag0,unknown
149,1611470107607,51,67,1.4721679687500003e-05,0,0,0,1150067,701645,233764,127744,204929,112389,80706,46422,Tag0,unknown
150,1611470107623,51,67,1.4721679687500003e-05,0,0,0,1150067,701645,233764,127744,204929,112389,80706,46422,Tag0,unknown
151,1611470107640,51,68,1.494140625e-05,0,0,0,1150067,701645,233764,127744,204929,112389,80706,46422,Tag0,unknown
152,1611470107656,51,67,1.4721679687500003e-05,0,0,0,1150067,701645,233764,127744,204929,112389,80706,46422,Tag0,unknown
153,1611470107666,51,67,1.4721679687500003e-05,0,0,0,1150067,701645,233764,127744,204929,112389,80706,46422,Tag0,unknown
154,1611470107676,51,67,1.4721679687500003e-05,0,0,0,1150067,701645,233764,127744,204929,112389,80706,46422,Tag0,unknown
155,1611470107689,51,67,1.4721679687500003e-05,0,0,0,1150067,701645,233764,127744,204929,112389,80706,46422,Tag0,unknown
156,1611470107704,51,66,1.4501953125e-05,0,0,0,1150067,701645,233764,127744,204929,112389,80706,46422,Tag0,unknown
157,1611470107720,51,67,1.4721679687500003e-05,0,0,0,1150067,701645,233764,127744,204929,112389,80706,46422,Tag0,unknown
158,1611470107746,51,68,1.494140625e-05,0,0,0,1150067,701645,233764,127744,204929,112389,80706,46422,Tag0,unknown
159,1611470107756,51,66,1.4501953125e-05,0,0,0,1150067,701645,233764,127744,204929,112389,80706,46422,Tag0,unknown
160,1611470107780,51,67,1.4721679687500003e-05,0,0,0,1150067,701645,233764,127744,204929,112389,80706,46422,Tag0,unknown
161,1611470107790,51,67,1.4721679687500003e-05,0,0,0,1150067,701645,233764,127744,204929,112389,80706,46422,Tag0,unknown
162,1611470107800,51,67,1.4721679687500003e-05,0,0,0,1150067,701645,233764,127744,204929,112389,80706,46422,Tag0,unknown
163,1611470107810,51,67,1.4721679687500003e-05,0,0,0,1150067,701645,233764,127744,204929,112389,80706,46422,Tag0,unknown
164,1611470107822,51,67,1.4721679687500003e-05,0,0,0,1150067,701645,233764,127744,204929,112389,80706,46422,Tag0,unknown
165,1611470107853,51,68,1.494140625e-05,0,0,0,1150067,701645,233764,127744,204929,112389,80706,46422,Tag0,unknown
166,1611470107863,51,67,1.4721679687500003e-05,0,0,0,1150067,701645,233764,127744,204929,112389,80706,46422,Tag0,unknown
167,1611470107874,51,68,1.494140625e-05,0,0,0,1150067,701645,233764,127744,204929,112389,80706,46422,Tag0,unknown
168,1611470107891,51,67,1.4721679687500003e-05,0,0,0,1150067,701645,233764,127744,204929,112389,80706,46422,Tag0,unknown
169,1611470107905,51,67,1.4721679687500003e-05,0,0,0,1150067,701645,233764,127744,204929,112389,80706,46422,Tag0,unknown
170,1611470107925,51,67,1.4721679687500003e-05,0,0,0,1150067,701645,233764,127744,204929,112389,80706,46422,Tag0,unknown
171,1611470107940,51,67,1.4721679687500003e-05,0,0,0,1150067,701645,233764,127744,204929,112389,80706,46422,Tag0,unknown
172,1611470107955,51,68,1.494140625e-05,0,0,0,1150067,701645,233764,127744,204929,112389,80706,46422,Tag0,unknown
173,1611470107974,51,67,1.4721679687500003e-05,0,0,0,1150067,701645,233764,127744,204929,112389,80706,46422,Tag0,unknown
174,1611470107998,51,68,1.494140625e-05,0,0,0,1150067,701645,233764,127744,204929,112389,80706,46422,Tag0,unknown
175,1611470108008,51,67,1.4721679687500003e-05,0,0,0,1150067,701645,233764,127744,204929,112389,80706,46422,Tag0,unknown
176,1611470108018,51,67,1.4721679687500003e-05,0,0,0,1150067,701645,233764,127744,204929,112389,80706,46422,Tag0,unknown
177,1611470108028,51,67,1.4721679687500003e-05,0,0,0,1150067,701645,233764,127744,204929,112389,80706,46422,Tag0,unknown
178,1611470108039,51,67,1.4721679687500003e-05,0,0,0,1150067,701645,233764,127744,204929,112389,80706,46422,Tag0,unknown
179,1611470108056,51,67,1.4721679687500003e-05,0,0,0,1150067,701645,233764,127744,204929,112389,80706,46422,Tag0,unknown
180,1611470108075,80,67,1.4721679687500003e-05,0,0,0,1049511,16748897,9737,7843,3752,1727,454,225,Tag0,unknown
181,1611470108093,80,67,1.4721679687500003e-05,0,0,0,1049511,16748897,9737,7843,3752,1727,454,225,Tag0,unknown
182,1611470108105,80,67,1.4721679687500003e-05,0,0,0,1049511,16748897,9737,7843,3752,1727,454,225,Tag0,unknown
183,1611470108121,80,67,1.4721679687500003e-05,0,0,0,1049511,16748897,9737,7843,3752,1727,454,225,Tag0,unknown
184,1611470108138,80,67,1.4721679687500003e-05,0,0,0,1049511,16748897,9737,7843,3752,1727,454,225,Tag0,unknown
185,1611470108156,80,67,1.4721679687500003e-05,0,0,0,1049511,16748897,9737,7843,3752,1727,454,225,Tag0,unknown
186,1611470108166,80,67,1.4721679687500003e-05,0,0,0,1049511,16748897,9737,7843,3752,1727,454,225,Tag0,unknown
187,1611470108180,80,68,1.494140625e-05,0,0,0,1049511,16748897,9737,7843,3752,1727,454,225,Tag0,unknown
188,1611470108207,80,67,1.4721679687500003e-05,0,0,0,1049511,16748897,9737,7843,3752,1727,454,225,Tag0,unknown
189,1611470108223,80,67,1.4721679687500003e-05,0,0,0,1049511,16748897,9737,7843,3752,1727,454,225,Tag0,unknown
190,1611470108233,80,67,1.4721679687500003e-05,0,0,0,1049511,16748897,9737,7843,3752,1727,454,225,Tag0,unknown
191,1611470108248,80,67,1.4721679687500003e-05,0,0,0,1049511,16748897,9737,7843,3752,1727,454,225,Tag0,unknown
192,1611470108258,80,67,1.4721679687500003e-05,0,0,0,1049511,16748897,9737,7843,3752,1727,454,225,Tag0,unknown
193,1611470108301,80,67,1.4721679687500003e-05,0,0,0,1049511,16748897,9737,7843,3752,1727,454,225,Tag0,unknown
194,1611470108324,80,68,1.494140625e-05,0,0,0,1049511,16748897,9737,7843,3752,1727,454,225,Tag0,unknown
195,1611470108334,80,68,1.494140625e-05,0,0,0,1049511,16748897,9737,7843,3752,1727,454,225,Tag0,unknown
196,1611470108344,80,68,1.494140625e-05,0,0,0,1049511,16748897,9737,7843,3752,1727,454,225,Tag0,unknown
197,1611470108371,80,67,1.4721679687500003e-05,0,0,0,1049511,16748897,9737,7843,3752,1727,454,225,Tag0,unknown
198,1611470108390,80,68,1.494140625e-05,0,0,0,1049511,16748897,9737,7843,3752,1727,454,225,Tag0,unknown
199,1611470108400,80,67,1.4721679687500003e-05,0,0,0,1049511,16748897,9737,7843,3752,1727,454,225,Tag0,unknown
200,1611470108434,80,66,1.4501953125e-05,0,0,0,1049511,16748897,9737,7843,3752,1727,454,225,Tag0,unknown
201,1611470108444,80,70,1.5380859375e-05,0,0,0,1049511,16748897,9737,7843,3752,1727,454,225,Tag0,unknown
202,1611470108458,80,67,1.4721679687500003e-05,0,0,0,1049511,16748897,9737,7843,3752,1727,454,225,Tag0,unknown
203,1611470108468,80,67,1.4721679687500003e-05,0,0,0,1049511,16748897,9737,7843,3752,1727,454,225,Tag0,unknown
204,1611470108493,80,67,1.4721679687500003e-05,0,0,0,1049511,16748897,9737,7843,3752,1727,454,225,Tag0,unknown
205,1611470108506,80,68,1.494140625e-05,0,0,0,1049511,16748897,9737,7843,3752,1727,454,225,Tag0,unknown
206,1611470108551,80,67,1.4721679687500003e-05,0,0,0,1049511,16748897,9737,7843,3752,1727,454,225,Tag0,unknown
207,1611470108565,80,67,1.4721679687500003e-05,0,0,0,1049511,16748897,9737,7843,3752,1727,454,225,Tag0,unknown
208,1611470108575,80,66,1.4501953125e-05,0,0,0,1049511,16748897,9737,7843,3752,1727,454,225,Tag0,unknown
209,1611470108585,80,67,1.4721679687500003e-05,0,0,0,1049511,16748897,9737,7843,3752,1727,454,225,Tag0,unknown
210,1611470108595,80,67,1.4721679687500003e-05,0,0,0,1049511,16748897,9737,7843,3752,1727,454,225,Tag0,unknown
211,1611470108611,80,67,1.4721679687500003e-05,0,0,0,1049511,16748897,9737,7843,3752,1727,454,225,Tag0,unknown
212,1611470108622,80,68,1.494140625e-05,0,0,0,1049511,16748897,9737,7843,3752,1727,454,225,Tag0,unknown
213,1611470108658,80,67,1.4721679687500003e-05,0,0,0,1049511,16748897,9737,7843,3752,1727,454,225,Tag0,unknown
214,1611470108675,80,67,1.4721679687500003e-05,0,0,0,1049511,16748897,9737,7843,3752,1727,454,225,Tag0,unknown
215,1611470108685,80,68,1.494140625e-05,0,0,0,1049511,16748897,9737,7843,3752,1727,454,225,Tag0,unknown
216,1611470108698,80,67,1.4721679687500003e-05,0,0,0,1049511,16748897,9737,7843,3752,1727,454,225,Tag0,unknown
217,1611470108709,80,70,1.5380859375e-05,0,0,0,1049511,16748897,9737,7843,3752,1727,454,225,Tag0,unknown
218,1611470108725,80,66,1.4501953125e-05,0,0,0,1049511,16748897,9737,7843,3752,1727,454,225,Tag0,unknown
219,1611470108741,80,67,1.4721679687500003e-05,0,0,0,1049511,16748897,9737,7843,3752,1727,454,225,Tag0,unknown
220,1611470108767,80,67,1.4721679687500003e-05,0,0,0,1049511,16748897,9737,7843,3752,1727,454,225,Tag0,unknown
221,1611470108777,80,1791,0.0003935302734375,0,0,0,1049511,16748897,9737,7843,3752,1727,454,225,Tag0,unknown
222,1611470108792,80,-1561,-0.0003429931640625,0,0,0,1049511,16748897,9737,7843,3752,1727,454,225,Tag0,unknown
223,1611470108806,80,1791,0.0003935302734375,0,0,0,1049511,16748897,9737,7843,3752,1727,454,225,Tag0,unknown
224,1611470108823,80,1791,0.0003935302734375,0,0,0,1049511,16748897,9737,7843,3752,1727,454,225,Tag0,unknown
225,1611470108840,80,1791,0.0003935302734375,0,0,0,1049511,16748897,9737,7843,3752,1727,454,225,Tag0,unknown
226,1611470108858,80,1791,0.0003935302734375,0,0,0,1049511,16748897,9737,7843,3752,1727,454,225,Tag0,unknown
227,1611470108874,80,1791,0.0003935302734375,0,0,0,1049511,16748897,9737,7843,3752,1727,454,225,Tag0,unknown
228,1611470108893,80,-2048,-0.00045,0,0,0,1049511,16748897,9737,7843,3752,1727,454,225,Tag0,unknown
229,1611470108914,80,-2048,-0.00045,0,0,0,1049511,16748897,9737,7843,3752,1727,454,225,Tag0,unknown
230,1611470108926,80,-2048,-0.00045,0,0,0,1049511,16748897,9737,7843,3752,1727,454,225,Tag0,unknown
231,1611470108936,80,-1166,-0.000256201171875,0,0,0,1049511,16748897,9737,7843,3752,1727,454,225,Tag0,unknown
232,1611470108946,80,-1139,-0.00025026855468750003,0,0,0,1049511,16748897,9737,7843,3752,1727,454,225,Tag0,unknown
233,1611470108960,80,-1069,-0.0002348876953125,0,0,0,1049511,16748897,9737,7843,3752,1727,454,225,Tag0,unknown
234,1611470108976,80,-795,-0.0001746826171875,0,0,0,1049511,16748897,9737,7843,3752,1727,454,225,Tag0,unknown
235,1611470108993,80,-497,-0.0001092041015625,0,0,0,1049511,16748897,9737,7843,3752,1727,454,225,Tag0,unknown
236,1611470109008,80,-621,-0.0001364501953125,0,0,0,1049511,16748897,9737,7843,3752,1727,454,225,Tag0,unknown
237,1611470109018,80,-162,-3.5595703125e-05,0,0,0,1049511,16748897,9737,7843,3752,1727,454,225,Tag0,unknown
238,1611470109041,80,-147,-3.22998046875e-05,0,0,0,1049511,16748897,9737,7843,3752,1727,454,225,Tag0,unknown
239,1611470109051,51,-1029,-0.0002260986328125,0,0,0,1097942,688839,35233,181628,167779,109641,16749851,16034,Tag0,unknown
240,1611470109067,51,1791,0.0003935302734375,0,0,0,1097942,688839,35233,181628,167779,109641,16749851,16034,Tag0,unknown
241,1611470109119,51,1791,0.0003935302734375,0,0,0,1097942,688839,35233,181628,167779,109641,16749851,16034,Tag0,unknown
242,1611470109129,51,1791,0.0003935302734375,0,0,0,1097942,688839,35233,181628,167779,109641,16749851,16034,Tag0,unknown
243,1611470109139,51,1910,0.000419677734375,0,0,0,1097942,688839,35233,181628,167779,109641,16749851,16034,Tag0,unknown
244,1611470109149,51,1601,0.0003517822265625,0,0,0,1097942,688839,35233,181628,167779,109641,16749851,16034,Tag0,unknown
245,1611470109159,51,689,0.0001513916015625,0,0,0,1097942,688839,35233,181628,167779,109641,16749851,16034,Tag0,unknown
246,1611470109179,51,413,9.07470703125e-05,0,0,0,1097942,688839,35233,181628,167779,109641,16749851,16034,Tag0,unknown
247,1611470109192,51,391,8.591308593750001e-05,0,0,0,1097942,688839,35233,181628,167779,109641,16749851,16034,Tag0,unknown
248,1611470109237,51,-2048,-0.00045,0,0,0,1097942,688839,35233,181628,167779,109641,16749851,16034,Tag0,unknown
249,1611470109260,51,-2048,-0.00045,0,0,0,1097942,688839,35233,181628,167779,109641,16749851,16034,Tag0,unknown
250,1611470109270,51,-2048,-0.00045,0,0,0,1097942,688839,35233,181628,167779,109641,16749851,16034,Tag0,unknown
251,1611470109280,51,1791,0.0003935302734375,0,0,0,1097942,688839,35233,181628,167779,109641,16749851,16034,Tag0,unknown
252,1611470109292,51,1791,0.0003935302734375,0,0,0,1097942,688839,35233,181628,167779,109641,16749851,16034,Tag0,unknown
253,1611470109302,51,1772,0.00038935546875,0,0,0,1097942,688839,35233,181628,167779,109641,16749851,16034,Tag0,unknown
254,1611470109315,51,1334,0.00029311523437500003,0,0,0,1097942,688839,35233,181628,167779,109641,16749851,16034,Tag0,unknown
255,1611470109325,51,765,0.0001680908203125,0,0,0,1097942,688839,35233,181628,167779,109641,16749851,16034,Tag0,unknown
256,1611470109342,51,824,0.0001810546875,0,0,0,1097942,688839,35233,181628,167779,109641,16749851,16034,Tag0,unknown
257,1611470109358,51,-2048,-0.00045,0,0,0,1097942,688839,35233,181628,167779,109641,16749851,16034,Tag0,unknown
258,1611470109379,51,-2048,-0.00045,0,0,0,1097942,688839,35233,181628,167779,109641,16749851,16034,Tag0,unknown
259,1611470109391,51,-2048,-0.00045,0,0,0,1097942,688839,35233,181628,167779,109641,16749851,16034,Tag0,unknown
260,1611470109416,51,-123,-2.70263671875e-05,0,0,0,1097942,688839,35233,181628,167779,109641,16749851,16034,Tag0,unknown
261,1611470109429,51,1791,0.0003935302734375,0,0,0,1097942,688839,35233,181628,167779,109641,16749851,16034,Tag0,unknown
262,1611470109439,51,-536,-0.0001177734375,0,0,0,1097942,688839,35233,181628,167779,109641,16749851,16034,Tag0,unknown
263,1611470109449,51,-2048,-0.00045,0,0,0,1097942,688839,35233,181628,167779,109641,16749851,16034,Tag0,unknown
264,1611470109461,51,1791,0.0003935302734375,0,0,0,1097942,688839,35233,181628,167779,109641,16749851,16034,Tag0,unknown
265,1611470109487,51,1031,0.0002265380859375,0,0,0,1097942,688839,35233,181628,167779,109641,16749851,16034,Tag0,unknown
266,1611470109497,51,376,8.261718750000001e-05,0,0,0,1097942,688839,35233,181628,167779,109641,16749851,16034,Tag0,unknown
267,1611470109509,51,-877,-0.00019270019531250005,0,0,0,1097942,688839,35233,181628,167779,109641,16749851,16034,Tag0,unknown
268,1611470109527,51,-2048,-0.00045,0,0,0,1097942,688839,35233,181628,167779,109641,16749851,16034,Tag0,unknown
269,1611470109541,51,-2048,-0.00045,0,0,0,1097942,688839,35233,181628,167779,109641,16749851,16034,Tag0,unknown
270,1611470109562,51,1791,0.0003935302734375,0,0,0,1097942,688839,35233,181628,167779,109641,16749851,16034,Tag0,unknown
271,1611470109574,51,1791,0.0003935302734375,0,0,0,1097942,688839,35233,181628,167779,109641,16749851,16034,Tag0,unknown
272,1611470109600,51,1192,0.0002619140625,0,0,0,1097942,688839,35233,181628,167779,109641,16749851,16034,Tag0,unknown
273,1611470109610,51,-1874,-0.000411767578125,0,0,0,1097942,688839,35233,181628,167779,109641,16749851,16034,Tag0,unknown
274,1611470109634,51,-1949,-0.0004282470703125001,0,0,0,1097942,688839,35233,181628,167779,109641,16749851,16034,Tag0,unknown
275,1611470109645,51,-2135,-0.0004691162109375,0,0,0,1097942,688839,35233,181628,167779,109641,16749851,16034,Tag0,unknown
276,1611470109655,51,1791,0.0003935302734375,0,0,0,1097942,688839,35233,181628,167779,109641,16749851,16034,Tag0,unknown
277,1611470109665,51,-2048,-0.00045,0,0,0,1097942,688839,35233,181628,167779,109641,16749851,16034,Tag0,unknown
278,1611470109677,51,-2174,-0.000477685546875,0,0,0,1097942,688839,35233,181628,167779,109641,16749851,16034,Tag0,unknown
279,1611470109694,51,1791,0.0003935302734375,0,0,0,1097942,688839,35233,181628,167779,109641,16749851,16034,Tag0,unknown
280,1611470109710,51,1791,0.0003935302734375,0,0,0,1097942,688839,35233,181628,167779,109641,16749851,16034,Tag0,unknown
281,1611470109727,51,1791,0.0003935302734375,0,0,0,1097942,688839,35233,181628,167779,109641,16749851,16034,Tag0,unknown
282,1611470109737,51,1389,0.00030520019531250005,0,0,0,1097942,688839,35233,181628,167779,109641,16749851,16034,Tag0,unknown
283,1611470109748,51,689,0.0001513916015625,0,0,0,1097942,688839,35233,181628,167779,109641,16749851,16034,Tag0,unknown
284,1611470109760,51,794,0.000174462890625,0,0,0,1097942,688839,35233,181628,167779,109641,16749851,16034,Tag0,unknown
285,1611470109779,51,627,0.0001377685546875,0,0,0,1097942,688839,35233,181628,167779,109641,16749851,16034,Tag0,unknown
286,1611470109791,51,608,0.00013359375,0,0,0,1097942,688839,35233,181628,167779,109641,16749851,16034,Tag0,unknown
287,1611470109820,51,284,6.240234375e-05,0,0,0,1097942,688839,35233,181628,167779,109641,16749851,16034,Tag0,unknown
288,1611470109830,51,-13,-2.8564453125e-06,0,0,0,1097942,688839,35233,181628,167779,109641,16749851,16034,Tag0,unknown
289,1611470109845,51,-42,-9.228515625000003e-06,0,0,0,1097942,688839,35233,181628,167779,109641,16749851,16034,Tag0,unknown
290,1611470109861,51,-55,-1.20849609375e-05,0,0,0,1097942,688839,35233,181628,167779,109641,16749851,16034,Tag0,unknown
291,1611470109871,51,-103,-2.26318359375e-05,0,0,0,1097942,688839,35233,181628,167779,109641,16749851,16034,Tag0,unknown
292,1611470109881,51,-111,-2.43896484375e-05,0,0,0,1097942,688839,35233,181628,167779,109641,16749851,16034,Tag0,unknown
293,1611470109895,51,-2048,-0.00045,0,0,0,1097942,688839,35233,181628,167779,109641,16749851,16034,Tag0,unknown
294,1611470109910,51,1351,0.0002968505859375,0,0,0,1097942,688839,35233,181628,167779,109641,16749851,16034,Tag0,unknown
295,1611470109927,51,1291,0.00028366699218750004,0,0,0,1097942,688839,35233,181628,167779,109641,16749851,16034,Tag0,unknown
296,1611470109943,51,-2048,-0.00045,0,0,0,1097942,688839,35233,181628,167779,109641,16749851,16034,Tag0,unknown
297,1611470109966,51,1791,0.0003935302734375,0,0,0,1097942,688839,35233,181628,167779,109641,16749851,16034,Tag0,unknown
298,1611470109976,51,-77,-1.69189453125e-05,0,0,0,1097942,688839,35233,181628,167779,109641,16749851,16034,Tag0,unknown
299,1611470109999,51,-1323,-0.0002906982421875,0,0,0,1097942,688839,35233,181628,167779,109641,16749851,16034,Tag0,unknown
300,1611470110011,51,1791,0.0003935302734375,0,0,0,1097942,688839,35233,181628,167779,109641,16749851,16034,Tag0,unknown
301,1611470110028,51,-2048,-0.00045,0,0,0,1097942,688839,35233,181628,167779,109641,16749851,16034,Tag0,unknown
302,1611470110046,51,-2029,-0.0004458251953125,0,0,0,1097942,688839,35233,181628,167779,109641,16749851,16034,Tag0,unknown
303,1611470110057,51,-1901,-0.0004177001953125,0,0,0,818023,278173,16775519,33583,16752097,16767952,27984,75284,Tag0,unknown
304,1611470110067,51,-1834,-0.000402978515625,0,0,0,818023,278173,16775519,33583,16752097,16767952,27984,75284,Tag0,unknown
305,1611470110083,51,-2048,-0.00045,0,0,0,818023,278173,16775519,33583,16752097,16767952,27984,75284,Tag0,unknown
306,1611470110093,51,1791,0.0003935302734375,0,0,0,818023,278173,16775519,33583,16752097,16767952,27984,75284,Tag0,unknown
307,1611470110108,51,1791,0.0003935302734375,0,0,0,818023,278173,16775519,33583,16752097,16767952,27984,75284,Tag0,unknown
308,1611470110125,51,1771,0.0003891357421875,0,0,0,818023,278173,16775519,33583,16752097,16767952,27984,75284,Tag0,unknown
309,1611470110151,51,-2048,-0.00045,0,0,0,818023,278173,16775519,33583,16752097,16767952,27984,75284,Tag0,unknown
310,1611470110161,51,-2048,-0.00045,0,0,0,818023,278173,16775519,33583,16752097,16767952,27984,75284,Tag0,unknown
311,1611470110185,51,-2048,-0.00045,0,0,0,818023,278173,16775519,33583,16752097,16767952,27984,75284,Tag0,unknown
312,1611470110195,51,1791,0.0003935302734375,0,0,0,818023,278173,16775519,33583,16752097,16767952,27984,75284,Tag0,unknown
313,1611470110205,51,1791,0.0003935302734375,0,0,0,818023,278173,16775519,33583,16752097,16767952,27984,75284,Tag0,unknown
314,1611470110215,51,1791,0.0003935302734375,0,0,0,818023,278173,16775519,33583,16752097,16767952,27984,75284,Tag0,unknown
315,1611470110227,51,1791,0.0003935302734375,0,0,0,818023,278173,16775519,33583,16752097,16767952,27984,75284,Tag0,unknown
316,1611470110244,51,-2048,-0.00045,0,0,0,818023,278173,16775519,33583,16752097,16767952,27984,75284,Tag0,unknown
317,1611470110261,51,1791,0.0003935302734375,0,0,0,818023,278173,16775519,33583,16752097,16767952,27984,75284,Tag0,unknown
318,1611470110278,51,-1010,-0.000221923828125,0,0,0,818023,278173,16775519,33583,16752097,16767952,27984,75284,Tag0,unknown
319,1611470110305,51,1791,0.0003935302734375,0,0,0,818023,278173,16775519,33583,16752097,16767952,27984,75284,Tag0,unknown
320,1611470110315,51,1791,0.0003935302734375,0,0,0,818023,278173,16775519,33583,16752097,16767952,27984,75284,Tag0,unknown
321,1611470110328,51,1733,0.0003807861328125,0,0,0,818023,278173,16775519,33583,16752097,16767952,27984,75284,Tag0,unknown
322,1611470110338,51,1791,0.0003935302734375,0,0,0,818023,278173,16775519,33583,16752097,16767952,27984,75284,Tag0,unknown
323,1611470110359,51,1791,0.0003935302734375,0,0,0,818023,278173,16775519,33583,16752097,16767952,27984,75284,Tag0,unknown
324,1611470110376,51,1791,0.0003935302734375,0,0,0,818023,278173,16775519,33583,16752097,16767952,27984,75284,Tag0,unknown
325,1611470110404,51,-2048,-0.00045,0,0,0,818023,278173,16775519,33583,16752097,16767952,27984,75284,Tag0,unknown
326,1611470110414,51,-2048,-0.00045,0,0,0,818023,278173,16775519,33583,16752097,16767952,27984,75284,Tag0,unknown
327,1611470110428,51,1791,0.0003935302734375,0,0,0,818023,278173,16775519,33583,16752097,16767952,27984,75284,Tag0,unknown
328,1611470110446,51,667,0.0001465576171875,0,0,0,818023,278173,16775519,33583,16752097,16767952,27984,75284,Tag0,unknown
329,1611470110462,51,1791,0.0003935302734375,0,0,0,818023,278173,16775519,33583,16752097,16767952,27984,75284,Tag0,unknown
330,1611470110480,51,1791,0.0003935302734375,0,0,0,818023,278173,16775519,33583,16752097,16767952,27984,75284,Tag0,unknown
331,1611470110496,51,1791,0.0003935302734375,0,0,0,818023,278173,16775519,33583,16752097,16767952,27984,75284,Tag0,unknown
332,1611470110506,51,-2048,-0.00045,0,0,0,818023,278173,16775519,33583,16752097,16767952,27984,75284,Tag0,unknown
333,1611470110529,51,-2048,-0.00045,0,0,0,818023,278173,16775519,33583,16752097,16767952,27984,75284,Tag0,unknown
334,1611470110556,51,1791,0.0003935302734375,0,0,0,818023,278173,16775519,33583,16752097,16767952,27984,75284,Tag0,unknown
335,1611470110566,51,1791,0.0003935302734375,0,0,0,818023,278173,16775519,33583,16752097,16767952,27984,75284,Tag0,unknown
336,1611470110578,51,1766,0.000388037109375,0,0,0,818023,278173,16775519,33583,16752097,16767952,27984,75284,Tag0,unknown
337,1611470110588,51,-2048,-0.00045,0,0,0,818023,278173,16775519,33583,16752097,16767952,27984,75284,Tag0,unknown
338,1611470110598,51,-2048,-0.00045,0,0,0,818023,278173,16775519,33583,16752097,16767952,27984,75284,Tag0,unknown
339,1611470110609,51,-2048,-0.00045,0,0,0,818023,278173,16775519,33583,16752097,16767952,27984,75284,Tag0,unknown
340,1611470110626,51,-503,-0.0001105224609375,0,0,0,818023,278173,16775519,33583,16752097,16767952,27984,75284,Tag0,unknown
341,1611470110643,51,1791,0.0003935302734375,0,0,0,818023,278173,16775519,33583,16752097,16767952,27984,75284,Tag0,unknown
342,1611470110667,51,-2048,-0.00045,0,0,0,818023,278173,16775519,33583,16752097,16767952,27984,75284,Tag0,unknown
343,1611470110679,51,-2048,-0.00045,0,0,0,818023,278173,16775519,33583,16752097,16767952,27984,75284,Tag0,unknown
344,1611470110701,51,912,0.000200390625,0,0,0,818023,278173,16775519,33583,16752097,16767952,27984,75284,Tag0,unknown
345,1611470110714,51,-2048,-0.00045,0,0,0,818023,278173,16775519,33583,16752097,16767952,27984,75284,Tag0,unknown
346,1611470110724,51,-2141,-0.0004704345703125,0,0,0,818023,278173,16775519,33583,16752097,16767952,27984,75284,Tag0,unknown
347,1611470110734,51,1791,0.0003935302734375,0,0,0,818023,278173,16775519,33583,16752097,16767952,27984,75284,Tag0,unknown
348,1611470110744,51,1791,0.0003935302734375,0,0,0,818023,278173,16775519,33583,16752097,16767952,27984,75284,Tag0,unknown
349,1611470110770,51,1040,0.000228515625,0,0,0,818023,278173,16775519,33583,16752097,16767952,27984,75284,Tag0,unknown
350,1611470110780,51,1791,0.0003935302734375,0,0,0,818023,278173,16775519,33583,16752097,16767952,27984,75284,Tag0,unknown
351,1611470110793,51,-2048,-0.00045,0,0,0,818023,278173,16775519,33583,16752097,16767952,27984,75284,Tag0,unknown
352,1611470110810,51,1905,0.0004185791015625,0,0,0,818023,278173,16775519,33583,16752097,16767952,27984,75284,Tag0,unknown
353,1611470110828,51,-2048,-0.00045,0,0,0,818023,278173,16775519,33583,16752097,16767952,27984,75284,Tag0,unknown
354,1611470110845,51,-2048,-0.00045,0,0,0,818023,278173,16775519,33583,16752097,16767952,27984,75284,Tag0,unknown
355,1611470110864,51,-2048,-0.00045,0,0,0,818023,278173,16775519,33583,16752097,16767952,27984,75284,Tag0,unknown
356,1611470110874,51,1791,0.0003935302734375,0,0,0,818023,278173,16775519,33583,16752097,16767952,27984,75284,Tag0,unknown
357,1611470110884,51,1725,0.0003790283203125,0,0,0,818023,278173,16775519,33583,16752097,16767952,27984,75284,Tag0,unknown
358,1611470110895,51,429,9.42626953125e-05,0,0,0,818023,278173,16775519,33583,16752097,16767952,27984,75284,Tag0,unknown
359,1611470110914,51,1791,0.0003935302734375,0,0,0,818023,278173,16775519,33583,16752097,16767952,27984,75284,Tag0,unknown
360,1611470110928,51,1754,0.0003854003906250001,0,0,0,818023,278173,16775519,33583,16752097,16767952,27984,75284,Tag0,unknown
361,1611470110954,51,-2048,-0.00045,0,0,0,818023,278173,16775519,33583,16752097,16767952,27984,75284,Tag0,unknown
362,1611470110964,51,1791,0.0003935302734375,0,0,0,818023,278173,16775519,33583,16752097,16767952,27984,75284,Tag0,unknown
363,1611470110987,51,-2048,-0.00045,0,0,0,818023,278173,16775519,33583,16752097,16767952,27984,75284,Tag0,unknown
364,1611470110997,51,-2048,-0.00045,0,0,0,818023,278173,16775519,33583,16752097,16767952,27984,75284,Tag0,unknown
365,1611470111007,51,1791,0.0003935302734375,0,0,0,818023,278173,16775519,33583,16752097,16767952,27984,75284,Tag0,unknown
366,1611470111017,51,-2048,-0.00045,0,0,0,818023,278173,16775519,33583,16752097,16767952,27984,75284,Tag0,unknown
367,1611470111029,51,1791,0.0003935302734375,0,0,0,818023,278173,16775519,33583,16752097,16767952,27984,75284,Tag0,unknown
368,1611470111046,51,1756,0.00038583984375,0,0,0,818023,278173,16775519,33583,16752097,16767952,27984,75284,Tag0,unknown
369,1611470111056,51,1791,0.0003935302734375,0,0,0,189890,895194,184770,240513,286479,294417,228912,82501,Tag0,unknown
370,1611470111071,51,1791,0.0003935302734375,0,0,0,189890,895194,184770,240513,286479,294417,228912,82501,Tag0,unknown
371,1611470111100,51,1791,0.0003935302734375,0,0,0,189890,895194,184770,240513,286479,294417,228912,82501,Tag0,unknown
372,1611470111110,51,1791,0.0003935302734375,0,0,0,189890,895194,184770,240513,286479,294417,228912,82501,Tag0,unknown
373,1611470111128,51,984,0.0002162109375,0,0,0,189890,895194,184770,240513,286479,294417,228912,82501,Tag0,unknown
374,1611470111145,51,713,0.0001566650390625,0,0,0,189890,895194,184770,240513,286479,294417,228912,82501,Tag0,unknown
375,1611470111164,51,789,0.00017336425781250002,0,0,0,189890,895194,184770,240513,286479,294417,228912,82501,Tag0,unknown
376,1611470111182,51,389,8.54736328125e-05,0,0,0,189890,895194,184770,240513,286479,294417,228912,82501,Tag0,unknown
377,1611470111192,51,209,4.59228515625e-05,0,0,0,189890,895194,184770,240513,286479,294417,228912,82501,Tag0,unknown
378,1611470111202,51,139,3.0541992187500004e-05,0,0,0,189890,895194,184770,240513,286479,294417,228912,82501,Tag0,unknown
379,1611470111214,51,294,6.4599609375e-05,0,0,0,189890,895194,184770,240513,286479,294417,228912,82501,Tag0,unknown
380,1611470111230,51,265,5.82275390625e-05,0,0,0,189890,895194,184770,240513,286479,294417,228912,82501,Tag0,unknown
381,1611470111247,51,-51,-1.12060546875e-05,0,0,0,189890,895194,184770,240513,286479,294417,228912,82501,Tag0,unknown
382,1611470111264,51,-59,-1.29638671875e-05,0,0,0,189890,895194,184770,240513,286479,294417,228912,82501,Tag0,unknown
383,1611470111274,51,-315,-6.92138671875e-05,0,0,0,189890,895194,184770,240513,286479,294417,228912,82501,Tag0,unknown
384,1611470111285,51,-126,-2.7685546875e-05,0,0,0,189890,895194,184770,240513,286479,294417,228912,82501,Tag0,unknown
385,1611470111298,51,119,2.6147460937500007e-05,0,0,0,189890,895194,184770,240513,286479,294417,228912,82501,Tag0,unknown
386,1611470111317,51,103,2.26318359375e-05,0,0,0,189890,895194,184770,240513,286479,294417,228912,82501,Tag0,unknown
387,1611470111328,51,103,2.26318359375e-05,0,0,0,189890,895194,184770,240513,286479,294417,228912,82501,Tag0,unknown
388,1611470111345,51,89,1.95556640625e-05,0,0,0,189890,895194,184770,240513,286479,294417,228912,82501,Tag0,unknown
389,1611470111362,51,84,1.8457031250000007e-05,0,0,0,189890,895194,184770,240513,286479,294417,228912,82501,Tag0,unknown
390,1611470111379,51,84,1.8457031250000007e-05,0,0,0,189890,895194,184770,240513,286479,294417,228912,82501,Tag0,unknown
391,1611470111397,51,76,1.669921875e-05,0,0,0,189890,895194,184770,240513,286479,294417,228912,82501,Tag0,unknown
392,1611470111414,51,81,1.77978515625e-05,0,0,0,189890,895194,184770,240513,286479,294417,228912,82501,Tag0,unknown
393,1611470111424,51,75,1.64794921875e-05,0,0,0,189890,895194,184770,240513,286479,294417,228912,82501,Tag0,unknown
394,1611470111434,51,1317,0.0002893798828125,0,0,0,189890,895194,184770,240513,286479,294417,228912,82501,Tag0,unknown
395,1611470111449,51,1015,0.0002230224609375,0,0,0,189890,895194,184770,240513,286479,294417,228912,82501,Tag0,unknown
396,1611470111464,51,-2048,-0.00045,0,0,0,189890,895194,184770,240513,286479,294417,228912,82501,Tag0,unknown
397,1611470111477,51,-2048,-0.00045,0,0,0,189890,895194,184770,240513,286479,294417,228912,82501,Tag0,unknown
398,1611470111507,51,-1315,-0.0002889404296875,0,0,0,189890,895194,184770,240513,286479,294417,228912,82501,Tag0,unknown
399,1611470111541,51,-881,-0.0001935791015625,0,0,0,189890,895194,184770,240513,286479,294417,228912,82501,Tag0,unknown
400,1611470111551,51,-445,-9.77783203125e-05,0,0,0,189890,895194,184770,240513,286479,294417,228912,82501,Tag0,unknown
401,1611470111563,51,-615,-0.0001351318359375,0,0,0,189890,895194,184770,240513,286479,294417,228912,82501,Tag0,unknown
402,1611470111580,51,-204,-4.482421875e-05,0,0,0,189890,895194,184770,240513,286479,294417,228912,82501,Tag0,unknown
403,1611470111596,51,-141,-3.09814453125e-05,0,0,0,189890,895194,184770,240513,286479,294417,228912,82501,Tag0,unknown
404,1611470111613,51,1791,0.0003935302734375,0,0,0,189890,895194,184770,240513,286479,294417,228912,82501,Tag0,unknown
405,1611470111630,51,1791,0.0003935302734375,0,0,0,189890,895194,184770,240513,286479,294417,228912,82501,Tag0,unknown
406,1611470111640,51,1791,0.0003935302734375,0,0,0,189890,895194,184770,240513,286479,294417,228912,82501,Tag0,unknown
407,1611470111651,51,-2041,-0.0004484619140625001,0,0,0,189890,895194,184770,240513,286479,294417,228912,82501,Tag0,unknown
408,1611470111662,51,-2048,-0.00045,0,0,0,189890,895194,184770,240513,286479,294417,228912,82501,Tag0,unknown
409,1611470111685,51,-943,-0.0002072021484375,0,0,0,189890,895194,184770,240513,286479,294417,228912,82501,Tag0,unknown
410,1611470111695,51,-957,-0.0002102783203125,0,0,0,189890,895194,184770,240513,286479,294417,228912,82501,Tag0,unknown
411,1611470111723,51,-507,-0.0001114013671875,0,0,0,189890,895194,184770,240513,286479,294417,228912,82501,Tag0,unknown
412,1611470111733,51,-468,-0.00010283203125,0,0,0,189890,895194,184770,240513,286479,294417,228912,82501,Tag0,unknown
413,1611470111756,51,-556,-0.00012216796875000002,0,0,0,189890,895194,184770,240513,286479,294417,228912,82501,Tag0,unknown
414,1611470111766,51,-545,-0.0001197509765625,0,0,0,189890,895194,184770,240513,286479,294417,228912,82501,Tag0,unknown
415,1611470111776,51,-141,-3.09814453125e-05,0,0,0,189890,895194,184770,240513,286479,294417,228912,82501,Tag0,unknown
416,1611470111786,51,-348,-7.646484375e-05,0,0,0,189890,895194,184770,240513,286479,294417,228912,82501,Tag0,unknown
417,1611470111797,51,630,0.000138427734375,0,0,0,189890,895194,184770,240513,286479,294417,228912,82501,Tag0,unknown
418,1611470111814,51,-765,-0.0001680908203125,0,0,0,189890,895194,184770,240513,286479,294417,228912,82501,Tag0,unknown
419,1611470111832,51,1791,0.0003935302734375,0,0,0,189890,895194,184770,240513,286479,294417,228912,82501,Tag0,unknown
420,1611470111848,51,1791,0.0003935302734375,0,0,0,189890,895194,184770,240513,286479,294417,228912,82501,Tag0,unknown
421,1611470111858,51,1791,0.0003935302734375,0,0,0,189890,895194,184770,240513,286479,294417,228912,82501,Tag0,unknown
422,1611470111913,51,1698,0.000373095703125,0,0,0,189890,895194,184770,240513,286479,294417,228912,82501,Tag0,unknown
423,1611470111945,51,1891,0.0004155029296875001,0,0,0,189890,895194,184770,240513,286479,294417,228912,82501,Tag0,unknown
424,1611470111955,51,1577,0.0003465087890625,0,0,0,189890,895194,184770,240513,286479,294417,228912,82501,Tag0,unknown
425,1611470112050,51,1153,0.0002533447265625,0,0,0,189890,895194,184770,240513,286479,294417,228912,82501,Tag0,unknown
426,1611470112075,51,1319,0.0002898193359375,0,0,0,189890,895194,184770,240513,286479,294417,228912,82501,Tag0,unknown
427,1611470112086,51,915,0.0002010498046875,0,0,0,189890,895194,184770,240513,286479,294417,228912,82501,Tag0,unknown
428,1611470112096,51,693,0.0001522705078125,0,0,0,189890,895194,184770,240513,286479,294417,228912,82501,Tag0,unknown
429,1611470112117,51,886,0.000194677734375,0,0,0,189890,895194,184770,240513,286479,294417,228912,82501,Tag0,unknown
430,1611470112132,51,855,0.0001878662109375,0,0,0,189890,895194,184770,240513,286479,294417,228912,82501,Tag0,unknown
431,1611470112142,51,569,0.0001250244140625,0,0,0,189890,895194,184770,240513,286479,294417,228912,82501,Tag0,unknown
432,1611470112186,51,-1015,-0.0002230224609375,0,0,0,189890,895194,184770,240513,286479,294417,228912,82501,Tag0,unknown
433,1611470112198,51,-1576,-0.0003462890625,0,0,0,189890,895194,184770,240513,286479,294417,228912,82501,Tag0,unknown
434,1611470112255,51,-2048,-0.00045,0,0,0,189890,895194,184770,240513,286479,294417,228912,82501,Tag0,unknown
435,1611470112270,51,-2052,-0.00045087890625,0,0,0,189890,895194,184770,240513,286479,294417,228912,82501,Tag0,unknown
436,1611470112280,51,-2048,-0.00045,0,0,0,189890,895194,184770,240513,286479,294417,228912,82501,Tag0,unknown
437,1611470112321,51,-1039,-0.0002282958984375,0,0,0,189890,895194,184770,240513,286479,294417,228912,82501,Tag0,unknown
438,1611470112332,51,1791,0.0003935302734375,0,0,0,189890,895194,184770,240513,286479,294417,228912,82501,Tag0,unknown
439,1611470112389,51,-2048,-0.00045,0,0,0,189890,895194,184770,240513,286479,294417,228912,82501,Tag0,unknown
440,1611470112400,51,-2048,-0.00045,0,0,0,239267,26515,15468,25701,30607,17999,10339,27823,Tag0,unknown
441,1611470112441,51,-2048,-0.00045,0,0,0,239267,26515,15468,25701,30607,17999,10339,27823,Tag0,unknown
442,1611470112451,51,1791,0.0003935302734375,0,0,0,239267,26515,15468,25701,30607,17999,10339,27823,Tag0,unknown
443,1611470112466,51,-2048,-0.00045,0,0,0,239267,26515,15468,25701,30607,17999,10339,27823,Tag0,unknown
444,1611470112476,51,1791,0.0003935302734375,0,0,0,239267,26515,15468,25701,30607,17999,10339,27823,Tag0,unknown
445,1611470112486,51,1791,0.0003935302734375,0,0,0,239267,26515,15468,25701,30607,17999,10339,27823,Tag0,unknown
446,1611470112497,51,1592,0.0003498046875,0,0,0,239267,26515,15468,25701,30607,17999,10339,27823,Tag0,unknown
447,1611470112507,51,-475,-0.0001043701171875,0,0,0,239267,26515,15468,25701,30607,17999,10339,27823,Tag0,unknown
448,1611470112517,51,1747,0.0003838623046875,0,0,0,239267,26515,15468,25701,30607,17999,10339,27823,Tag0,unknown
449,1611470112532,51,731,0.00016062011718749998,0,0,0,239267,26515,15468,25701,30607,17999,10339,27823,Tag0,unknown
450,1611470112546,51,699,0.0001535888671875,0,0,0,239267,26515,15468,25701,30607,17999,10339,27823,Tag0,unknown
451,1611470112571,51,171,3.75732421875e-05,0,0,0,239267,26515,15468,25701,30607,17999,10339,27823,Tag0,unknown
452,1611470112581,51,161,3.53759765625e-05,0,0,0,239267,26515,15468,25701,30607,17999,10339,27823,Tag0,unknown
453,1611470112607,51,298,6.5478515625e-05,0,0,0,239267,26515,15468,25701,30607,17999,10339,27823,Tag0,unknown
454,1611470112621,51,289,6.35009765625e-05,0,0,0,239267,26515,15468,25701,30607,17999,10339,27823,Tag0,unknown
455,1611470112631,51,-2048,-0.00045,0,0,0,239267,26515,15468,25701,30607,17999,10339,27823,Tag0,unknown
456,1611470112641,51,-2048,-0.00045,0,0,0,239267,26515,15468,25701,30607,17999,10339,27823,Tag0,unknown
457,1611470112655,51,-2048,-0.00045,0,0,0,239267,26515,15468,25701,30607,17999,10339,27823,Tag0,unknown
458,1611470112679,51,-1468,-0.00032255859375000004,0,0,0,239267,26515,15468,25701,30607,17999,10339,27823,Tag0,unknown
459,1611470112697,51,-1413,-0.0003104736328125,0,0,0,239267,26515,15468,25701,30607,17999,10339,27823,Tag0,unknown
460,1611470112717,51,1791,0.0003935302734375,0,0,0,239267,26515,15468,25701,30607,17999,10339,27823,Tag0,unknown
461,1611470112731,51,1791,0.0003935302734375,0,0,0,239267,26515,15468,25701,30607,17999,10339,27823,Tag0,unknown
462,1611470112753,51,121,2.6586914062500006e-05,0,0,0,239267,26515,15468,25701,30607,17999,10339,27823,Tag0,unknown
463,1611470112767,51,-357,-7.844238281250001e-05,0,0,0,239267,26515,15468,25701,30607,17999,10339,27823,Tag0,unknown
464,1611470112777,51,1791,0.0003935302734375,0,0,0,239267,26515,15468,25701,30607,17999,10339,27823,Tag0,unknown
465,1611470112789,51,397,8.72314453125e-05,0,0,0,239267,26515,15468,25701,30607,17999,10339,27823,Tag0,unknown
466,1611470112801,51,660,0.00014501953125,0,0,0,239267,26515,15468,25701,30607,17999,10339,27823,Tag0,unknown
467,1611470112825,51,361,7.93212890625e-05,0,0,0,239267,26515,15468,25701,30607,17999,10339,27823,Tag0,unknown
468,1611470112835,51,-2048,-0.00045,0,0,0,239267,26515,15468,25701,30607,17999,10339,27823,Tag0,unknown
469,1611470112850,51,1791,0.0003935302734375,0,0,0,239267,26515,15468,25701,30607,17999,10339,27823,Tag0,unknown
470,1611470112865,51,1816,0.0003990234375,0,0,0,239267,26515,15468,25701,30607,17999,10339,27823,Tag0,unknown
471,1611470112881,51,-1315,-0.0002889404296875,0,0,0,239267,26515,15468,25701,30607,17999,10339,27823,Tag0,unknown
472,1611470112902,51,-2048,-0.00045,0,0,0,239267,26515,15468,25701,30607,17999,10339,27823,Tag0,unknown
473,1611470112915,51,-2123,-0.0004664794921875,0,0,0,239267,26515,15468,25701,30607,17999,10339,27823,Tag0,unknown
474,1611470112932,51,-2048,-0.00045,0,0,0,239267,26515,15468,25701,30607,17999,10339,27823,Tag0,unknown
475,1611470112950,51,1791,0.0003935302734375,0,0,0,239267,26515,15468,25701,30607,17999,10339,27823,Tag0,unknown
476,1611470112969,51,-2048,-0.00045,0,0,0,239267,26515,15468,25701,30607,17999,10339,27823,Tag0,unknown
477,1611470112985,51,1791,0.0003935302734375,0,0,0,239267,26515,15468,25701,30607,17999,10339,27823,Tag0,unknown
478,1611470113001,51,1791,0.0003935302734375,0,0,0,239267,26515,15468,25701,30607,17999,10339,27823,Tag0,unknown
479,1611470113018,51,743,0.00016325683593750002,0,0,0,239267,26515,15468,25701,30607,17999,10339,27823,Tag0,unknown
480,1611470113028,51,-2048,-0.00045,0,0,0,239267,26515,15468,25701,30607,17999,10339,27823,Tag0,unknown
481,1611470113038,51,-1929,-0.0004238525390625001,0,0,0,239267,26515,15468,25701,30607,17999,10339,27823,Tag0,unknown
482,1611470113056,51,-2115,-0.0004647216796875,0,0,0,632278,111655,16749652,48551,176535,132464,146413,134150,Tag0,unknown
483,1611470113075,51,-1139,-0.00025026855468750003,0,0,0,632278,111655,16749652,48551,176535,132464,146413,134150,Tag0,unknown
484,1611470113085,51,-841,-0.0001847900390625,0,0,0,632278,111655,16749652,48551,176535,132464,146413,134150,Tag0,unknown
485,1611470113098,51,-819,-0.0001799560546875,0,0,0,632278,111655,16749652,48551,176535,132464,146413,134150,Tag0,unknown
486,1611470113115,51,-792,-0.00017402343750000002,0,0,0,632278,111655,16749652,48551,176535,132464,146413,134150,Tag0,unknown
487,1611470113132,51,-252,-5.537109375e-05,0,0,0,632278,111655,16749652,48551,176535,132464,146413,134150,Tag0,unknown
488,1611470113151,51,-170,-3.7353515625e-05,0,0,0,632278,111655,16749652,48551,176535,132464,146413,134150,Tag0,unknown
489,1611470113168,51,-378,-8.3056640625e-05,0,0,0,632278,111655,16749652,48551,176535,132464,146413,134150,Tag0,unknown
490,1611470113185,51,1791,0.0003935302734375,0,0,0,632278,111655,16749652,48551,176535,132464,146413,134150,Tag0,unknown
491,1611470113201,51,1791,0.0003935302734375,0,0,0,632278,111655,16749652,48551,176535,132464,146413,134150,Tag0,unknown
492,1611470113211,51,1687,0.0003706787109375,0,0,0,632278,111655,16749652,48551,176535,132464,146413,134150,Tag0,unknown
493,1611470113222,51,-2048,-0.00045,0,0,0,632278,111655,16749652,48551,176535,132464,146413,134150,Tag0,unknown
494,1611470113234,51,1845,0.0004053955078125,0,0,0,632278,111655,16749652,48551,176535,132464,146413,134150,Tag0,unknown
495,1611470113252,51,-2048,-0.00045,0,0,0,632278,111655,16749652,48551,176535,132464,146413,134150,Tag0,unknown
496,1611470113265,51,-2048,-0.00045,0,0,0,632278,111655,16749652,48551,176535,132464,146413,134150,Tag0,unknown
497,1611470113292,51,-2048,-0.00045,0,0,0,632278,111655,16749652,48551,176535,132464,146413,134150,Tag0,unknown
498,1611470113302,51,83,1.82373046875e-05,0,0,0,632278,111655,16749652,48551,176535,132464,146413,134150,Tag0,unknown
499,1611470113316,51,-2048,-0.00045,0,0,0,632278,111655,16749652,48551,176535,132464,146413,134150,Tag0,unknown
500,1611470113335,51,-2048,-0.00045,0,0,0,632278,111655,16749652,48551,176535,132464,146413,134150,Tag0,unknown
501,1611470113345,51,-1421,-0.00031223144531250004,0,0,0,632278,111655,16749652,48551,176535,132464,146413,134150,Tag0,unknown
502,1611470113355,51,493,0.0001083251953125,0,0,0,632278,111655,16749652,48551,176535,132464,146413,134150,Tag0,unknown
503,1611470113371,51,1791,0.0003935302734375,0,0,0,632278,111655,16749652,48551,176535,132464,146413,134150,Tag0,unknown
504,1611470113384,51,1791,0.0003935302734375,0,0,0,632278,111655,16749652,48551,176535,132464,146413,134150,Tag0,unknown
505,1611470113400,51,1791,0.0003935302734375,0,0,0,632278,111655,16749652,48551,176535,132464,146413,134150,Tag0,unknown
506,1611470113418,51,1795,0.0003944091796875,0,0,0,632278,111655,16749652,48551,176535,132464,146413,134150,Tag0,unknown
507,1611470113428,51,1094,0.000240380859375,0,0,0,632278,111655,16749652,48551,176535,132464,146413,134150,Tag0,unknown
508,1611470113438,51,887,0.00019489746093750006,0,0,0,632278,111655,16749652,48551,176535,132464,146413,134150,Tag0,unknown
509,1611470113448,51,857,0.0001883056640625,0,0,0,632278,111655,16749652,48551,176535,132464,146413,134150,Tag0,unknown
510,1611470113472,51,571,0.0001254638671875,0,0,0,632278,111655,16749652,48551,176535,132464,146413,134150,Tag0,unknown
511,1611470113482,51,535,0.0001175537109375,0,0,0,632278,111655,16749652,48551,176535,132464,146413,134150,Tag0,unknown
512,1611470113512,51,264,5.80078125e-05,0,0,0,632278,111655,16749652,48551,176535,132464,146413,134150,Tag0,unknown
513,1611470113538,51,259,5.69091796875e-05,0,0,0,632278,111655,16749652,48551,176535,132464,146413,134150,Tag0,unknown
514,1611470113548,51,-47,-1.03271484375e-05,0,0,0,632278,111655,16749652,48551,176535,132464,146413,134150,Tag0,unknown
515,1611470113558,51,-2048,-0.00045,0,0,0,632278,111655,16749652,48551,176535,132464,146413,134150,Tag0,unknown
516,1611470113568,51,-2048,-0.00045,0,0,0,632278,111655,16749652,48551,176535,132464,146413,134150,Tag0,unknown
517,1611470113585,51,1791,0.0003935302734375,0,0,0,632278,111655,16749652,48551,176535,132464,146413,134150,Tag0,unknown
518,1611470113600,51,1791,0.0003935302734375,0,0,0,632278,111655,16749652,48551,176535,132464,146413,134150,Tag0,unknown
519,1611470113619,51,1171,0.0002572998046875,0,0,0,632278,111655,16749652,48551,176535,132464,146413,134150,Tag0,unknown
520,1611470113635,51,1377,0.0003025634765625,0,0,0,632278,111655,16749652,48551,176535,132464,146413,134150,Tag0,unknown
521,1611470113645,51,453,9.95361328125e-05,0,0,0,632278,111655,16749652,48551,176535,132464,146413,134150,Tag0,unknown
522,1611470113660,51,599,0.0001316162109375,0,0,0,632278,111655,16749652,48551,176535,132464,146413,134150,Tag0,unknown
523,1611470113670,51,581,0.0001276611328125,0,0,0,632278,111655,16749652,48551,176535,132464,146413,134150,Tag0,unknown
524,1611470113694,51,151,3.31787109375e-05,0,0,0,632278,111655,16749652,48551,176535,132464,146413,134150,Tag0,unknown
525,1611470113704,51,349,7.668457031250001e-05,0,0,0,632278,111655,16749652,48551,176535,132464,146413,134150,Tag0,unknown
526,1611470113717,51,276,6.064453125e-05,0,0,0,632278,111655,16749652,48551,176535,132464,146413,134150,Tag0,unknown
527,1611470113734,51,-55,-1.20849609375e-05,0,0,0,632278,111655,16749652,48551,176535,132464,146413,134150,Tag0,unknown
528,1611470113749,51,-85,-1.86767578125e-05,0,0,0,632278,111655,16749652,48551,176535,132464,146413,134150,Tag0,unknown
529,1611470113770,51,-105,-2.30712890625e-05,0,0,0,632278,111655,16749652,48551,176535,132464,146413,134150,Tag0,unknown
530,1611470113788,51,-118,-2.5927734375e-05,0,0,0,632278,111655,16749652,48551,176535,132464,146413,134150,Tag0,unknown
531,1611470113803,51,105,2.30712890625e-05,0,0,0,632278,111655,16749652,48551,176535,132464,146413,134150,Tag0,unknown
532,1611470113819,51,101,2.21923828125e-05,0,0,0,632278,111655,16749652,48551,176535,132464,146413,134150,Tag0,unknown
533,1611470113835,51,93,2.04345703125e-05,0,0,0,632278,111655,16749652,48551,176535,132464,146413,134150,Tag0,unknown
534,1611470113845,51,16,3.515625e-06,0,0,0,632278,111655,16749652,48551,176535,132464,146413,134150,Tag0,unknown
535,1611470113855,51,-362,-7.954101562500001e-05,0,0,0,632278,111655,16749652,48551,176535,132464,146413,134150,Tag0,unknown
536,1611470113868,51,-267,-5.86669921875e-05,0,0,0,632278,111655,16749652,48551,176535,132464,146413,134150,Tag0,unknown
537,1611470113885,51,-101,-2.21923828125e-05,0,0,0,632278,111655,16749652,48551,176535,132464,146413,134150,Tag0,unknown
538,1611470113902,51,-124,-2.724609375e-05,0,0,0,632278,111655,16749652,48551,176535,132464,146413,134150,Tag0,unknown
539,1611470113912,51,-566,-0.00012436523437500002,0,0,0,632278,111655,16749652,48551,176535,132464,146413,134150,Tag0,unknown
540,1611470113925,51,-297,-6.525878906250001e-05,0,0,0,632278,111655,16749652,48551,176535,132464,146413,134150,Tag0,unknown
541,1611470113935,51,-298,-6.5478515625e-05,0,0,0,632278,111655,16749652,48551,176535,132464,146413,134150,Tag0,unknown
542,1611470113958,51,-733,-0.00016105957031250002,0,0,0,632278,111655,16749652,48551,176535,132464,146413,134150,Tag0,unknown
543,1611470113968,51,-1283,-0.0002819091796875,0,0,0,632278,111655,16749652,48551,176535,132464,146413,134150,Tag0,unknown
544,1611470113982,51,345,7.58056640625e-05,0,0,0,632278,111655,16749652,48551,176535,132464,146413,134150,Tag0,unknown
545,1611470114000,51,-28,-6.15234375e-06,0,0,0,632278,111655,16749652,48551,176535,132464,146413,134150,Tag0,unknown
546,1611470114019,51,-283,-6.218261718750001e-05,0,0,0,632278,111655,16749652,48551,176535,132464,146413,134150,Tag0,unknown
547,1611470114036,51,-617,-0.0001355712890625,0,0,0,1603895,968736,30712,71702,36729,84311,67267,16766784,Tag0,unknown
548,1611470114050,51,39,8.5693359375e-06,0,0,0,1603895,968736,30712,71702,36729,84311,67267,16766784,Tag0,unknown
549,1611470114067,51,-86,-1.8896484375000006e-05,0,0,0,1603895,968736,30712,71702,36729,84311,67267,16766784,Tag0,unknown
550,1611470114086,51,-110,-2.4169921875e-05,0,0,0,1603895,968736,30712,71702,36729,84311,67267,16766784,Tag0,unknown
551,1611470114096,51,339,7.448730468750001e-05,0,0,0,1603895,968736,30712,71702,36729,84311,67267,16766784,Tag0,unknown
552,1611470114106,51,-47,-1.03271484375e-05,0,0,0,1603895,968736,30712,71702,36729,84311,67267,16766784,Tag0,unknown
553,1611470114116,51,-109,-2.39501953125e-05,0,0,0,1603895,968736,30712,71702,36729,84311,67267,16766784,Tag0,unknown
554,1611470114134,51,13,2.8564453125e-06,0,0,0,1603895,968736,30712,71702,36729,84311,67267,16766784,Tag0,unknown
555,1611470114149,51,53,1.1645507812500003e-05,0,0,0,1603895,968736,30712,71702,36729,84311,67267,16766784,Tag0,unknown
556,1611470114171,51,125,2.74658203125e-05,0,0,0,1603895,968736,30712,71702,36729,84311,67267,16766784,Tag0,unknown
557,1611470114186,51,44,9.66796875e-06,0,0,0,1603895,968736,30712,71702,36729,84311,67267,16766784,Tag0,unknown
558,1611470114210,51,-352,-7.734375e-05,0,0,0,1603895,968736,30712,71702,36729,84311,67267,16766784,Tag0,unknown
559,1611470114220,51,-596,-0.00013095703125,0,0,0,1603895,968736,30712,71702,36729,84311,67267,16766784,Tag0,unknown
560,1611470114245,51,-93,-2.04345703125e-05,0,0,0,1603895,968736,30712,71702,36729,84311,67267,16766784,Tag0,unknown
561,1611470114255,51,-13,-2.8564453125e-06,0,0,0,1603895,968736,30712,71702,36729,84311,67267,16766784,Tag0,unknown
562,1611470114268,51,-26,-5.712890625e-06,0,0,0,1603895,968736,30712,71702,36729,84311,67267,16766784,Tag0,unknown
563,1611470114288,51,-32,-7.03125e-06,0,0,0,1603895,968736,30712,71702,36729,84311,67267,16766784,Tag0,unknown
564,1611470114303,51,-261,-5.73486328125e-05,0,0,0,1603895,968736,30712,71702,36729,84311,67267,16766784,Tag0,unknown
565,1611470114321,51,-499,-0.0001096435546875,0,0,0,1603895,968736,30712,71702,36729,84311,67267,16766784,Tag0,unknown
566,1611470114338,51,-913,-0.0002006103515625,0,0,0,1603895,968736,30712,71702,36729,84311,67267,16766784,Tag0,unknown
567,1611470114348,51,523,0.0001149169921875,0,0,0,1603895,968736,30712,71702,36729,84311,67267,16766784,Tag0,unknown
568,1611470114359,51,423,9.29443359375e-05,0,0,0,1603895,968736,30712,71702,36729,84311,67267,16766784,Tag0,unknown
569,1611470114370,51,537,0.0001179931640625,0,0,0,1603895,968736,30712,71702,36729,84311,67267,16766784,Tag0,unknown
570,1611470114388,51,539,0.0001184326171875,0,0,0,1603895,968736,30712,71702,36729,84311,67267,16766784,Tag0,unknown
571,1611470114400,51,521,0.0001144775390625,0,0,0,1603895,968736,30712,71702,36729,84311,67267,16766784,Tag0,unknown
572,1611470114427,51,-10,-2.197265625e-06,0,0,0,1603895,968736,30712,71702,36729,84311,67267,16766784,Tag0,unknown
573,1611470114437,51,-105,-2.30712890625e-05,0,0,0,1603895,968736,30712,71702,36729,84311,67267,16766784,Tag0,unknown
574,1611470114465,51,32,7.03125e-06,0,0,0,1603895,968736,30712,71702,36729,84311,67267,16766784,Tag0,unknown
575,1611470114475,51,57,1.25244140625e-05,0,0,0,1603895,968736,30712,71702,36729,84311,67267,16766784,Tag0,unknown
576,1611470114485,51,-189,-4.15283203125e-05,0,0,0,1603895,968736,30712,71702,36729,84311,67267,16766784,Tag0,unknown
577,1611470114495,51,-237,-5.20751953125e-05,0,0,0,1603895,968736,30712,71702,36729,84311,67267,16766784,Tag0,unknown
578,1611470114505,51,-245,-5.38330078125e-05,0,0,0,1603895,968736,30712,71702,36729,84311,67267,16766784,Tag0,unknown
579,1611470114515,51,-137,-3.01025390625e-05,0,0,0,1603895,968736,30712,71702,36729,84311,67267,16766784,Tag0,unknown
580,1611470114536,51,-121,-2.6586914062500006e-05,0,0,0,1603895,968736,30712,71702,36729,84311,67267,16766784,Tag0,unknown
581,1611470114551,51,-123,-2.70263671875e-05,0,0,0,1603895,968736,30712,71702,36729,84311,67267,16766784,Tag0,unknown
582,1611470114562,51,548,0.00012041015625,0,0,0,1603895,968736,30712,71702,36729,84311,67267,16766784,Tag0,unknown
583,1611470114574,51,247,5.42724609375e-05,0,0,0,1603895,968736,30712,71702,36729,84311,67267,16766784,Tag0,unknown
584,1611470114584,51,137,3.01025390625e-05,0,0,0,1603895,968736,30712,71702,36729,84311,67267,16766784,Tag0,unknown
585,1611470114608,51,-1595,-0.0003504638671875,0,0,0,1603895,968736,30712,71702,36729,84311,67267,16766784,Tag0,unknown
586,1611470114618,51,-861,-0.0001891845703125,0,0,0,1603895,968736,30712,71702,36729,84311,67267,16766784,Tag0,unknown
587,1611470114634,51,449,9.86572265625e-05,0,0,0,1603895,968736,30712,71702,36729,84311,67267,16766784,Tag0,unknown
588,1611470114651,51,437,9.60205078125e-05,0,0,0,1603895,968736,30712,71702,36729,84311,67267,16766784,Tag0,unknown
589,1611470114679,51,566,0.00012436523437500002,0,0,0,1603895,968736,30712,71702,36729,84311,67267,16766784,Tag0,unknown
590,1611470114689,51,219,4.81201171875e-05,0,0,0,1603895,968736,30712,71702,36729,84311,67267,16766784,Tag0,unknown
591,1611470114704,51,316,6.943359375000001e-05,0,0,0,1603895,968736,30712,71702,36729,84311,67267,16766784,Tag0,unknown
592,1611470114729,51,-339,-7.448730468750001e-05,0,0,0,1603895,968736,30712,71702,36729,84311,67267,16766784,Tag0,unknown
593,1611470114739,51,9,1.9775390625e-06,0,0,0,1603895,968736,30712,71702,36729,84311,67267,16766784,Tag0,unknown
594,1611470114754,51,272,5.9765625e-05,0,0,0,1603895,968736,30712,71702,36729,84311,67267,16766784,Tag0,unknown
595,1611470114767,51,-1027,-0.00022565917968750006,0,0,0,1603895,968736,30712,71702,36729,84311,67267,16766784,Tag0,unknown
596,1611470114784,51,-1302,-0.000286083984375,0,0,0,1603895,968736,30712,71702,36729,84311,67267,16766784,Tag0,unknown
597,1611470114800,51,-2109,-0.0004634033203125,0,0,0,1603895,968736,30712,71702,36729,84311,67267,16766784,Tag0,unknown
598,1611470114817,51,-2048,-0.00045,0,0,0,1603895,968736,30712,71702,36729,84311,67267,16766784,Tag0,unknown
599,1611470114839,51,-173,-3.80126953125e-05,0,0,0,1603895,968736,30712,71702,36729,84311,67267,16766784,Tag0,unknown
600,1611470114854,51,-121,-2.6586914062500006e-05,0,0,0,1603895,968736,30712,71702,36729,84311,67267,16766784,Tag0,unknown
601,1611470114873,51,-289,-6.35009765625e-05,0,0,0,1603895,968736,30712,71702,36729,84311,67267,16766784,Tag0,unknown
602,1611470114888,51,-139,-3.0541992187500004e-05,0,0,0,1603895,968736,30712,71702,36729,84311,67267,16766784,Tag0,unknown
603,1611470114898,51,151,3.31787109375e-05,0,0,0,1603895,968736,30712,71702,36729,84311,67267,16766784,Tag0,unknown
604,1611470114908,51,769,0.0001689697265625,0,0,0,1603895,968736,30712,71702,36729,84311,67267,16766784,Tag0,unknown
605,1611470114920,51,425,9.33837890625e-05,0,0,0,1603895,968736,30712,71702,36729,84311,67267,16766784,Tag0,unknown
606,1611470114948,51,167,3.66943359375e-05,0,0,0,1603895,968736,30712,71702,36729,84311,67267,16766784,Tag0,unknown
607,1611470114968,51,518,0.000113818359375,0,0,0,1603895,968736,30712,71702,36729,84311,67267,16766784,Tag0,unknown
608,1611470114988,51,-326,-7.163085937500001e-05,0,0,0,1603895,968736,30712,71702,36729,84311,67267,16766784,Tag0,unknown
609,1611470115002,51,43,9.4482421875e-06,0,0,0,1603895,968736,30712,71702,36729,84311,67267,16766784,Tag0,unknown
610,1611470115024,51,452,9.931640625e-05,0,0,0,1603895,968736,30712,71702,36729,84311,67267,16766784,Tag0,unknown
611,1611470115037,51,353,7.75634765625e-05,0,0,0,1603895,968736,30712,71702,36729,84311,67267,16766784,Tag0,unknown
612,1611470115047,0,99,2.1752929687500006e-05,0,0,0,744928,16758128,11530,16756554,21120,28265,15944,4956,Tag0,unknown
613,1611470115063,0,-618,-0.000135791015625,0,0,0,744928,16758128,11530,16756554,21120,28265,15944,4956,Tag0,unknown
614,1611470115073,0,343,7.53662109375e-05,0,0,0,744928,16758128,11530,16756554,21120,28265,15944,4956,Tag0,unknown
615,1611470115097,0,-852,-0.00018720703125,0,0,0,744928,16758128,11530,16756554,21120,28265,15944,4956,Tag0,unknown
616,1611470115119,0,-967,-0.0002124755859375,0,0,0,744928,16758128,11530,16756554,21120,28265,15944,4956,Tag0,unknown
617,1611470115139,0,-826,-0.000181494140625,0,0,0,744928,16758128,11530,16756554,21120,28265,15944,4956,Tag0,unknown
618,1611470115155,0,-588,-0.00012919921875,0,0,0,744928,16758128,11530,16756554,21120,28265,15944,4956,Tag0,unknown
619,1611470115165,0,-585,-0.0001285400390625,0,0,0,744928,16758128,11530,16756554,21120,28265,15944,4956,Tag0,unknown
620,1611470115175,0,-149,-3.27392578125e-05,0,0,0,744928,16758128,11530,16756554,21120,28265,15944,4956,Tag0,unknown
621,1611470115188,0,-347,-7.62451171875e-05,0,0,0,744928,16758128,11530,16756554,21120,28265,15944,4956,Tag0,unknown
622,1611470115206,0,274,6.0205078125e-05,0,0,0,744928,16758128,11530,16756554,21120,28265,15944,4956,Tag0,unknown
623,1611470115221,0,-106,-2.3291015625000006e-05,0,0,0,744928,16758128,11530,16756554,21120,28265,15944,4956,Tag0,unknown
624,1611470115231,0,324,7.119140625e-05,0,0,0,744928,16758128,11530,16756554,21120,28265,15944,4956,Tag0,unknown
625,1611470115263,0,537,0.0001179931640625,0,0,0,744928,16758128,11530,16756554,21120,28265,15944,4956,Tag0,unknown
626,1611470115285,0,355,7.80029296875e-05,0,0,0,744928,16758128,11530,16756554,21120,28265,15944,4956,Tag0,unknown
627,1611470115321,0,551,0.0001210693359375,0,0,0,744928,16758128,11530,16756554,21120,28265,15944,4956,Tag0,unknown
628,1611470115338,0,172,3.779296875000001e-05,0,0,0,744928,16758128,11530,16756554,21120,28265,15944,4956,Tag0,unknown
629,1611470115348,0,297,6.525878906250001e-05,0,0,0,744928,16758128,11530,16756554,21120,28265,15944,4956,Tag0,unknown
630,1611470115360,0,104,2.28515625e-05,0,0,0,744928,16758128,11530,16756554,21120,28265,15944,4956,Tag0,unknown
631,1611470115380,0,37,8.1298828125e-06,0,0,0,744928,16758128,11530,16756554,21120,28265,15944,4956,Tag0,unknown
632,1611470115390,0,-123,-2.70263671875e-05,0,0,0,744928,16758128,11530,16756554,21120,28265,15944,4956,Tag0,unknown
633,1611470115403,0,115,2.52685546875e-05,0,0,0,744928,16758128,11530,16756554,21120,28265,15944,4956,Tag0,unknown
634,1611470115438,0,-359,-7.88818359375e-05,0,0,0,744928,16758128,11530,16756554,21120,28265,15944,4956,Tag0,unknown
635,1611470115451,0,-211,-4.63623046875e-05,0,0,0,744928,16758128,11530,16756554,21120,28265,15944,4956,Tag0,unknown
636,1611470115478,0,-257,-5.64697265625e-05,0,0,0,744928,16758128,11530,16756554,21120,28265,15944,4956,Tag0,unknown
637,1611470115491,0,-370,-8.1298828125e-05,0,0,0,744928,16758128,11530,16756554,21120,28265,15944,4956,Tag0,unknown
638,1611470115501,0,90,1.9775390625e-05,0,0,0,744928,16758128,11530,16756554,21120,28265,15944,4956,Tag0,unknown
639,1611470115511,0,29,6.3720703125e-06,0,0,0,744928,16758128,11530,16756554,21120,28265,15944,4956,Tag0,unknown
640,1611470115521,0,-28,-6.15234375e-06,0,0,0,744928,16758128,11530,16756554,21120,28265,15944,4956,Tag0,unknown
641,1611470115531,0,275,6.04248046875e-05,0,0,0,744928,16758128,11530,16756554,21120,28265,15944,4956,Tag0,unknown
642,1611470115546,0,8,1.7578125e-06,0,0,0,744928,16758128,11530,16756554,21120,28265,15944,4956,Tag0,unknown
643,1611470115556,0,-88,-1.93359375e-05,0,0,0,744928,16758128,11530,16756554,21120,28265,15944,4956,Tag0,unknown
644,1611470115568,0,321,7.053222656250001e-05,0,0,0,744928,16758128,11530,16756554,21120,28265,15944,4956,Tag0,unknown
645,1611470115588,0,-130,-2.8564453125e-05,0,0,0,744928,16758128,11530,16756554,21120,28265,15944,4956,Tag0,unknown
646,1611470115602,0,-294,-6.4599609375e-05,0,0,0,744928,16758128,11530,16756554,21120,28265,15944,4956,Tag0,unknown
647,1611470115623,0,-79,-1.7358398437500006e-05,0,0,0,744928,16758128,11530,16756554,21120,28265,15944,4956,Tag0,unknown
648,1611470115639,0,-111,-2.43896484375e-05,0,0,0,744928,16758128,11530,16756554,21120,28265,15944,4956,Tag0,unknown
649,1611470115649,0,-51,-1.12060546875e-05,0,0,0,744928,16758128,11530,16756554,21120,28265,15944,4956,Tag0,unknown
650,1611470115659,0,257,5.64697265625e-05,0,0,0,744928,16758128,11530,16756554,21120,28265,15944,4956,Tag0,unknown
651,1611470115672,0,-61,-1.34033203125e-05,0,0,0,744928,16758128,11530,16756554,21120,28265,15944,4956,Tag0,unknown
652,1611470115693,0,97,2.13134765625e-05,0,0,0,744928,16758128,11530,16756554,21120,28265,15944,4956,Tag0,unknown
653,1611470115706,0,40,8.7890625e-06,0,0,0,744928,16758128,11530,16756554,21120,28265,15944,4956,Tag0,unknown
654,1611470115717,0,60,1.318359375e-05,0,0,0,744928,16758128,11530,16756554,21120,28265,15944,4956,Tag0,unknown
655,1611470115742,0,11,2.4169921875e-06,0,0,0,744928,16758128,11530,16756554,21120,28265,15944,4956,Tag0,unknown
656,1611470115754,0,-337,-7.40478515625e-05,0,0,0,744928,16758128,11530,16756554,21120,28265,15944,4956,Tag0,unknown
657,1611470115764,0,36,7.91015625e-06,0,0,0,744928,16758128,11530,16756554,21120,28265,15944,4956,Tag0,unknown
658,1611470115781,0,1,2.197265625e-07,0,0,0,744928,16758128,11530,16756554,21120,28265,15944,4956,Tag0,unknown
659,1611470115803,0,-279,-6.13037109375e-05,0,0,0,744928,16758128,11530,16756554,21120,28265,15944,4956,Tag0,unknown
660,1611470115820,0,-360,-7.91015625e-05,0,0,0,744928,16758128,11530,16756554,21120,28265,15944,4956,Tag0,unknown
661,1611470115837,0,-338,-7.426757812499999e-05,0,0,0,744928,16758128,11530,16756554,21120,28265,15944,4956,Tag0,unknown
662,1611470115847,0,70,1.5380859375e-05,0,0,0,744928,16758128,11530,16756554,21120,28265,15944,4956,Tag0,unknown
663,1611470115857,0,-108,-2.373046875e-05,0,0,0,744928,16758128,11530,16756554,21120,28265,15944,4956,Tag0,unknown
664,1611470115872,0,54,1.1865234375e-05,0,0,0,744928,16758128,11530,16756554,21120,28265,15944,4956,Tag0,unknown
665,1611470115891,0,-262,-5.7568359375e-05,0,0,0,744928,16758128,11530,16756554,21120,28265,15944,4956,Tag0,unknown
666,1611470115906,0,12,2.63671875e-06,0,0,0,744928,16758128,11530,16756554,21120,28265,15944,4956,Tag0,unknown
667,1611470115953,0,-107,-2.35107421875e-05,0,0,0,744928,16758128,11530,16756554,21120,28265,15944,4956,Tag0,unknown
668,1611470115969,0,2,4.39453125e-07,0,0,0,744928,16758128,11530,16756554,21120,28265,15944,4956,Tag0,unknown
669,1611470116003,0,83,1.82373046875e-05,0,0,0,744928,16758128,11530,16756554,21120,28265,15944,4956,Tag0,unknown
670,1611470116022,0,49,1.07666015625e-05,0,0,0,744928,16758128,11530,16756554,21120,28265,15944,4956,Tag0,unknown
671,1611470116032,0,-273,-5.9985351562500014e-05,0,0,0,744928,16758128,11530,16756554,21120,28265,15944,4956,Tag0,unknown
672,1611470116046,0,-73,-1.6040039062500002e-05,0,0,0,1097390,79979,16755310,16748765,16748600,16764242,11828,15888,Tag0,unknown
673,1611470116062,0,56,1.23046875e-05,0,0,0,1097390,79979,16755310,16748765,16748600,16764242,11828,15888,Tag0,unknown
674,1611470116072,0,306,6.723632812500001e-05,0,0,0,1097390,79979,16755310,16748765,16748600,16764242,11828,15888,Tag0,unknown
675,1611470116086,0,281,6.17431640625e-05,0,0,0,1097390,79979,16755310,16748765,16748600,16764242,11828,15888,Tag0,unknown
676,1611470116120,0,-39,-8.5693359375e-06,0,0,0,1097390,79979,16755310,16748765,16748600,16764242,11828,15888,Tag0,unknown
677,1611470116138,0,258,5.6689453125e-05,0,0,0,1097390,79979,16755310,16748765,16748600,16764242,11828,15888,Tag0,unknown
678,1611470116148,0,6,1.318359375e-06,0,0,0,1097390,79979,16755310,16748765,16748600,16764242,11828,15888,Tag0,unknown
679,1611470116161,0,76,1.669921875e-05,0,0,0,1097390,79979,16755310,16748765,16748600,16764242,11828,15888,Tag0,unknown
680,1611470116171,0,42,9.228515625000003e-06,0,0,0,1097390,79979,16755310,16748765,16748600,16764242,11828,15888,Tag0,unknown
681,1611470116192,0,51,1.12060546875e-05,0,0,0,1097390,79979,16755310,16748765,16748600,16764242,11828,15888,Tag0,unknown
682,1611470116204,0,-96,-2.109375e-05,0,0,0,1097390,79979,16755310,16748765,16748600,16764242,11828,15888,Tag0,unknown
683,1611470116220,0,33,7.2509765625e-06,0,0,0,1097390,79979,16755310,16748765,16748600,16764242,11828,15888,Tag0,unknown
684,1611470116247,0,-172,-3.779296875000001e-05,0,0,0,1097390,79979,16755310,16748765,16748600,16764242,11828,15888,Tag0,unknown
685,1611470116257,0,-43,-9.4482421875e-06,0,0,0,1097390,79979,16755310,16748765,16748600,16764242,11828,15888,Tag0,unknown
686,1611470116270,0,73,1.6040039062500002e-05,0,0,0,1097390,79979,16755310,16748765,16748600,16764242,11828,15888,Tag0,unknown
687,1611470116309,0,87,1.91162109375e-05,0,0,0,1097390,79979,16755310,16748765,16748600,16764242,11828,15888,Tag0,unknown
688,1611470116326,0,18,3.955078125e-06,0,0,0,1097390,79979,16755310,16748765,16748600,16764242,11828,15888,Tag0,unknown
689,1611470116336,0,62,1.3623046875e-05,0,0,0,1097390,79979,16755310,16748765,16748600,16764242,11828,15888,Tag0,unknown
690,1611470116346,0,22,4.833984375e-06,0,0,0,1097390,79979,16755310,16748765,16748600,16764242,11828,15888,Tag0,unknown
691,1611470116366,0,39,8.5693359375e-06,0,0,0,1097390,79979,16755310,16748765,16748600,16764242,11828,15888,Tag0,unknown
692,1611470116376,0,67,1.4721679687500003e-05,0,0,0,1097390,79979,16755310,16748765,16748600,16764242,11828,15888,Tag0,unknown
693,1611470116389,0,99,2.1752929687500006e-05,0,0,0,1097390,79979,16755310,16748765,16748600,16764242,11828,15888,Tag0,unknown
694,1611470116399,0,-39,-8.5693359375e-06,0,0,0,1097390,79979,16755310,16748765,16748600,16764242,11828,15888,Tag0,unknown
695,1611470116409,0,-221,-4.85595703125e-05,0,0,0,1097390,79979,16755310,16748765,16748600,16764242,11828,15888,Tag0,unknown
696,1611470116421,0,6,1.318359375e-06,0,0,0,1097390,79979,16755310,16748765,16748600,16764242,11828,15888,Tag0,unknown
697,1611470116444,0,-221,-4.85595703125e-05,0,0,0,1097390,79979,16755310,16748765,16748600,16764242,11828,15888,Tag0,unknown
698,1611470116454,0,-531,-0.0001166748046875,0,0,0,1097390,79979,16755310,16748765,16748600,16764242,11828,15888,Tag0,unknown
699,1611470116470,0,-83,-1.82373046875e-05,0,0,0,1097390,79979,16755310,16748765,16748600,16764242,11828,15888,Tag0,unknown
700,1611470116487,0,106,2.3291015625000006e-05,0,0,0,1097390,79979,16755310,16748765,16748600,16764242,11828,15888,Tag0,unknown
701,1611470116505,0,-243,-5.33935546875e-05,0,0,0,1097390,79979,16755310,16748765,16748600,16764242,11828,15888,Tag0,unknown
702,1611470116528,0,-79,-1.7358398437500006e-05,0,0,0,1097390,79979,16755310,16748765,16748600,16764242,11828,15888,Tag0,unknown
703,1611470116538,0,3,6.591796875e-07,0,0,0,1097390,79979,16755310,16748765,16748600,16764242,11828,15888,Tag0,unknown
704,1611470116562,0,283,6.218261718750001e-05,0,0,0,1097390,79979,16755310,16748765,16748600,16764242,11828,15888,Tag0,unknown
705,1611470116572,0,27,5.932617187500001e-06,0,0,0,1097390,79979,16755310,16748765,16748600,16764242,11828,15888,Tag0,unknown
706,1611470116598,0,-103,-2.26318359375e-05,0,0,0,1097390,79979,16755310,16748765,16748600,16764242,11828,15888,Tag0,unknown
707,1611470116632,0,317,6.96533203125e-05,0,0,0,1097390,79979,16755310,16748765,16748600,16764242,11828,15888,Tag0,unknown
708,1611470116655,0,-195,-4.28466796875e-05,0,0,0,1097390,79979,16755310,16748765,16748600,16764242,11828,15888,Tag0,unknown
709,1611470116674,0,-110,-2.4169921875e-05,0,0,0,1097390,79979,16755310,16748765,16748600,16764242,11828,15888,Tag0,unknown
710,1611470116690,0,19,4.1748046875e-06,0,0,45,1097390,79979,16755310,16748765,16748600,16764242,11828,15888,Tag0,unknown
711,1611470116708,0,-96,-2.109375e-05,0,0,45,1097390,79979,16755310,16748765,16748600,16764242,11828,15888,Tag0,unknown
712,1611470116724,0,-299,-6.56982421875e-05,0,0,45,1097390,79979,16755310,16748765,16748600,16764242,11828,15888,Tag0,unknown
713,1611470116745,0,172,3.779296875000001e-05,0,0,45,1097390,79979,16755310,16748765,16748600,16764242,11828,15888,Tag0,unknown
714,1611470116757,0,-63,-1.38427734375e-05,0,0,45,1097390,79979,16755310,16748765,16748600,16764242,11828,15888,Tag0,unknown
715,1611470116778,0,42,9.228515625000003e-06,0,0,45,1097390,79979,16755310,16748765,16748600,16764242,11828,15888,Tag0,unknown
716,1611470116791,0,123,2.70263671875e-05,0,0,45,1097390,79979,16755310,16748765,16748600,16764242,11828,15888,Tag0,unknown
717,1611470116801,0,-169,-3.71337890625e-05,0,0,45,1097390,79979,16755310,16748765,16748600,16764242,11828,15888,Tag0,unknown
718,1611470116811,0,-71,-1.56005859375e-05,0,0,45,1097390,79979,16755310,16748765,16748600,16764242,11828,15888,Tag0,unknown
719,1611470116824,0,-145,-3.18603515625e-05,0,0,45,1097390,79979,16755310,16748765,16748600,16764242,11828,15888,Tag0,unknown
720,1611470116840,0,48,1.0546875e-05,0,0,45,1097390,79979,16755310,16748765,16748600,16764242,11828,15888,Tag0,unknown
721,1611470116858,0,119,2.6147460937500007e-05,0,0,45,1097390,79979,16755310,16748765,16748600,16764242,11828,15888,Tag0,unknown
722,1611470116875,0,-115,-2.52685546875e-05,0,0,45,1097390,79979,16755310,16748765,16748600,16764242,11828,15888,Tag0,unknown
723,1611470116927,0,-74,-1.6259765625e-05,0,0,45,1097390,79979,16755310,16748765,16748600,16764242,11828,15888,Tag0,unknown
724,1611470116944,0,293,6.43798828125e-05,0,0,45,1097390,79979,16755310,16748765,16748600,16764242,11828,15888,Tag0,unknown
725,1611470116954,0,341,7.492675781250003e-05,0,0,45,1097390,79979,16755310,16748765,16748600,16764242,11828,15888,Tag0,unknown
726,1611470116995,0,100,2.197265625e-05,0,0,45,1097390,79979,16755310,16748765,16748600,16764242,11828,15888,Tag0,unknown
727,1611470117007,0,-305,-6.70166015625e-05,0,0,45,1097390,79979,16755310,16748765,16748600,16764242,11828,15888,Tag0,unknown
728,1611470117066,0,5,1.0986328125e-06,0,0,45,1097390,79979,16755310,16748765,16748600,16764242,11828,15888,Tag0,unknown
729,1611470117078,0,76,1.669921875e-05,0,0,45,1097390,79979,16755310,16748765,16748600,16764242,11828,15888,Tag0,unknown
730,1611470117088,0,-133,-2.92236328125e-05,0,0,45,1097390,79979,16755310,16748765,16748600,16764242,11828,15888,Tag0,unknown
731,1611470117098,0,-280,-6.15234375e-05,0,0,45,1097390,79979,16755310,16748765,16748600,16764242,11828,15888,Tag0,unknown
732,1611470117132,0,-341,-7.492675781250003e-05,0,0,45,1097390,79979,16755310,16748765,16748600,16764242,11828,15888,Tag0,unknown
733,1611470117142,0,-524,-0.00011513671875,0,0,45,1097390,79979,16755310,16748765,16748600,16764242,11828,15888,Tag0,unknown
734,1611470117199,0,-339,-7.448730468750001e-05,0,0,45,1097390,79979,16755310,16748765,16748600,16764242,11828,15888,Tag0,unknown
735,1611470117211,0,-328,-7.207031249999999e-05,0,0,45,1097390,79979,16755310,16748765,16748600,16764242,11828,15888,Tag0,unknown
736,1611470117221,0,-70,-1.5380859375e-05,0,0,45,1097390,79979,16755310,16748765,16748600,16764242,11828,15888,Tag0,unknown
737,1611470117270,0,27,5.932617187500001e-06,0,0,45,1097390,79979,16755310,16748765,16748600,16764242,11828,15888,Tag0,unknown
738,1611470117293,0,-271,-5.95458984375e-05,0,0,45,1097390,79979,16755310,16748765,16748600,16764242,11828,15888,Tag0,unknown
739,1611470117303,0,-95,-2.08740234375e-05,0,0,45,888536,108271,31533,92268,19482,23587,19619,14882,Tag0,unknown
740,1611470117337,0,-88,-1.93359375e-05,0,0,45,888536,108271,31533,92268,19482,23587,19619,14882,Tag0,unknown
741,1611470117357,0,73,1.6040039062500002e-05,0,0,45,888536,108271,31533,92268,19482,23587,19619,14882,Tag0,unknown
742,1611470117404,0,-547,-0.0001201904296875,0,0,50,888536,108271,31533,92268,19482,23587,19619,14882,Tag0,unknown
743,1611470117424,0,-197,-4.32861328125e-05,0,0,50,888536,108271,31533,92268,19482,23587,19619,14882,Tag0,unknown
744,1611470117434,0,337,7.40478515625e-05,0,0,50,888536,108271,31533,92268,19482,23587,19619,14882,Tag0,unknown
745,1611470117447,0,304,6.6796875e-05,0,0,50,888536,108271,31533,92268,19482,23587,19619,14882,Tag0,unknown
746,1611470117458,0,-87,-1.91162109375e-05,0,0,50,888536,108271,31533,92268,19482,23587,19619,14882,Tag0,unknown
747,1611470117468,0,-273,-5.9985351562500014e-05,0,0,50,888536,108271,31533,92268,19482,23587,19619,14882,Tag0,unknown
748,1611470117478,0,-121,-2.6586914062500006e-05,0,0,50,888536,108271,31533,92268,19482,23587,19619,14882,Tag0,unknown
749,1611470117488,0,64,1.40625e-05,0,0,50,888536,108271,31533,92268,19482,23587,19619,14882,Tag0,unknown
750,1611470117498,0,68,1.494140625e-05,0,0,50,888536,108271,31533,92268,19482,23587,19619,14882,Tag0,unknown
751,1611470117508,0,-36,-7.91015625e-06,0,0,50,888536,108271,31533,92268,19482,23587,19619,14882,Tag0,unknown
752,1611470117533,0,307,6.74560546875e-05,0,0,50,888536,108271,31533,92268,19482,23587,19619,14882,Tag0,unknown
753,1611470117568,0,-161,-3.53759765625e-05,0,0,50,888536,108271,31533,92268,19482,23587,19619,14882,Tag0,unknown
754,1611470117604,0,340,7.470703125e-05,0,0,50,888536,108271,31533,92268,19482,23587,19619,14882,Tag0,unknown
755,1611470117627,0,-26,-5.712890625e-06,0,0,50,888536,108271,31533,92268,19482,23587,19619,14882,Tag0,unknown
756,1611470117637,0,-317,-6.96533203125e-05,0,0,50,888536,108271,31533,92268,19482,23587,19619,14882,Tag0,unknown
757,1611470117651,0,73,1.6040039062500002e-05,0,0,50,888536,108271,31533,92268,19482,23587,19619,14882,Tag0,unknown
758,1611470117675,0,-310,-6.8115234375e-05,0,0,50,888536,108271,31533,92268,19482,23587,19619,14882,Tag0,unknown
759,1611470117690,0,-181,-3.97705078125e-05,0,0,50,888536,108271,31533,92268,19482,23587,19619,14882,Tag0,unknown
760,1611470117700,0,-315,-6.92138671875e-05,0,0,50,888536,108271,31533,92268,19482,23587,19619,14882,Tag0,unknown
761,1611470117713,0,-176,-3.8671875e-05,0,0,50,888536,108271,31533,92268,19482,23587,19619,14882,Tag0,unknown
762,1611470117724,0,-587,-0.00012897949218750005,0,0,50,888536,108271,31533,92268,19482,23587,19619,14882,Tag0,unknown
763,1611470117747,0,-301,-6.613769531250001e-05,0,0,50,888536,108271,31533,92268,19482,23587,19619,14882,Tag0,unknown
764,1611470117758,0,39,8.5693359375e-06,0,0,50,888536,108271,31533,92268,19482,23587,19619,14882,Tag0,unknown
765,1611470117768,0,-62,-1.3623046875e-05,0,0,50,888536,108271,31533,92268,19482,23587,19619,14882,Tag0,unknown
766,1611470117778,0,-126,-2.7685546875e-05,0,0,56,888536,108271,31533,92268,19482,23587,19619,14882,Tag0,unknown
767,1611470117794,0,-120,-2.63671875e-05,0,0,56,888536,108271,31533,92268,19482,23587,19619,14882,Tag0,unknown
768,1611470117809,0,-83,-1.82373046875e-05,0,0,56,888536,108271,31533,92268,19482,23587,19619,14882,Tag0,unknown
769,1611470117819,0,196,4.306640625e-05,0,0,56,888536,108271,31533,92268,19482,23587,19619,14882,Tag0,unknown
770,1611470117839,0,-285,-6.26220703125e-05,0,0,56,888536,108271,31533,92268,19482,23587,19619,14882,Tag0,unknown
771,1611470117869,0,363,7.97607421875e-05,0,0,56,888536,108271,31533,92268,19482,23587,19619,14882,Tag0,unknown
772,1611470117891,0,-37,-8.1298828125e-06,0,0,56,888536,108271,31533,92268,19482,23587,19619,14882,Tag0,unknown
773,1611470117901,0,2,4.39453125e-07,0,0,56,888536,108271,31533,92268,19482,23587,19619,14882,Tag0,unknown
774,1611470117911,0,89,1.95556640625e-05,0,0,56,888536,108271,31533,92268,19482,23587,19619,14882,Tag0,unknown
775,1611470117921,0,-337,-7.40478515625e-05,0,0,56,888536,108271,31533,92268,19482,23587,19619,14882,Tag0,unknown
776,1611470117941,0,-343,-7.53662109375e-05,0,0,56,888536,108271,31533,92268,19482,23587,19619,14882,Tag0,unknown
777,1611470117957,0,-222,-4.8779296875e-05,0,0,56,888536,108271,31533,92268,19482,23587,19619,14882,Tag0,unknown
778,1611470117967,0,-367,-8.063964843750001e-05,0,0,56,888536,108271,31533,92268,19482,23587,19619,14882,Tag0,unknown
779,1611470117981,0,-162,-3.5595703125e-05,0,0,56,888536,108271,31533,92268,19482,23587,19619,14882,Tag0,unknown
780,1611470117991,0,-610,-0.000134033203125,0,0,56,888536,108271,31533,92268,19482,23587,19619,14882,Tag0,unknown
781,1611470118015,0,-257,-5.64697265625e-05,0,0,56,888536,108271,31533,92268,19482,23587,19619,14882,Tag0,unknown
782,1611470118025,0,-107,-2.35107421875e-05,0,0,56,888536,108271,31533,92268,19482,23587,19619,14882,Tag0,unknown
783,1611470118035,0,-300,-6.591796875e-05,30,30,56,36402,16770295,1582,5034,12094,4019,2215,825,Tag0,unknown
784,1611470118046,0,-473,-0.0001039306640625,30,30,56,36402,16770295,1582,5034,12094,4019,2215,825,Tag0,unknown
785,1611470118059,0,853,0.0001874267578125,30,30,56,36402,16770295,1582,5034,12094,4019,2215,825,Tag0,unknown
786,1611470118073,0,-39,-8.5693359375e-06,30,30,56,36402,16770295,1582,5034,12094,4019,2215,825,Tag0,unknown
787,1611470118096,0,-54,-1.1865234375e-05,30,30,56,36402,16770295,1582,5034,12094,4019,2215,825,Tag0,unknown
788,1611470118106,0,-98,-2.1533203125e-05,30,30,56,36402,16770295,1582,5034,12094,4019,2215,825,Tag0,unknown
789,1611470118131,0,-71,-1.56005859375e-05,30,30,56,36402,16770295,1582,5034,12094,4019,2215,825,Tag0,unknown
790,1611470118143,0,-8,-1.7578125e-06,30,30,56,36402,16770295,1582,5034,12094,4019,2215,825,Tag0,unknown
791,1611470118153,0,-96,-2.109375e-05,30,30,56,36402,16770295,1582,5034,12094,4019,2215,825,Tag0,unknown
792,1611470118163,0,-38,-8.349609375e-06,30,30,56,36402,16770295,1582,5034,12094,4019,2215,825,Tag0,unknown
793,1611470118175,0,65,1.42822265625e-05,30,30,56,36402,16770295,1582,5034,12094,4019,2215,825,Tag0,unknown
794,1611470118201,0,-112,-2.4609375e-05,30,30,56,36402,16770295,1582,5034,12094,4019,2215,825,Tag0,unknown
795,1611470118211,0,7,1.5380859375e-06,30,30,56,36402,16770295,1582,5034,12094,4019,2215,825,Tag0,unknown
796,1611470118226,0,75,1.64794921875e-05,30,30,56,36402,16770295,1582,5034,12094,4019,2215,825,Tag0,unknown
797,1611470118239,0,-116,-2.548828125e-05,30,30,56,36402,16770295,1582,5034,12094,4019,2215,825,Tag0,unknown
798,1611470118256,0,-121,-2.6586914062500006e-05,30,30,56,36402,16770295,1582,5034,12094,4019,2215,825,Tag0,unknown
799,1611470118273,0,-309,-6.78955078125e-05,30,30,56,36402,16770295,1582,5034,12094,4019,2215,825,Tag0,unknown
800,1611470118289,0,-377,-8.28369140625e-05,30,30,56,36402,16770295,1582,5034,12094,4019,2215,825,Tag0,unknown
801,1611470118309,0,-266,-5.8447265625e-05,30,30,56,36402,16770295,1582,5034,12094,4019,2215,825,Tag0,unknown
802,1611470118325,0,-37,-8.1298828125e-06,30,30,56,36402,16770295,1582,5034,12094,4019,2215,825,Tag0,unknown
803,1611470118343,0,393,8.63525390625e-05,30,30,56,36402,16770295,1582,5034,12094,4019,2215,825,Tag0,unknown
804,1611470118359,0,211,4.63623046875e-05,30,30,56,36402,16770295,1582,5034,12094,4019,2215,825,Tag0,unknown
805,1611470118377,0,229,5.03173828125e-05,30,30,56,36402,16770295,1582,5034,12094,4019,2215,825,Tag0,unknown
806,1611470118394,0,370,8.1298828125e-05,30,30,56,36402,16770295,1582,5034,12094,4019,2215,825,Tag0,unknown
807,1611470118404,0,-197,-4.32861328125e-05,30,30,56,36402,16770295,1582,5034,12094,4019,2215,825,Tag0,unknown
808,1611470118423,0,-147,-3.22998046875e-05,30,30,56,36402,16770295,1582,5034,12094,4019,2215,825,Tag0,unknown
809,1611470118443,0,-563,-0.0001237060546875,30,30,56,36402,16770295,1582,5034,12094,4019,2215,825,Tag0,unknown
810,1611470118456,0,-247,-5.42724609375e-05,30,30,56,36402,16770295,1582,5034,12094,4019,2215,825,Tag0,unknown
811,1611470118490,0,-770,-0.000169189453125,30,30,56,36402,16770295,1582,5034,12094,4019,2215,825,Tag0,unknown
812,1611470118513,0,-818,-0.00017973632812500002,30,30,56,36402,16770295,1582,5034,12094,4019,2215,825,Tag0,unknown
813,1611470118523,0,-303,-6.65771484375e-05,30,30,56,36402,16770295,1582,5034,12094,4019,2215,825,Tag0,unknown
814,1611470118537,0,-171,-3.75732421875e-05,30,30,56,36402,16770295,1582,5034,12094,4019,2215,825,Tag0,unknown
815,1611470118558,0,291,6.39404296875e-05,30,30,56,36402,16770295,1582,5034,12094,4019,2215,825,Tag0,unknown
816,1611470118575,0,258,5.6689453125e-05,30,30,56,36402,16770295,1582,5034,12094,4019,2215,825,Tag0,unknown
817,1611470118592,0,113,2.48291015625e-05,30,30,56,36402,16770295,1582,5034,12094,4019,2215,825,Tag0,unknown
818,1611470118609,0,89,1.95556640625e-05,30,30,56,36402,16770295,1582,5034,12094,4019,2215,825,Tag0,unknown
819,1611470118619,0,-263,-5.778808593750001e-05,30,30,56,36402,16770295,1582,5034,12094,4019,2215,825,Tag0,unknown
820,1611470118641,0,361,7.93212890625e-05,30,30,56,36402,16770295,1582,5034,12094,4019,2215,825,Tag0,unknown
821,1611470118662,0,497,0.0001092041015625,30,30,56,36402,16770295,1582,5034,12094,4019,2215,825,Tag0,unknown
822,1611470118675,0,470,0.000103271484375,30,30,56,36402,16770295,1582,5034,12094,4019,2215,825,Tag0,unknown
823,1611470118685,0,348,7.646484375e-05,30,30,56,36402,16770295,1582,5034,12094,4019,2215,825,Tag0,unknown
824,1611470118701,0,340,7.470703125e-05,30,30,56,36402,16770295,1582,5034,12094,4019,2215,825,Tag0,unknown
825,1611470118738,0,-15,-3.2958984375e-06,30,30,56,36402,16770295,1582,5034,12094,4019,2215,825,Tag0,unknown
826,1611470118758,0,-22,-4.833984375e-06,30,30,56,36402,16770295,1582,5034,12094,4019,2215,825,Tag0,unknown
827,1611470118768,0,-92,-2.021484375e-05,30,30,56,36402,16770295,1582,5034,12094,4019,2215,825,Tag0,unknown
828,1611470118779,0,-121,-2.6586914062500006e-05,30,30,56,36402,16770295,1582,5034,12094,4019,2215,825,Tag0,unknown
829,1611470118793,0,115,2.52685546875e-05,30,30,56,36402,16770295,1582,5034,12094,4019,2215,825,Tag0,unknown
830,1611470118808,0,99,2.1752929687500006e-05,30,30,56,36402,16770295,1582,5034,12094,4019,2215,825,Tag0,unknown
831,1611470118825,0,91,1.99951171875e-05,30,30,56,36402,16770295,1582,5034,12094,4019,2215,825,Tag0,unknown
832,1611470118850,0,86,1.8896484375000006e-05,30,30,56,36402,16770295,1582,5034,12094,4019,2215,825,Tag0,unknown
833,1611470118860,0,67,1.4721679687500003e-05,30,30,56,36402,16770295,1582,5034,12094,4019,2215,825,Tag0,unknown
834,1611470118889,0,-411,-9.03076171875e-05,30,30,56,36402,16770295,1582,5034,12094,4019,2215,825,Tag0,unknown
835,1611470118913,0,-483,-0.0001061279296875,30,30,56,36402,16770295,1582,5034,12094,4019,2215,825,Tag0,unknown
836,1611470118923,0,-1457,-0.0003201416015625,30,30,56,36402,16770295,1582,5034,12094,4019,2215,825,Tag0,unknown
837,1611470118937,0,-1415,-0.0003109130859375,30,30,56,36402,16770295,1582,5034,12094,4019,2215,825,Tag0,unknown
838,1611470118947,0,-21,-4.614257812500002e-06,30,30,56,36402,16770295,1582,5034,12094,4019,2215,825,Tag0,unknown
839,1611470118957,0,417,9.16259765625e-05,30,30,56,36402,16770295,1582,5034,12094,4019,2215,825,Tag0,unknown
840,1611470118968,0,-285,-6.26220703125e-05,30,30,56,36402,16770295,1582,5034,12094,4019,2215,825,Tag0,unknown
841,1611470118978,0,-1079,-0.0002370849609375,30,30,56,36402,16770295,1582,5034,12094,4019,2215,825,Tag0,unknown
842,1611470119002,0,-941,-0.0002067626953125,30,30,56,36402,16770295,1582,5034,12094,4019,2215,825,Tag0,unknown
843,1611470119027,0,-2048,-0.00045,40,43,56,1941139,88228,16771287,28575,22481,16748679,1915,7100,Tag0,unknown
844,1611470119047,0,-1562,-0.000343212890625,40,43,56,1941139,88228,16771287,28575,22481,16748679,1915,7100,Tag0,unknown
845,1611470119058,0,-729,-0.0001601806640625,40,43,56,1941139,88228,16771287,28575,22481,16748679,1915,7100,Tag0,unknown
846,1611470119068,0,-1280,-0.00028125,40,43,56,1941139,88228,16771287,28575,22481,16748679,1915,7100,Tag0,unknown
847,1611470119085,0,-267,-5.86669921875e-05,40,43,56,1941139,88228,16771287,28575,22481,16748679,1915,7100,Tag0,unknown
848,1611470119107,0,-11,-2.4169921875e-06,40,43,56,1941139,88228,16771287,28575,22481,16748679,1915,7100,Tag0,unknown
849,1611470119127,0,64,1.40625e-05,40,43,56,1941139,88228,16771287,28575,22481,16748679,1915,7100,Tag0,unknown
850,1611470119145,0,-1353,-0.0002972900390625,40,43,56,1941139,88228,16771287,28575,22481,16748679,1915,7100,Tag0,unknown
851,1611470119161,0,-1351,-0.0002968505859375,40,43,56,1941139,88228,16771287,28575,22481,16748679,1915,7100,Tag0,unknown
852,1611470119171,0,379,8.32763671875e-05,40,43,56,1941139,88228,16771287,28575,22481,16748679,1915,7100,Tag0,unknown
853,1611470119183,0,384,8.4375e-05,40,43,56,1941139,88228,16771287,28575,22481,16748679,1915,7100,Tag0,unknown
854,1611470119193,0,531,0.0001166748046875,40,43,56,1941139,88228,16771287,28575,22481,16748679,1915,7100,Tag0,unknown
855,1611470119216,0,-37,-8.1298828125e-06,40,43,56,1941139,88228,16771287,28575,22481,16748679,1915,7100,Tag0,unknown
856,1611470119226,0,332,7.294921875e-05,40,43,56,1941139,88228,16771287,28575,22481,16748679,1915,7100,Tag0,unknown
857,1611470119253,0,1791,0.0003935302734375,40,43,56,1941139,88228,16771287,28575,22481,16748679,1915,7100,Tag0,unknown
858,1611470119277,0,1607,0.0003531005859375,40,43,56,1941139,88228,16771287,28575,22481,16748679,1915,7100,Tag0,unknown
859,1611470119296,0,1369,0.00030080566406250005,40,43,56,1941139,88228,16771287,28575,22481,16748679,1915,7100,Tag0,unknown
860,1611470119311,0,145,3.18603515625e-05,40,43,56,1941139,88228,16771287,28575,22481,16748679,1915,7100,Tag0,unknown
861,1611470119321,0,-1351,-0.0002968505859375,40,43,56,1941139,88228,16771287,28575,22481,16748679,1915,7100,Tag0,unknown
862,1611470119337,0,-1321,-0.0002902587890625,40,43,56,1941139,88228,16771287,28575,22481,16748679,1915,7100,Tag0,unknown
863,1611470119347,0,-1665,-0.0003658447265625,40,43,56,1941139,88228,16771287,28575,22481,16748679,1915,7100,Tag0,unknown
864,1611470119360,0,-1447,-0.0003179443359375,40,43,56,1941139,88228,16771287,28575,22481,16748679,1915,7100,Tag0,unknown
865,1611470119379,0,-713,-0.0001566650390625,40,43,56,1941139,88228,16771287,28575,22481,16748679,1915,7100,Tag0,unknown
866,1611470119393,0,-557,-0.0001223876953125,40,43,56,1941139,88228,16771287,28575,22481,16748679,1915,7100,Tag0,unknown
867,1611470119408,0,-850,-0.000186767578125,40,43,56,1941139,88228,16771287,28575,22481,16748679,1915,7100,Tag0,unknown
868,1611470119426,0,-137,-3.01025390625e-05,40,43,56,1941139,88228,16771287,28575,22481,16748679,1915,7100,Tag0,unknown
869,1611470119446,0,1240,0.0002724609375,40,43,56,1941139,88228,16771287,28575,22481,16748679,1915,7100,Tag0,unknown
870,1611470119459,0,1179,0.00025905761718750004,40,43,56,1941139,88228,16771287,28575,22481,16748679,1915,7100,Tag0,unknown
871,1611470119480,0,998,0.000219287109375,40,43,56,1941139,88228,16771287,28575,22481,16748679,1915,7100,Tag0,unknown
872,1611470119500,0,967,0.0002124755859375,40,43,56,1941139,88228,16771287,28575,22481,16748679,1915,7100,Tag0,unknown
873,1611470119510,0,839,0.0001843505859375,40,43,56,1941139,88228,16771287,28575,22481,16748679,1915,7100,Tag0,unknown
874,1611470119525,0,535,0.0001175537109375,40,43,56,1941139,88228,16771287,28575,22481,16748679,1915,7100,Tag0,unknown
875,1611470119544,0,523,0.0001149169921875,40,43,56,1941139,88228,16771287,28575,22481,16748679,1915,7100,Tag0,unknown
876,1611470119561,0,585,0.0001285400390625,40,43,56,1941139,88228,16771287,28575,22481,16748679,1915,7100,Tag0,unknown
877,1611470119571,0,-86,-1.8896484375000006e-05,40,43,56,1941139,88228,16771287,28575,22481,16748679,1915,7100,Tag0,unknown
878,1611470119592,0,-107,-2.35107421875e-05,40,43,56,1941139,88228,16771287,28575,22481,16748679,1915,7100,Tag0,unknown
879,1611470119617,0,77,1.69189453125e-05,40,43,56,1941139,88228,16771287,28575,22481,16748679,1915,7100,Tag0,unknown
880,1611470119627,0,-56,-1.23046875e-05,40,43,56,1941139,88228,16771287,28575,22481,16748679,1915,7100,Tag0,unknown
881,1611470119653,0,565,0.0001241455078125,40,43,56,1941139,88228,16771287,28575,22481,16748679,1915,7100,Tag0,unknown
882,1611470119667,0,288,6.328125e-05,40,43,56,1941139,88228,16771287,28575,22481,16748679,1915,7100,Tag0,unknown
883,1611470119677,0,-155,-3.40576171875e-05,40,43,56,1941139,88228,16771287,28575,22481,16748679,1915,7100,Tag0,unknown
884,1611470119687,0,-488,-0.0001072265625,40,43,56,1941139,88228,16771287,28575,22481,16748679,1915,7100,Tag0,unknown
885,1611470119698,0,183,4.02099609375e-05,40,43,56,1941139,88228,16771287,28575,22481,16748679,1915,7100,Tag0,unknown
886,1611470119724,0,138,3.0322265625e-05,40,43,56,1941139,88228,16771287,28575,22481,16748679,1915,7100,Tag0,unknown
887,1611470119742,0,341,7.492675781250003e-05,40,43,56,1941139,88228,16771287,28575,22481,16748679,1915,7100,Tag0,unknown
888,1611470119762,0,-29,-6.3720703125e-06,40,43,56,1941139,88228,16771287,28575,22481,16748679,1915,7100,Tag0,unknown
889,1611470119775,0,67,1.4721679687500003e-05,40,43,56,1941139,88228,16771287,28575,22481,16748679,1915,7100,Tag0,unknown
890,1611470119796,0,66,1.4501953125e-05,40,43,56,1941139,88228,16771287,28575,22481,16748679,1915,7100,Tag0,unknown
891,1611470119809,0,-32,-7.03125e-06,40,43,56,1941139,88228,16771287,28575,22481,16748679,1915,7100,Tag0,unknown
892,1611470119819,0,245,5.38330078125e-05,40,43,56,1941139,88228,16771287,28575,22481,16748679,1915,7100,Tag0,unknown
893,1611470119846,0,516,0.00011337890625,40,43,56,1941139,88228,16771287,28575,22481,16748679,1915,7100,Tag0,unknown
894,1611470119860,0,201,4.41650390625e-05,40,43,56,1941139,88228,16771287,28575,22481,16748679,1915,7100,Tag0,unknown
895,1611470119870,0,93,2.04345703125e-05,40,43,56,1941139,88228,16771287,28575,22481,16748679,1915,7100,Tag0,unknown
896,1611470119885,0,315,6.92138671875e-05,40,43,56,1941139,88228,16771287,28575,22481,16748679,1915,7100,Tag0,unknown
897,1611470119895,0,71,1.56005859375e-05,40,43,56,1941139,88228,16771287,28575,22481,16748679,1915,7100,Tag0,unknown
898,1611470119918,0,-363,-7.97607421875e-05,40,43,56,1941139,88228,16771287,28575,22481,16748679,1915,7100,Tag0,unknown
899,1611470119929,0,-201,-4.41650390625e-05,40,43,56,1941139,88228,16771287,28575,22481,16748679,1915,7100,Tag0,unknown
900,1611470119939,0,-299,-6.56982421875e-05,40,43,56,1941139,88228,16771287,28575,22481,16748679,1915,7100,Tag0,unknown
901,1611470119949,0,-562,-0.000123486328125,40,43,56,1941139,88228,16771287,28575,22481,16748679,1915,7100,Tag0,unknown
902,1611470119962,0,-188,-4.130859375e-05,40,43,56,1941139,88228,16771287,28575,22481,16748679,1915,7100,Tag0,unknown
903,1611470119979,0,-282,-6.1962890625e-05,40,43,56,1941139,88228,16771287,28575,22481,16748679,1915,7100,Tag0,unknown
904,1611470119995,0,-397,-8.72314453125e-05,40,43,56,1941139,88228,16771287,28575,22481,16748679,1915,7100,Tag0,unknown
905,1611470120011,0,107,2.35107421875e-05,40,43,56,1941139,88228,16771287,28575,22481,16748679,1915,7100,Tag0,unknown
906,1611470120021,26,355,7.80029296875e-05,40,43,56,959154,16756437,2765,32738,16769636,96759,24921,77280,Tag0,unknown
907,1611470120035,26,264,5.80078125e-05,40,43,87,959154,16756437,2765,32738,16769636,96759,24921,77280,Tag0,unknown
908,1611470120045,26,152,3.33984375e-05,40,43,87,959154,16756437,2765,32738,16769636,96759,24921,77280,Tag0,unknown
909,1611470120060,26,117,2.57080078125e-05,40,43,87,959154,16756437,2765,32738,16769636,96759,24921,77280,Tag0,unknown
910,1611470120077,26,-27,-5.932617187500001e-06,40,43,87,959154,16756437,2765,32738,16769636,96759,24921,77280,Tag0,unknown
911,1611470120096,26,-41,-9.0087890625e-06,40,43,87,959154,16756437,2765,32738,16769636,96759,24921,77280,Tag0,unknown
912,1611470120110,26,107,2.35107421875e-05,40,43,87,959154,16756437,2765,32738,16769636,96759,24921,77280,Tag0,unknown
913,1611470120130,26,-41,-9.0087890625e-06,40,43,87,959154,16756437,2765,32738,16769636,96759,24921,77280,Tag0,unknown
914,1611470120147,26,276,6.064453125e-05,40,43,87,959154,16756437,2765,32738,16769636,96759,24921,77280,Tag0,unknown
915,1611470120157,26,-54,-1.1865234375e-05,40,43,87,959154,16756437,2765,32738,16769636,96759,24921,77280,Tag0,unknown
916,1611470120168,26,-363,-7.97607421875e-05,40,43,87,959154,16756437,2765,32738,16769636,96759,24921,77280,Tag0,unknown
917,1611470120179,26,91,1.99951171875e-05,40,43,87,959154,16756437,2765,32738,16769636,96759,24921,77280,Tag0,unknown
918,1611470120201,26,148,3.251953125e-05,40,43,87,959154,16756437,2765,32738,16769636,96759,24921,77280,Tag0,unknown
919,1611470120214,26,257,5.64697265625e-05,40,43,87,959154,16756437,2765,32738,16769636,96759,24921,77280,Tag0,unknown
920,1611470120225,26,-230,-5.0537109375e-05,40,43,87,959154,16756437,2765,32738,16769636,96759,24921,77280,Tag0,unknown
921,1611470120239,26,321,7.053222656250001e-05,40,43,87,959154,16756437,2765,32738,16769636,96759,24921,77280,Tag0,unknown
922,1611470120259,26,301,6.613769531250001e-05,40,43,87,959154,16756437,2765,32738,16769636,96759,24921,77280,Tag0,unknown
923,1611470120278,26,71,1.56005859375e-05,40,43,87,959154,16756437,2765,32738,16769636,96759,24921,77280,Tag0,unknown
924,1611470120295,26,275,6.04248046875e-05,40,43,87,959154,16756437,2765,32738,16769636,96759,24921,77280,Tag0,unknown
925,1611470120305,26,-599,-0.0001316162109375,40,43,87,959154,16756437,2765,32738,16769636,96759,24921,77280,Tag0,unknown
926,1611470120315,26,-359,-7.88818359375e-05,40,43,87,959154,16756437,2765,32738,16769636,96759,24921,77280,Tag0,unknown
927,1611470120328,26,-169,-3.71337890625e-05,40,43,87,959154,16756437,2765,32738,16769636,96759,24921,77280,Tag0,unknown
928,1611470120346,26,85,1.86767578125e-05,40,43,87,959154,16756437,2765,32738,16769636,96759,24921,77280,Tag0,unknown
929,1611470120387,26,51,1.12060546875e-05,40,43,87,959154,16756437,2765,32738,16769636,96759,24921,77280,Tag0,unknown
930,1611470120397,26,280,6.15234375e-05,40,43,87,959154,16756437,2765,32738,16769636,96759,24921,77280,Tag0,unknown
931,1611470120411,26,231,5.07568359375e-05,40,43,87,959154,16756437,2765,32738,16769636,96759,24921,77280,Tag0,unknown
932,1611470120430,26,382,8.3935546875e-05,40,43,87,959154,16756437,2765,32738,16769636,96759,24921,77280,Tag0,unknown
933,1611470120446,26,-30,-6.591796875e-06,40,43,87,959154,16756437,2765,32738,16769636,96759,24921,77280,Tag0,unknown
934,1611470120476,26,-64,-1.40625e-05,40,43,87,959154,16756437,2765,32738,16769636,96759,24921,77280,Tag0,unknown
935,1611470120496,26,-87,-1.91162109375e-05,40,43,87,959154,16756437,2765,32738,16769636,96759,24921,77280,Tag0,unknown
936,1611470120506,26,160,3.515625e-05,40,43,87,959154,16756437,2765,32738,16769636,96759,24921,77280,Tag0,unknown
937,1611470120516,26,341,7.492675781250003e-05,40,43,87,959154,16756437,2765,32738,16769636,96759,24921,77280,Tag0,unknown
938,1611470120535,26,295,6.48193359375e-05,40,43,87,959154,16756437,2765,32738,16769636,96759,24921,77280,Tag0,unknown
939,1611470120545,26,-7,-1.5380859375e-06,40,43,87,959154,16756437,2765,32738,16769636,96759,24921,77280,Tag0,unknown
940,1611470120571,26,99,2.1752929687500006e-05,40,43,87,959154,16756437,2765,32738,16769636,96759,24921,77280,Tag0,unknown
941,1611470120581,26,-73,-1.6040039062500002e-05,40,43,87,959154,16756437,2765,32738,16769636,96759,24921,77280,Tag0,unknown
942,1611470120594,26,-57,-1.25244140625e-05,40,43,70,959154,16756437,2765,32738,16769636,96759,24921,77280,Tag0,unknown
943,1611470120610,26,-121,-2.6586914062500006e-05,40,43,70,959154,16756437,2765,32738,16769636,96759,24921,77280,Tag0,unknown
944,1611470120627,26,-57,-1.25244140625e-05,40,43,70,959154,16756437,2765,32738,16769636,96759,24921,77280,Tag0,unknown
945,1611470120646,26,307,6.74560546875e-05,40,43,70,959154,16756437,2765,32738,16769636,96759,24921,77280,Tag0,unknown
946,1611470120663,26,275,6.04248046875e-05,40,43,70,959154,16756437,2765,32738,16769636,96759,24921,77280,Tag0,unknown
947,1611470120673,26,-29,-6.3720703125e-06,40,43,70,959154,16756437,2765,32738,16769636,96759,24921,77280,Tag0,unknown
948,1611470120685,26,-68,-1.494140625e-05,40,43,70,959154,16756437,2765,32738,16769636,96759,24921,77280,Tag0,unknown
949,1611470120695,26,-115,-2.52685546875e-05,40,43,70,959154,16756437,2765,32738,16769636,96759,24921,77280,Tag0,unknown
950,1611470120714,26,-128,-2.8125e-05,40,43,70,959154,16756437,2765,32738,16769636,96759,24921,77280,Tag0,unknown
951,1611470120729,26,125,2.74658203125e-05,40,43,70,959154,16756437,2765,32738,16769636,96759,24921,77280,Tag0,unknown
952,1611470120739,26,93,2.04345703125e-05,40,43,70,959154,16756437,2765,32738,16769636,96759,24921,77280,Tag0,unknown
953,1611470120753,26,89,1.95556640625e-05,40,43,70,959154,16756437,2765,32738,16769636,96759,24921,77280,Tag0,unknown
954,1611470120763,26,87,1.91162109375e-05,40,43,70,959154,16756437,2765,32738,16769636,96759,24921,77280,Tag0,unknown
955,1611470120786,26,81,1.77978515625e-05,40,43,70,959154,16756437,2765,32738,16769636,96759,24921,77280,Tag0,unknown
956,1611470120796,26,82,1.8017578125e-05,40,43,70,959154,16756437,2765,32738,16769636,96759,24921,77280,Tag0,unknown
957,1611470120806,26,74,1.6259765625e-05,40,43,70,959154,16756437,2765,32738,16769636,96759,24921,77280,Tag0,unknown
958,1611470120818,26,73,1.6040039062500002e-05,40,43,70,959154,16756437,2765,32738,16769636,96759,24921,77280,Tag0,unknown
959,1611470120831,26,71,1.56005859375e-05,40,43,70,959154,16756437,2765,32738,16769636,96759,24921,77280,Tag0,unknown
960,1611470120846,26,69,1.51611328125e-05,40,43,70,959154,16756437,2765,32738,16769636,96759,24921,77280,Tag0,unknown
961,1611470120863,26,69,1.51611328125e-05,40,43,70,959154,16756437,2765,32738,16769636,96759,24921,77280,Tag0,unknown
962,1611470120880,26,69,1.51611328125e-05,40,43,70,959154,16756437,2765,32738,16769636,96759,24921,77280,Tag0,unknown
963,1611470120890,26,67,1.4721679687500003e-05,40,43,70,959154,16756437,2765,32738,16769636,96759,24921,77280,Tag0,unknown
964,1611470120901,26,67,1.4721679687500003e-05,40,43,70,959154,16756437,2765,32738,16769636,96759,24921,77280,Tag0,unknown
965,1611470120911,26,67,1.4721679687500003e-05,40,43,70,959154,16756437,2765,32738,16769636,96759,24921,77280,Tag0,unknown
966,1611470120935,26,67,1.4721679687500003e-05,40,43,70,959154,16756437,2765,32738,16769636,96759,24921,77280,Tag0,unknown
967,1611470120945,26,68,1.494140625e-05,40,43,70,959154,16756437,2765,32738,16769636,96759,24921,77280,Tag0,unknown
968,1611470120971,26,66,1.4501953125e-05,40,43,70,959154,16756437,2765,32738,16769636,96759,24921,77280,Tag0,unknown
969,1611470120983,26,68,1.494140625e-05,40,43,70,959154,16756437,2765,32738,16769636,96759,24921,77280,Tag0,unknown
970,1611470120995,26,66,1.4501953125e-05,40,43,70,959154,16756437,2765,32738,16769636,96759,24921,77280,Tag0,unknown
971,1611470121007,26,65,1.42822265625e-05,40,43,70,959154,16756437,2765,32738,16769636,96759,24921,77280,Tag0,unknown
972,1611470121017,26,66,1.4501953125e-05,40,43,70,959154,16756437,2765,32738,16769636,96759,24921,77280,Tag0,unknown
973,1611470121035,25,66,1.4501953125e-05,40,43,70,2336621,210583,55181,16750166,16750950,16762020,19193,15193,Tag0,unknown
974,1611470121045,25,65,1.42822265625e-05,40,43,70,2336621,210583,55181,16750166,16750950,16762020,19193,15193,Tag0,unknown
975,1611470121055,25,67,1.4721679687500003e-05,40,43,70,2336621,210583,55181,16750166,16750950,16762020,19193,15193,Tag0,unknown
976,1611470121082,25,70,1.5380859375e-05,40,43,70,2336621,210583,55181,16750166,16750950,16762020,19193,15193,Tag0,unknown
977,1611470121094,25,69,1.51611328125e-05,40,43,70,2336621,210583,55181,16750166,16750950,16762020,19193,15193,Tag0,unknown
978,1611470121118,25,-2048,-0.00045,40,43,70,2336621,210583,55181,16750166,16750950,16762020,19193,15193,Tag0,unknown
979,1611470121130,25,-2048,-0.00045,40,43,70,2336621,210583,55181,16750166,16750950,16762020,19193,15193,Tag0,unknown
980,1611470121140,25,-2048,-0.00045,40,43,70,2336621,210583,55181,16750166,16750950,16762020,19193,15193,Tag0,unknown
981,1611470121150,25,-2048,-0.00045,40,43,70,2336621,210583,55181,16750166,16750950,16762020,19193,15193,Tag0,unknown
982,1611470121166,25,-1755,-0.0003856201171875,40,43,70,2336621,210583,55181,16750166,16750950,16762020,19193,15193,Tag0,unknown
983,1611470121182,25,-1354,-0.00029750976562500003,40,43,70,2336621,210583,55181,16750166,16750950,16762020,19193,15193,Tag0,unknown
984,1611470121201,25,-1313,-0.0002885009765625,40,43,70,2336621,210583,55181,16750166,16750950,16762020,19193,15193,Tag0,unknown
985,1611470121212,25,-650,-0.000142822265625,40,43,70,2336621,210583,55181,16750166,16750950,16762020,19193,15193,Tag0,unknown
986,1611470121222,25,-507,-0.0001114013671875,40,43,70,2336621,210583,55181,16750166,16750950,16762020,19193,15193,Tag0,unknown
987,1611470121234,25,-631,-0.0001386474609375,40,43,70,2336621,210583,55181,16750166,16750950,16762020,19193,15193,Tag0,unknown
988,1611470121263,25,-215,-4.72412109375e-05,40,43,70,2336621,210583,55181,16750166,16750950,16762020,19193,15193,Tag0,unknown
989,1611470121278,25,-204,-4.482421875e-05,40,43,70,2336621,210583,55181,16750166,16750950,16762020,19193,15193,Tag0,unknown
990,1611470121311,25,-361,-7.93212890625e-05,40,43,70,2336621,210583,55181,16750166,16750950,16762020,19193,15193,Tag0,unknown
991,1611470121334,25,-357,-7.844238281250001e-05,40,43,70,2336621,210583,55181,16750166,16750950,16762020,19193,15193,Tag0,unknown
992,1611470121344,25,-297,-6.525878906250001e-05,40,43,70,2336621,210583,55181,16750166,16750950,16762020,19193,15193,Tag0,unknown
993,1611470121354,25,18,3.955078125e-06,40,43,70,2336621,210583,55181,16750166,16750950,16762020,19193,15193,Tag0,unknown
994,1611470121371,25,23,5.0537109375e-06,40,43,70,2336621,210583,55181,16750166,16750950,16762020,19193,15193,Tag0,unknown
995,1611470121381,25,25,5.4931640625e-06,40,43,70,2336621,210583,55181,16750166,16750950,16762020,19193,15193,Tag0,unknown
996,1611470121396,25,44,9.66796875e-06,40,43,70,2336621,210583,55181,16750166,16750950,16762020,19193,15193,Tag0,unknown
997,1611470121429,25,49,1.07666015625e-05,40,43,70,2336621,210583,55181,16750166,16750950,16762020,19193,15193,Tag0,unknown
998,1611470121446,25,49,1.07666015625e-05,40,43,70,2336621,210583,55181,16750166,16750950,16762020,19193,15193,Tag0,unknown
999,1611470121456,25,56,1.23046875e-05,40,43,70,2336621,210583,55181,16750166,16750950,16762020,19193,15193,Tag0,unknown
1000,1611470121471,25,61,1.34033203125e-05,40,43,70,2336621,210583,55181,16750166,16750950,16762020,19193,15193,Tag0,unknown
1001,1611470121481,25,65,1.42822265625e-05,40,43,70,2336621,210583,55181,16750166,16750950,16762020,19193,15193,Tag0,unknown
1002,1611470121505,25,65,1.42822265625e-05,40,43,70,2336621,210583,55181,16750166,16750950,16762020,19193,15193,Tag0,unknown
1003,1611470121515,25,65,1.42822265625e-05,40,43,70,2336621,210583,55181,16750166,16750950,16762020,19193,15193,Tag0,unknown
1004,1611470121529,25,65,1.42822265625e-05,40,43,70,2336621,210583,55181,16750166,16750950,16762020,19193,15193,Tag0,unknown
1005,1611470121546,25,67,1.4721679687500003e-05,40,43,70,2336621,210583,55181,16750166,16750950,16762020,19193,15193,Tag0,unknown
1006,1611470121563,25,67,1.4721679687500003e-05,40,43,70,2336621,210583,55181,16750166,16750950,16762020,19193,15193,Tag0,unknown
1007,1611470121573,25,67,1.4721679687500003e-05,40,43,70,2336621,210583,55181,16750166,16750950,16762020,19193,15193,Tag0,unknown
1008,1611470121583,25,67,1.4721679687500003e-05,40,43,70,2336621,210583,55181,16750166,16750950,16762020,19193,15193,Tag0,unknown
1009,1611470121598,25,68,1.494140625e-05,40,43,70,2336621,210583,55181,16750166,16750950,16762020,19193,15193,Tag0,unknown
1010,1611470121614,25,67,1.4721679687500003e-05,40,43,70,2336621,210583,55181,16750166,16750950,16762020,19193,15193,Tag0,unknown
1011,1611470121632,25,69,1.51611328125e-05,40,43,70,2336621,210583,55181,16750166,16750950,16762020,19193,15193,Tag0,unknown
1012,1611470121648,25,72,1.58203125e-05,40,43,70,2336621,210583,55181,16750166,16750950,16762020,19193,15193,Tag0,unknown
1013,1611470121658,25,70,1.5380859375e-05,40,43,70,2336621,210583,55181,16750166,16750950,16762020,19193,15193,Tag0,unknown
1014,1611470121681,25,72,1.58203125e-05,40,43,70,2336621,210583,55181,16750166,16750950,16762020,19193,15193,Tag0,unknown
1015,1611470121716,25,84,1.8457031250000007e-05,40,43,70,2336621,210583,55181,16750166,16750950,16762020,19193,15193,Tag0,unknown
1016,1611470121731,25,77,1.69189453125e-05,40,43,70,2336621,210583,55181,16750166,16750950,16762020,19193,15193,Tag0,unknown
1017,1611470121741,25,83,1.82373046875e-05,40,43,70,2336621,210583,55181,16750166,16750950,16762020,19193,15193,Tag0,unknown
1018,1611470121776,25,-94,-2.0654296875e-05,40,43,70,2336621,210583,55181,16750166,16750950,16762020,19193,15193,Tag0,unknown
