,timestampMs,poorSignal,eegRawValue,eegRawValueVolts,attention,meditation,blinkStrength,delta,theta,alphaLow,alphaHigh,betaLow,betaHigh,gammaLow,gammaMid,tagEvent,location
0,1611473063085,51,314,6.8994140625e-05,69,13,101,16768803,117146,35915,16747770,12633,169579,42435,8757,Tag0,unknown
1,1611473063099,51,377,8.28369140625e-05,69,13,101,16768803,117146,35915,16747770,12633,169579,42435,8757,Tag0,unknown
2,1611473063143,51,-948,-0.00020830078125,69,13,101,16768803,117146,35915,16747770,12633,169579,42435,8757,Tag0,unknown
3,1611473063166,51,388,8.525390625e-05,69,13,101,16768803,117146,35915,16747770,12633,169579,42435,8757,Tag0,unknown
4,1611473063216,51,743,0.00016325683593750002,69,13,101,16768803,117146,35915,16747770,12633,169579,42435,8757,Tag0,unknown
5,1611473063233,51,711,0.0001562255859375,69,13,101,16768803,117146,35915,16747770,12633,169579,42435,8757,Tag0,unknown
6,1611473063275,51,178,3.9111328125e-05,69,13,101,16768803,117146,35915,16747770,12633,169579,42435,8757,Tag0,unknown
7,1611473063285,51,317,6.96533203125e-05,69,13,101,16768803,117146,35915,16747770,12633,169579,42435,8757,Tag0,unknown
8,1611473063313,26,-85,-1.86767578125e-05,69,13,101,818676,210736,41331,41733,99164,55940,209505,28337,Tag0,unknown
9,1611473063333,26,-126,-2.7685546875e-05,69,13,101,818676,210736,41331,41733,99164,55940,209505,28337,Tag0,unknown
10,1611473063352,26,105,2.30712890625e-05,69,13,101,818676,210736,41331,41733,99164,55940,209505,28337,Tag0,unknown
11,1611473063367,26,104,2.28515625e-05,69,13,101,818676,210736,41331,41733,99164,55940,209505,28337,Tag0,unknown
12,1611473063386,26,89,1.95556640625e-05,69,13,101,818676,210736,41331,41733,99164,55940,209505,28337,Tag0,unknown
13,1611473063400,26,89,1.95556640625e-05,69,13,101,818676,210736,41331,41733,99164,55940,209505,28337,Tag0,unknown
14,1611473063425,26,73,1.6040039062500002e-05,69,13,101,818676,210736,41331,41733,99164,55940,209505,28337,Tag0,unknown
15,1611473063435,26,71,1.56005859375e-05,69,13,101,818676,210736,41331,41733,99164,55940,209505,28337,Tag0,unknown
16,1611473063461,26,69,1.51611328125e-05,69,13,101,818676,210736,41331,41733,99164,55940,209505,28337,Tag0,unknown
17,1611473063498,26,-2048,-0.00045,69,13,101,818676,210736,41331,41733,99164,55940,209505,28337,Tag0,unknown
18,1611473063517,26,-1857,-0.0004080322265625,69,13,101,818676,210736,41331,41733,99164,55940,209505,28337,Tag0,unknown
19,1611473063534,26,-1797,-0.0003948486328125,69,13,101,818676,210736,41331,41733,99164,55940,209505,28337,Tag0,unknown
20,1611473063550,26,-1000,-0.0002197265625,69,13,101,818676,210736,41331,41733,99164,55940,209505,28337,Tag0,unknown
21,1611473063570,26,-823,-0.0001808349609375,69,13,101,818676,210736,41331,41733,99164,55940,209505,28337,Tag0,unknown
22,1611473063584,26,-801,-0.0001760009765625,69,13,101,818676,210736,41331,41733,99164,55940,209505,28337,Tag0,unknown
23,1611473063604,26,-595,-0.0001307373046875,69,13,101,818676,210736,41331,41733,99164,55940,209505,28337,Tag0,unknown
24,1611473063617,26,-580,-0.00012744140625,69,13,101,818676,210736,41331,41733,99164,55940,209505,28337,Tag0,unknown
25,1611473063641,26,-183,-4.02099609375e-05,69,13,101,818676,210736,41331,41733,99164,55940,209505,28337,Tag0,unknown
26,1611473063651,26,-381,-8.371582031250001e-05,69,13,101,818676,210736,41331,41733,99164,55940,209505,28337,Tag0,unknown
27,1611473063661,26,-343,-7.53662109375e-05,69,13,101,818676,210736,41331,41733,99164,55940,209505,28337,Tag0,unknown
28,1611473063671,26,-292,-6.416015625000001e-05,69,13,101,818676,210736,41331,41733,99164,55940,209505,28337,Tag0,unknown
29,1611473063681,26,-267,-5.86669921875e-05,69,13,101,818676,210736,41331,41733,99164,55940,209505,28337,Tag0,unknown
30,1611473063703,26,2,4.39453125e-07,69,13,101,818676,210736,41331,41733,99164,55940,209505,28337,Tag0,unknown
31,1611473063720,26,5,1.0986328125e-06,69,13,101,818676,210736,41331,41733,99164,55940,209505,28337,Tag0,unknown
32,1611473063730,26,27,5.932617187500001e-06,69,13,101,818676,210736,41331,41733,99164,55940,209505,28337,Tag0,unknown
33,1611473063744,26,39,8.5693359375e-06,69,13,101,818676,210736,41331,41733,99164,55940,209505,28337,Tag0,unknown
34,1611473063754,26,42,9.228515625000003e-06,69,13,101,818676,210736,41331,41733,99164,55940,209505,28337,Tag0,unknown
35,1611473063778,26,49,1.07666015625e-05,69,13,101,818676,210736,41331,41733,99164,55940,209505,28337,Tag0,unknown
36,1611473063788,26,52,1.142578125e-05,69,13,101,818676,210736,41331,41733,99164,55940,209505,28337,Tag0,unknown
37,1611473063802,26,57,1.25244140625e-05,69,13,101,818676,210736,41331,41733,99164,55940,209505,28337,Tag0,unknown
38,1611473063819,26,57,1.25244140625e-05,69,13,101,818676,210736,41331,41733,99164,55940,209505,28337,Tag0,unknown
39,1611473063842,26,59,1.29638671875e-05,69,13,101,818676,210736,41331,41733,99164,55940,209505,28337,Tag0,unknown
40,1611473063852,26,64,1.40625e-05,69,13,101,818676,210736,41331,41733,99164,55940,209505,28337,Tag0,unknown
41,1611473063868,26,61,1.34033203125e-05,69,13,101,818676,210736,41331,41733,99164,55940,209505,28337,Tag0,unknown
42,1611473063886,26,61,1.34033203125e-05,69,13,101,818676,210736,41331,41733,99164,55940,209505,28337,Tag0,unknown
43,1611473063912,26,65,1.42822265625e-05,69,13,101,818676,210736,41331,41733,99164,55940,209505,28337,Tag0,unknown
44,1611473063922,26,65,1.42822265625e-05,69,13,101,818676,210736,41331,41733,99164,55940,209505,28337,Tag0,unknown
45,1611473063946,26,65,1.42822265625e-05,69,13,101,818676,210736,41331,41733,99164,55940,209505,28337,Tag0,unknown
46,1611473063956,26,65,1.42822265625e-05,69,13,101,818676,210736,41331,41733,99164,55940,209505,28337,Tag0,unknown
47,1611473063972,26,68,1.494140625e-05,69,13,101,818676,210736,41331,41733,99164,55940,209505,28337,Tag0,unknown
48,1611473063989,26,65,1.42822265625e-05,69,13,101,818676,210736,41331,41733,99164,55940,209505,28337,Tag0,unknown
49,1611473064005,26,65,1.42822265625e-05,69,13,101,818676,210736,41331,41733,99164,55940,209505,28337,Tag0,unknown
50,1611473064021,26,65,1.42822265625e-05,69,13,101,818676,210736,41331,41733,99164,55940,209505,28337,Tag0,unknown
51,1611473064038,26,66,1.4501953125e-05,69,13,101,818676,210736,41331,41733,99164,55940,209505,28337,Tag0,unknown
52,1611473064058,26,65,1.42822265625e-05,69,13,101,818676,210736,41331,41733,99164,55940,209505,28337,Tag0,unknown
53,1611473064073,26,65,1.42822265625e-05,69,13,101,818676,210736,41331,41733,99164,55940,209505,28337,Tag0,unknown
54,1611473064086,26,65,1.42822265625e-05,69,13,101,818676,210736,41331,41733,99164,55940,209505,28337,Tag0,unknown
55,1611473064112,26,67,1.4721679687500003e-05,69,13,101,818676,210736,41331,41733,99164,55940,209505,28337,Tag0,unknown
56,1611473064122,26,65,1.42822265625e-05,69,13,101,818676,210736,41331,41733,99164,55940,209505,28337,Tag0,unknown
57,1611473064137,26,65,1.42822265625e-05,69,13,101,818676,210736,41331,41733,99164,55940,209505,28337,Tag0,unknown
58,1611473064271,26,66,1.4501953125e-05,69,13,101,818676,210736,41331,41733,99164,55940,209505,28337,Tag0,unknown
59,1611473064294,26,66,1.4501953125e-05,69,13,101,818676,210736,41331,41733,99164,55940,209505,28337,Tag0,unknown
60,1611473064304,26,65,1.42822265625e-05,69,13,101,818676,210736,41331,41733,99164,55940,209505,28337,Tag0,unknown
61,1611473064314,26,65,1.42822265625e-05,69,13,101,818676,210736,41331,41733,99164,55940,209505,28337,Tag0,unknown
62,1611473064324,26,65,1.42822265625e-05,69,13,101,818676,210736,41331,41733,99164,55940,209505,28337,Tag0,unknown
63,1611473064334,26,67,1.4721679687500003e-05,69,13,101,818676,210736,41331,41733,99164,55940,209505,28337,Tag0,unknown
64,1611473064344,26,65,1.42822265625e-05,69,13,101,818676,210736,41331,41733,99164,55940,209505,28337,Tag0,unknown
65,1611473064354,25,65,1.42822265625e-05,69,13,101,106293,4562,5474,7762,1777,1436,163,582,Tag0,unknown
66,1611473064364,25,65,1.42822265625e-05,69,13,101,106293,4562,5474,7762,1777,1436,163,582,Tag0,unknown
67,1611473064399,25,65,1.42822265625e-05,69,13,101,106293,4562,5474,7762,1777,1436,163,582,Tag0,unknown
68,1611473064421,25,65,1.42822265625e-05,69,13,101,106293,4562,5474,7762,1777,1436,163,582,Tag0,unknown
69,1611473064432,25,66,1.4501953125e-05,69,13,101,106293,4562,5474,7762,1777,1436,163,582,Tag0,unknown
70,1611473064442,25,65,1.42822265625e-05,69,13,101,106293,4562,5474,7762,1777,1436,163,582,Tag0,unknown
71,1611473064452,25,65,1.42822265625e-05,69,13,101,106293,4562,5474,7762,1777,1436,163,582,Tag0,unknown
72,1611473064482,25,65,1.42822265625e-05,69,13,101,106293,4562,5474,7762,1777,1436,163,582,Tag0,unknown
73,1611473064492,25,65,1.42822265625e-05,69,13,101,106293,4562,5474,7762,1777,1436,163,582,Tag0,unknown
74,1611473064507,25,65,1.42822265625e-05,69,13,101,106293,4562,5474,7762,1777,1436,163,582,Tag0,unknown
75,1611473064521,25,269,5.91064453125e-05,69,13,101,106293,4562,5474,7762,1777,1436,163,582,Tag0,unknown
76,1611473064544,25,1791,0.0003935302734375,69,13,101,106293,4562,5474,7762,1777,1436,163,582,Tag0,unknown
77,1611473064554,25,1791,0.0003935302734375,69,13,101,106293,4562,5474,7762,1777,1436,163,582,Tag0,unknown
78,1611473064590,25,1017,0.00022346191406250005,69,13,101,106293,4562,5474,7762,1777,1436,163,582,Tag0,unknown
79,1611473064606,25,972,0.00021357421875,69,13,101,106293,4562,5474,7762,1777,1436,163,582,Tag0,unknown
80,1611473064616,25,499,0.0001096435546875,69,13,101,106293,4562,5474,7762,1777,1436,163,582,Tag0,unknown
81,1611473064638,25,539,0.0001184326171875,69,13,101,106293,4562,5474,7762,1777,1436,163,582,Tag0,unknown
82,1611473064655,25,173,3.80126953125e-05,69,13,101,106293,4562,5474,7762,1777,1436,163,582,Tag0,unknown
83,1611473064674,25,357,7.844238281250001e-05,69,13,101,106293,4562,5474,7762,1777,1436,163,582,Tag0,unknown
84,1611473064690,25,297,6.525878906250001e-05,69,13,101,106293,4562,5474,7762,1777,1436,163,582,Tag0,unknown
85,1611473064700,25,-63,-1.38427734375e-05,69,13,101,106293,4562,5474,7762,1777,1436,163,582,Tag0,unknown
86,1611473064725,25,-87,-1.91162109375e-05,69,13,101,106293,4562,5474,7762,1777,1436,163,582,Tag0,unknown
87,1611473064739,25,-119,-2.6147460937500007e-05,69,13,101,106293,4562,5474,7762,1777,1436,163,582,Tag0,unknown
88,1611473064756,25,-123,-2.70263671875e-05,69,13,101,106293,4562,5474,7762,1777,1436,163,582,Tag0,unknown
89,1611473064766,25,100,2.197265625e-05,69,13,101,106293,4562,5474,7762,1777,1436,163,582,Tag0,unknown
90,1611473064779,25,91,1.99951171875e-05,69,13,101,106293,4562,5474,7762,1777,1436,163,582,Tag0,unknown
91,1611473064789,25,89,1.95556640625e-05,69,13,101,106293,4562,5474,7762,1777,1436,163,582,Tag0,unknown
92,1611473064837,25,81,1.77978515625e-05,69,13,101,106293,4562,5474,7762,1777,1436,163,582,Tag0,unknown
93,1611473064855,25,81,1.77978515625e-05,69,13,101,106293,4562,5474,7762,1777,1436,163,582,Tag0,unknown
94,1611473064865,25,73,1.6040039062500002e-05,69,13,101,106293,4562,5474,7762,1777,1436,163,582,Tag0,unknown
95,1611473064875,25,68,1.494140625e-05,69,13,101,106293,4562,5474,7762,1777,1436,163,582,Tag0,unknown
96,1611473064909,25,67,1.4721679687500003e-05,69,13,101,106293,4562,5474,7762,1777,1436,163,582,Tag0,unknown
97,1611473064921,25,67,1.4721679687500003e-05,69,13,101,106293,4562,5474,7762,1777,1436,163,582,Tag0,unknown
98,1611473064939,25,66,1.4501953125e-05,69,13,101,106293,4562,5474,7762,1777,1436,163,582,Tag0,unknown
99,1611473064962,25,65,1.42822265625e-05,69,13,101,106293,4562,5474,7762,1777,1436,163,582,Tag0,unknown
100,1611473064973,25,65,1.42822265625e-05,69,13,101,106293,4562,5474,7762,1777,1436,163,582,Tag0,unknown
101,1611473064989,25,65,1.42822265625e-05,69,13,101,106293,4562,5474,7762,1777,1436,163,582,Tag0,unknown
102,1611473064999,25,65,1.42822265625e-05,69,13,101,106293,4562,5474,7762,1777,1436,163,582,Tag0,unknown
103,1611473065019,25,64,1.40625e-05,69,13,101,106293,4562,5474,7762,1777,1436,163,582,Tag0,unknown
104,1611473065037,25,65,1.42822265625e-05,69,13,101,106293,4562,5474,7762,1777,1436,163,582,Tag0,unknown
105,1611473065055,25,64,1.40625e-05,69,13,101,106293,4562,5474,7762,1777,1436,163,582,Tag0,unknown
106,1611473065071,25,65,1.42822265625e-05,69,13,101,106293,4562,5474,7762,1777,1436,163,582,Tag0,unknown
107,1611473065088,25,64,1.40625e-05,69,13,101,106293,4562,5474,7762,1777,1436,163,582,Tag0,unknown
108,1611473065108,25,65,1.42822265625e-05,69,13,101,106293,4562,5474,7762,1777,1436,163,582,Tag0,unknown
109,1611473065128,25,64,1.40625e-05,69,13,101,106293,4562,5474,7762,1777,1436,163,582,Tag0,unknown
110,1611473065141,25,64,1.40625e-05,69,13,101,106293,4562,5474,7762,1777,1436,163,582,Tag0,unknown
111,1611473065151,25,65,1.42822265625e-05,69,13,101,106293,4562,5474,7762,1777,1436,163,582,Tag0,unknown
112,1611473065161,25,64,1.40625e-05,69,13,101,106293,4562,5474,7762,1777,1436,163,582,Tag0,unknown
113,1611473065174,25,64,1.40625e-05,69,13,101,106293,4562,5474,7762,1777,1436,163,582,Tag0,unknown
114,1611473065191,25,65,1.42822265625e-05,69,13,101,106293,4562,5474,7762,1777,1436,163,582,Tag0,unknown
115,1611473065215,25,65,1.42822265625e-05,69,13,101,106293,4562,5474,7762,1777,1436,163,582,Tag0,unknown
116,1611473065225,25,64,1.40625e-05,69,13,101,106293,4562,5474,7762,1777,1436,163,582,Tag0,unknown
117,1611473065235,25,65,1.42822265625e-05,69,13,101,106293,4562,5474,7762,1777,1436,163,582,Tag0,unknown
118,1611473065245,25,64,1.40625e-05,69,13,101,106293,4562,5474,7762,1777,1436,163,582,Tag0,unknown
119,1611473065257,25,23,5.0537109375e-06,69,13,101,253407,24329,10249,5214,3796,4282,1546,150,Tag0,unknown
120,1611473065279,25,23,5.0537109375e-06,69,13,101,253407,24329,10249,5214,3796,4282,1546,150,Tag0,unknown
121,1611473065289,25,23,5.0537109375e-06,69,13,101,253407,24329,10249,5214,3796,4282,1546,150,Tag0,unknown
122,1611473065315,25,23,5.0537109375e-06,69,13,101,253407,24329,10249,5214,3796,4282,1546,150,Tag0,unknown
123,1611473065328,25,23,5.0537109375e-06,69,13,101,253407,24329,10249,5214,3796,4282,1546,150,Tag0,unknown
124,1611473065338,25,1791,0.0003935302734375,69,13,101,253407,24329,10249,5214,3796,4282,1546,150,Tag0,unknown
125,1611473065348,25,1718,0.000377490234375,69,13,101,253407,24329,10249,5214,3796,4282,1546,150,Tag0,unknown
126,1611473065363,25,1178,0.000258837890625,69,13,101,253407,24329,10249,5214,3796,4282,1546,150,Tag0,unknown
127,1611473065388,25,684,0.00015029296875,69,13,101,253407,24329,10249,5214,3796,4282,1546,150,Tag0,unknown
128,1611473065410,25,651,0.0001430419921875,69,13,101,253407,24329,10249,5214,3796,4282,1546,150,Tag0,unknown
129,1611473065420,25,411,9.03076171875e-05,69,13,101,253407,24329,10249,5214,3796,4282,1546,150,Tag0,unknown
130,1611473065432,25,530,0.000116455078125,69,13,101,253407,24329,10249,5214,3796,4282,1546,150,Tag0,unknown
131,1611473065445,25,152,3.33984375e-05,69,13,101,253407,24329,10249,5214,3796,4282,1546,150,Tag0,unknown
132,1611473065458,25,328,7.207031249999999e-05,69,13,101,253407,24329,10249,5214,3796,4282,1546,150,Tag0,unknown
133,1611473065476,25,-57,-1.25244140625e-05,69,13,101,253407,24329,10249,5214,3796,4282,1546,150,Tag0,unknown
134,1611473065489,25,-61,-1.34033203125e-05,69,13,101,253407,24329,10249,5214,3796,4282,1546,150,Tag0,unknown
135,1611473065511,25,-109,-2.39501953125e-05,69,13,101,253407,24329,10249,5214,3796,4282,1546,150,Tag0,unknown
136,1611473065527,25,-111,-2.43896484375e-05,69,13,101,253407,24329,10249,5214,3796,4282,1546,150,Tag0,unknown
137,1611473065537,25,117,2.57080078125e-05,69,13,101,253407,24329,10249,5214,3796,4282,1546,150,Tag0,unknown
138,1611473065547,25,106,2.3291015625000006e-05,69,13,101,253407,24329,10249,5214,3796,4282,1546,150,Tag0,unknown
139,1611473065559,25,97,2.13134765625e-05,69,13,101,253407,24329,10249,5214,3796,4282,1546,150,Tag0,unknown
140,1611473065580,25,84,1.8457031250000007e-05,69,13,101,253407,24329,10249,5214,3796,4282,1546,150,Tag0,unknown
141,1611473065592,25,84,1.8457031250000007e-05,69,13,101,253407,24329,10249,5214,3796,4282,1546,150,Tag0,unknown
142,1611473065608,25,74,1.6259765625e-05,69,13,101,253407,24329,10249,5214,3796,4282,1546,150,Tag0,unknown
143,1611473065623,25,71,1.56005859375e-05,69,13,101,253407,24329,10249,5214,3796,4282,1546,150,Tag0,unknown
144,1611473065639,25,70,1.5380859375e-05,69,13,101,253407,24329,10249,5214,3796,4282,1546,150,Tag0,unknown
145,1611473065657,25,68,1.494140625e-05,69,13,101,253407,24329,10249,5214,3796,4282,1546,150,Tag0,unknown
146,1611473065674,25,68,1.494140625e-05,69,13,101,253407,24329,10249,5214,3796,4282,1546,150,Tag0,unknown
147,1611473065684,25,66,1.4501953125e-05,69,13,101,253407,24329,10249,5214,3796,4282,1546,150,Tag0,unknown
148,1611473065694,25,67,1.4721679687500003e-05,69,13,101,253407,24329,10249,5214,3796,4282,1546,150,Tag0,unknown
149,1611473065708,25,65,1.42822265625e-05,69,13,101,253407,24329,10249,5214,3796,4282,1546,150,Tag0,unknown
150,1611473065727,25,66,1.4501953125e-05,69,13,101,253407,24329,10249,5214,3796,4282,1546,150,Tag0,unknown
151,1611473065742,25,65,1.42822265625e-05,69,13,101,253407,24329,10249,5214,3796,4282,1546,150,Tag0,unknown
152,1611473065752,25,65,1.42822265625e-05,69,13,101,253407,24329,10249,5214,3796,4282,1546,150,Tag0,unknown
153,1611473065768,25,64,1.40625e-05,69,13,101,253407,24329,10249,5214,3796,4282,1546,150,Tag0,unknown
154,1611473065778,25,64,1.40625e-05,69,13,101,253407,24329,10249,5214,3796,4282,1546,150,Tag0,unknown
155,1611473065802,25,65,1.42822265625e-05,69,13,101,253407,24329,10249,5214,3796,4282,1546,150,Tag0,unknown
156,1611473065812,25,65,1.42822265625e-05,69,13,101,253407,24329,10249,5214,3796,4282,1546,150,Tag0,unknown
157,1611473065827,25,64,1.40625e-05,69,13,101,253407,24329,10249,5214,3796,4282,1546,150,Tag0,unknown
158,1611473065842,25,65,1.42822265625e-05,69,13,101,253407,24329,10249,5214,3796,4282,1546,150,Tag0,unknown
159,1611473065857,25,65,1.42822265625e-05,69,13,101,253407,24329,10249,5214,3796,4282,1546,150,Tag0,unknown
160,1611473065876,25,65,1.42822265625e-05,69,13,101,253407,24329,10249,5214,3796,4282,1546,150,Tag0,unknown
161,1611473065891,25,65,1.42822265625e-05,69,13,101,253407,24329,10249,5214,3796,4282,1546,150,Tag0,unknown
162,1611473065901,25,64,1.40625e-05,69,13,101,253407,24329,10249,5214,3796,4282,1546,150,Tag0,unknown
163,1611473065913,25,61,1.34033203125e-05,69,13,101,253407,24329,10249,5214,3796,4282,1546,150,Tag0,unknown
164,1611473065926,25,64,1.40625e-05,69,13,101,253407,24329,10249,5214,3796,4282,1546,150,Tag0,unknown
165,1611473065947,25,64,1.40625e-05,69,13,101,253407,24329,10249,5214,3796,4282,1546,150,Tag0,unknown
166,1611473065959,25,64,1.40625e-05,69,13,101,253407,24329,10249,5214,3796,4282,1546,150,Tag0,unknown
167,1611473065969,25,65,1.42822265625e-05,69,13,101,253407,24329,10249,5214,3796,4282,1546,150,Tag0,unknown
168,1611473065979,25,64,1.40625e-05,69,13,101,253407,24329,10249,5214,3796,4282,1546,150,Tag0,unknown
169,1611473065995,25,64,1.40625e-05,69,13,101,253407,24329,10249,5214,3796,4282,1546,150,Tag0,unknown
170,1611473066009,25,65,1.42822265625e-05,69,13,101,253407,24329,10249,5214,3796,4282,1546,150,Tag0,unknown
171,1611473066028,25,65,1.42822265625e-05,69,13,101,253407,24329,10249,5214,3796,4282,1546,150,Tag0,unknown
172,1611473066044,25,65,1.42822265625e-05,69,13,101,253407,24329,10249,5214,3796,4282,1546,150,Tag0,unknown
173,1611473066054,25,64,1.40625e-05,69,13,101,253407,24329,10249,5214,3796,4282,1546,150,Tag0,unknown
174,1611473066065,25,65,1.42822265625e-05,69,13,101,253407,24329,10249,5214,3796,4282,1546,150,Tag0,unknown
175,1611473066076,25,64,1.40625e-05,69,13,101,253407,24329,10249,5214,3796,4282,1546,150,Tag0,unknown
176,1611473066098,25,64,1.40625e-05,69,13,101,253407,24329,10249,5214,3796,4282,1546,150,Tag0,unknown
177,1611473066110,25,65,1.42822265625e-05,69,13,101,253407,24329,10249,5214,3796,4282,1546,150,Tag0,unknown
178,1611473066121,25,65,1.42822265625e-05,69,13,101,253407,24329,10249,5214,3796,4282,1546,150,Tag0,unknown
179,1611473066141,25,65,1.42822265625e-05,69,13,101,253407,24329,10249,5214,3796,4282,1546,150,Tag0,unknown
180,1611473066157,25,64,1.40625e-05,69,13,101,253407,24329,10249,5214,3796,4282,1546,150,Tag0,unknown
181,1611473066189,25,64,1.40625e-05,69,13,101,253407,24329,10249,5214,3796,4282,1546,150,Tag0,unknown
182,1611473066209,25,64,1.40625e-05,69,13,101,253407,24329,10249,5214,3796,4282,1546,150,Tag0,unknown
183,1611473066219,25,67,1.4721679687500003e-05,69,13,101,253407,24329,10249,5214,3796,4282,1546,150,Tag0,unknown
184,1611473066231,25,66,1.4501953125e-05,69,13,101,253407,24329,10249,5214,3796,4282,1546,150,Tag0,unknown
185,1611473066243,25,65,1.42822265625e-05,69,13,101,253407,24329,10249,5214,3796,4282,1546,150,Tag0,unknown
186,1611473066259,25,58,1.2744140625e-05,69,13,101,253407,24329,10249,5214,3796,4282,1546,150,Tag0,unknown
187,1611473066280,25,65,1.42822265625e-05,69,13,101,902318,682304,16756573,16754180,16773088,16756217,10365,1268,Tag0,unknown
188,1611473066292,25,71,1.56005859375e-05,69,13,101,902318,682304,16756573,16754180,16773088,16756217,10365,1268,Tag0,unknown
189,1611473066307,25,66,1.4501953125e-05,69,13,101,902318,682304,16756573,16754180,16773088,16756217,10365,1268,Tag0,unknown
190,1611473066323,25,65,1.42822265625e-05,69,13,101,902318,682304,16756573,16754180,16773088,16756217,10365,1268,Tag0,unknown
191,1611473066343,25,67,1.4721679687500003e-05,69,13,101,902318,682304,16756573,16754180,16773088,16756217,10365,1268,Tag0,unknown
192,1611473066359,25,67,1.4721679687500003e-05,69,13,101,902318,682304,16756573,16754180,16773088,16756217,10365,1268,Tag0,unknown
193,1611473066378,25,67,1.4721679687500003e-05,69,13,101,902318,682304,16756573,16754180,16773088,16756217,10365,1268,Tag0,unknown
194,1611473066398,25,67,1.4721679687500003e-05,69,13,101,902318,682304,16756573,16754180,16773088,16756217,10365,1268,Tag0,unknown
195,1611473066408,25,67,1.4721679687500003e-05,69,13,101,902318,682304,16756573,16754180,16773088,16756217,10365,1268,Tag0,unknown
196,1611473066419,25,66,1.4501953125e-05,69,13,101,902318,682304,16756573,16754180,16773088,16756217,10365,1268,Tag0,unknown
197,1611473066429,25,67,1.4721679687500003e-05,69,13,101,902318,682304,16756573,16754180,16773088,16756217,10365,1268,Tag0,unknown
198,1611473066439,25,65,1.42822265625e-05,69,13,101,902318,682304,16756573,16754180,16773088,16756217,10365,1268,Tag0,unknown
199,1611473066450,25,66,1.4501953125e-05,69,13,101,902318,682304,16756573,16754180,16773088,16756217,10365,1268,Tag0,unknown
200,1611473066463,25,65,1.42822265625e-05,69,13,101,902318,682304,16756573,16754180,16773088,16756217,10365,1268,Tag0,unknown
201,1611473066477,25,66,1.4501953125e-05,69,13,101,902318,682304,16756573,16754180,16773088,16756217,10365,1268,Tag0,unknown
202,1611473066496,25,67,1.4721679687500003e-05,69,13,101,902318,682304,16756573,16754180,16773088,16756217,10365,1268,Tag0,unknown
203,1611473066508,25,67,1.4721679687500003e-05,69,13,101,902318,682304,16756573,16754180,16773088,16756217,10365,1268,Tag0,unknown
204,1611473066527,25,36,7.91015625e-06,69,13,101,902318,682304,16756573,16754180,16773088,16756217,10365,1268,Tag0,unknown
205,1611473066546,25,27,5.932617187500001e-06,69,13,101,902318,682304,16756573,16754180,16773088,16756217,10365,1268,Tag0,unknown
206,1611473066562,25,1,2.197265625e-07,69,13,101,902318,682304,16756573,16754180,16773088,16756217,10365,1268,Tag0,unknown
207,1611473066578,25,-531,-0.0001166748046875,69,13,101,902318,682304,16756573,16754180,16773088,16756217,10365,1268,Tag0,unknown
208,1611473066594,25,-762,-0.00016743164062500002,69,13,101,902318,682304,16756573,16754180,16773088,16756217,10365,1268,Tag0,unknown
209,1611473066604,25,-993,-0.0002181884765625,69,13,101,902318,682304,16756573,16754180,16773088,16756217,10365,1268,Tag0,unknown
210,1611473066626,25,123,2.70263671875e-05,69,13,101,902318,682304,16756573,16754180,16773088,16756217,10365,1268,Tag0,unknown
211,1611473066643,25,-2147,-0.0004717529296875,69,13,101,902318,682304,16756573,16754180,16773088,16756217,10365,1268,Tag0,unknown
212,1611473066660,25,-1804,-0.00039638671875,69,13,101,902318,682304,16756573,16754180,16773088,16756217,10365,1268,Tag0,unknown
213,1611473066682,25,-1719,-0.0003777099609375,69,13,101,902318,682304,16756573,16754180,16773088,16756217,10365,1268,Tag0,unknown
214,1611473066692,25,-923,-0.0002028076171875,69,13,101,902318,682304,16756573,16754180,16773088,16756217,10365,1268,Tag0,unknown
215,1611473066716,25,-2048,-0.00045,69,13,101,902318,682304,16756573,16754180,16773088,16756217,10365,1268,Tag0,unknown
216,1611473066726,25,-2048,-0.00045,69,13,101,902318,682304,16756573,16754180,16773088,16756217,10365,1268,Tag0,unknown
217,1611473066743,25,-1164,-0.00025576171875,69,13,101,902318,682304,16756573,16754180,16773088,16756217,10365,1268,Tag0,unknown
218,1611473066768,25,-1555,-0.0003416748046875,69,13,101,902318,682304,16756573,16754180,16773088,16756217,10365,1268,Tag0,unknown
219,1611473066780,25,-986,-0.000216650390625,69,13,101,902318,682304,16756573,16754180,16773088,16756217,10365,1268,Tag0,unknown
220,1611473066790,25,-722,-0.000158642578125,69,13,101,902318,682304,16756573,16754180,16773088,16756217,10365,1268,Tag0,unknown
221,1611473066800,25,-909,-0.0001997314453125,69,13,101,902318,682304,16756573,16754180,16773088,16756217,10365,1268,Tag0,unknown
222,1611473066814,25,-1048,-0.0002302734375,69,13,101,902318,682304,16756573,16754180,16773088,16756217,10365,1268,Tag0,unknown
223,1611473066829,25,-846,-0.000185888671875,69,13,101,902318,682304,16756573,16754180,16773088,16756217,10365,1268,Tag0,unknown
224,1611473066842,25,-846,-0.000185888671875,69,13,101,902318,682304,16756573,16754180,16773088,16756217,10365,1268,Tag0,unknown
225,1611473066858,25,-808,-0.00017753906250000002,69,13,101,902318,682304,16756573,16754180,16773088,16756217,10365,1268,Tag0,unknown
226,1611473066879,25,-248,-5.44921875e-05,69,13,101,902318,682304,16756573,16754180,16773088,16756217,10365,1268,Tag0,unknown
227,1611473066892,25,-195,-4.28466796875e-05,69,13,101,902318,682304,16756573,16754180,16773088,16756217,10365,1268,Tag0,unknown
228,1611473067033,25,-519,-0.0001140380859375,69,13,101,902318,682304,16756573,16754180,16773088,16756217,10365,1268,Tag0,unknown
229,1611473067048,25,-519,-0.0001140380859375,69,13,101,902318,682304,16756573,16754180,16773088,16756217,10365,1268,Tag0,unknown
230,1611473067094,25,-276,-6.064453125e-05,69,13,101,902318,682304,16756573,16754180,16773088,16756217,10365,1268,Tag0,unknown
231,1611473067110,25,-274,-6.0205078125e-05,69,13,101,902318,682304,16756573,16754180,16773088,16756217,10365,1268,Tag0,unknown
232,1611473067236,25,-346,-7.6025390625e-05,69,13,101,902318,682304,16756573,16754180,16773088,16756217,10365,1268,Tag0,unknown
233,1611473067254,25,-339,-7.448730468750001e-05,69,13,101,902318,682304,16756573,16754180,16773088,16756217,10365,1268,Tag0,unknown
234,1611473067264,25,-318,-6.9873046875e-05,69,13,101,902318,682304,16756573,16754180,16773088,16756217,10365,1268,Tag0,unknown
235,1611473067275,25,-293,-6.43798828125e-05,69,13,101,902318,682304,16756573,16754180,16773088,16756217,10365,1268,Tag0,unknown
236,1611473067301,25,19,4.1748046875e-06,69,13,101,902318,682304,16756573,16754180,16773088,16756217,10365,1268,Tag0,unknown
237,1611473067312,25,11,2.4169921875e-06,69,13,101,902318,682304,16756573,16754180,16773088,16756217,10365,1268,Tag0,unknown
238,1611473067442,25,39,8.5693359375e-06,69,13,101,902318,682304,16756573,16754180,16773088,16756217,10365,1268,Tag0,unknown
239,1611473067469,25,27,5.932617187500001e-06,69,13,101,902318,682304,16756573,16754180,16773088,16756217,10365,1268,Tag0,unknown
240,1611473067479,25,41,9.0087890625e-06,69,13,101,902318,682304,16756573,16754180,16773088,16756217,10365,1268,Tag0,unknown
241,1611473067492,25,764,0.00016787109375,69,13,101,902318,682304,16756573,16754180,16773088,16756217,10365,1268,Tag0,unknown
242,1611473067503,25,777,0.0001707275390625,69,13,101,902318,682304,16756573,16754180,16773088,16756217,10365,1268,Tag0,unknown
243,1611473067528,25,-38,-8.349609375e-06,69,13,101,902318,682304,16756573,16754180,16773088,16756217,10365,1268,Tag0,unknown
244,1611473067538,25,-298,-6.5478515625e-05,69,13,103,902318,682304,16756573,16754180,16773088,16756217,10365,1268,Tag0,unknown
245,1611473067548,51,1495,0.0003284912109375,69,13,103,211886,51070,11606,18996,23808,21956,16752042,8075,Tag0,unknown
246,1611473067558,51,247,5.42724609375e-05,69,13,103,211886,51070,11606,18996,23808,21956,16752042,8075,Tag0,unknown
247,1611473067568,51,-201,-4.41650390625e-05,69,13,103,211886,51070,11606,18996,23808,21956,16752042,8075,Tag0,unknown
248,1611473067578,51,-793,-0.0001742431640625,69,13,103,211886,51070,11606,18996,23808,21956,16752042,8075,Tag0,unknown
249,1611473067603,51,-491,-0.0001078857421875,69,13,103,211886,51070,11606,18996,23808,21956,16752042,8075,Tag0,unknown
250,1611473067643,51,-1369,-0.00030080566406250005,69,13,103,211886,51070,11606,18996,23808,21956,16752042,8075,Tag0,unknown
251,1611473067663,51,-999,-0.0002195068359375,69,13,103,211886,51070,11606,18996,23808,21956,16752042,8075,Tag0,unknown
252,1611473067673,51,353,7.75634765625e-05,69,13,103,211886,51070,11606,18996,23808,21956,16752042,8075,Tag0,unknown
253,1611473067683,51,-1255,-0.0002757568359375,69,13,103,211886,51070,11606,18996,23808,21956,16752042,8075,Tag0,unknown
254,1611473067697,51,-785,-0.0001724853515625,69,13,103,211886,51070,11606,18996,23808,21956,16752042,8075,Tag0,unknown
255,1611473067715,51,-209,-4.59228515625e-05,69,13,103,211886,51070,11606,18996,23808,21956,16752042,8075,Tag0,unknown
256,1611473067729,51,-545,-0.0001197509765625,69,13,103,211886,51070,11606,18996,23808,21956,16752042,8075,Tag0,unknown
257,1611473067739,51,-1065,-0.0002340087890625,69,13,103,211886,51070,11606,18996,23808,21956,16752042,8075,Tag0,unknown
258,1611473067756,51,-1259,-0.00027663574218750005,69,13,103,211886,51070,11606,18996,23808,21956,16752042,8075,Tag0,unknown
259,1611473067766,51,-967,-0.0002124755859375,69,13,103,211886,51070,11606,18996,23808,21956,16752042,8075,Tag0,unknown
260,1611473067780,51,-515,-0.0001131591796875,69,13,103,211886,51070,11606,18996,23808,21956,16752042,8075,Tag0,unknown
261,1611473067793,51,83,1.82373046875e-05,69,13,103,211886,51070,11606,18996,23808,21956,16752042,8075,Tag0,unknown
262,1611473067825,51,-1998,-0.000439013671875,69,13,103,211886,51070,11606,18996,23808,21956,16752042,8075,Tag0,unknown
263,1611473067843,51,-2175,-0.0004779052734375,69,13,103,211886,51070,11606,18996,23808,21956,16752042,8075,Tag0,unknown
264,1611473067862,51,-1241,-0.0002726806640625,69,13,103,211886,51070,11606,18996,23808,21956,16752042,8075,Tag0,unknown
265,1611473067879,51,-1905,-0.0004185791015625,69,13,103,211886,51070,11606,18996,23808,21956,16752042,8075,Tag0,unknown
266,1611473067889,51,538,0.000118212890625,69,13,103,211886,51070,11606,18996,23808,21956,16752042,8075,Tag0,unknown
267,1611473067904,51,-475,-0.0001043701171875,69,13,103,211886,51070,11606,18996,23808,21956,16752042,8075,Tag0,unknown
268,1611473067916,51,1791,0.0003935302734375,69,13,103,211886,51070,11606,18996,23808,21956,16752042,8075,Tag0,unknown
269,1611473067932,51,-317,-6.96533203125e-05,69,13,103,211886,51070,11606,18996,23808,21956,16752042,8075,Tag0,unknown
270,1611473067946,51,-626,-0.000137548828125,69,13,103,211886,51070,11606,18996,23808,21956,16752042,8075,Tag0,unknown
271,1611473067956,51,-344,-7.558593750000001e-05,69,13,103,211886,51070,11606,18996,23808,21956,16752042,8075,Tag0,unknown
272,1611473067968,51,-264,-5.80078125e-05,69,13,103,211886,51070,11606,18996,23808,21956,16752042,8075,Tag0,unknown
273,1611473067978,51,-275,-6.04248046875e-05,69,13,103,211886,51070,11606,18996,23808,21956,16752042,8075,Tag0,unknown
274,1611473068002,51,-694,-0.000152490234375,69,13,103,211886,51070,11606,18996,23808,21956,16752042,8075,Tag0,unknown
275,1611473068012,51,-683,-0.0001500732421875,69,13,103,211886,51070,11606,18996,23808,21956,16752042,8075,Tag0,unknown
276,1611473068028,51,568,0.0001248046875,69,13,103,211886,51070,11606,18996,23808,21956,16752042,8075,Tag0,unknown
277,1611473068045,51,563,0.0001237060546875,69,13,103,211886,51070,11606,18996,23808,21956,16752042,8075,Tag0,unknown
278,1611473068062,51,1632,0.00035859375,69,13,103,211886,51070,11606,18996,23808,21956,16752042,8075,Tag0,unknown
279,1611473068084,51,928,0.00020390625,69,13,103,211886,51070,11606,18996,23808,21956,16752042,8075,Tag0,unknown
280,1611473068097,51,965,0.0002120361328125,69,13,103,211886,51070,11606,18996,23808,21956,16752042,8075,Tag0,unknown
281,1611473068115,51,733,0.00016105957031250002,69,13,103,211886,51070,11606,18996,23808,21956,16752042,8075,Tag0,unknown
282,1611473068130,51,834,0.000183251953125,69,13,103,211886,51070,11606,18996,23808,21956,16752042,8075,Tag0,unknown
283,1611473068154,51,563,0.0001237060546875,69,13,103,211886,51070,11606,18996,23808,21956,16752042,8075,Tag0,unknown
284,1611473068164,51,523,0.0001149169921875,69,13,103,211886,51070,11606,18996,23808,21956,16752042,8075,Tag0,unknown
285,1611473068181,51,129,2.83447265625e-05,69,13,103,211886,51070,11606,18996,23808,21956,16752042,8075,Tag0,unknown
286,1611473068197,51,266,5.8447265625e-05,69,13,103,211886,51070,11606,18996,23808,21956,16752042,8075,Tag0,unknown
287,1611473068210,51,259,5.69091796875e-05,69,13,103,211886,51070,11606,18996,23808,21956,16752042,8075,Tag0,unknown
288,1611473068237,51,-112,-2.4609375e-05,69,13,103,211886,51070,11606,18996,23808,21956,16752042,8075,Tag0,unknown
289,1611473068248,26,125,2.74658203125e-05,69,13,103,855948,16769542,16761367,78646,12988,44419,86807,17061,Tag0,unknown
290,1611473068265,26,120,2.63671875e-05,69,13,103,855948,16769542,16761367,78646,12988,44419,86807,17061,Tag0,unknown
291,1611473068281,26,99,2.1752929687500006e-05,69,13,103,855948,16769542,16761367,78646,12988,44419,86807,17061,Tag0,unknown
292,1611473068297,26,92,2.021484375e-05,69,13,103,855948,16769542,16761367,78646,12988,44419,86807,17061,Tag0,unknown
293,1611473068315,26,86,1.8896484375000006e-05,69,13,103,855948,16769542,16761367,78646,12988,44419,86807,17061,Tag0,unknown
294,1611473068330,26,82,1.8017578125e-05,69,13,103,855948,16769542,16761367,78646,12988,44419,86807,17061,Tag0,unknown
295,1611473068351,26,72,1.58203125e-05,69,13,103,855948,16769542,16761367,78646,12988,44419,86807,17061,Tag0,unknown
296,1611473068363,26,71,1.56005859375e-05,69,13,103,855948,16769542,16761367,78646,12988,44419,86807,17061,Tag0,unknown
297,1611473068385,26,69,1.51611328125e-05,69,13,103,855948,16769542,16761367,78646,12988,44419,86807,17061,Tag0,unknown
298,1611473068398,26,69,1.51611328125e-05,69,13,103,855948,16769542,16761367,78646,12988,44419,86807,17061,Tag0,unknown
299,1611473068408,26,70,1.5380859375e-05,69,13,103,855948,16769542,16761367,78646,12988,44419,86807,17061,Tag0,unknown
300,1611473068430,26,-2048,-0.00045,69,13,103,855948,16769542,16761367,78646,12988,44419,86807,17061,Tag0,unknown
301,1611473068449,26,-2048,-0.00045,69,13,103,855948,16769542,16761367,78646,12988,44419,86807,17061,Tag0,unknown
302,1611473068466,26,-2048,-0.00045,69,13,103,855948,16769542,16761367,78646,12988,44419,86807,17061,Tag0,unknown
303,1611473068483,26,-1697,-0.0003728759765625,69,13,103,855948,16769542,16761367,78646,12988,44419,86807,17061,Tag0,unknown
304,1611473068506,26,-906,-0.000199072265625,69,13,103,855948,16769542,16761367,78646,12988,44419,86807,17061,Tag0,unknown
305,1611473068528,26,-789,-0.00017336425781250002,69,13,103,855948,16769542,16761367,78646,12988,44419,86807,17061,Tag0,unknown
306,1611473068546,26,-572,-0.00012568359375,69,13,103,855948,16769542,16761367,78646,12988,44419,86807,17061,Tag0,unknown
307,1611473068562,26,-251,-5.51513671875e-05,69,13,103,855948,16769542,16761367,78646,12988,44419,86807,17061,Tag0,unknown
308,1611473068585,26,-169,-3.71337890625e-05,69,13,103,855948,16769542,16761367,78646,12988,44419,86807,17061,Tag0,unknown
309,1611473068596,26,-357,-7.844238281250001e-05,69,13,103,855948,16769542,16761367,78646,12988,44419,86807,17061,Tag0,unknown
310,1611473068606,26,-315,-6.92138671875e-05,69,13,103,855948,16769542,16761367,78646,12988,44419,86807,17061,Tag0,unknown
311,1611473068619,26,-283,-6.218261718750001e-05,69,13,103,855948,16769542,16761367,78646,12988,44419,86807,17061,Tag0,unknown
312,1611473068630,26,-263,-5.778808593750001e-05,69,13,103,855948,16769542,16761367,78646,12988,44419,86807,17061,Tag0,unknown
313,1611473068649,26,5,1.0986328125e-06,69,13,103,855948,16769542,16761367,78646,12988,44419,86807,17061,Tag0,unknown
314,1611473068661,26,7,1.5380859375e-06,69,13,103,855948,16769542,16761367,78646,12988,44419,86807,17061,Tag0,unknown
315,1611473068690,26,40,8.7890625e-06,69,13,103,855948,16769542,16761367,78646,12988,44419,86807,17061,Tag0,unknown
316,1611473068713,26,45,9.8876953125e-06,69,13,103,855948,16769542,16761367,78646,12988,44419,86807,17061,Tag0,unknown
317,1611473068731,26,50,1.0986328125e-05,69,13,103,855948,16769542,16761367,78646,12988,44419,86807,17061,Tag0,unknown
318,1611473068748,26,54,1.1865234375e-05,69,13,103,855948,16769542,16761367,78646,12988,44419,86807,17061,Tag0,unknown
319,1611473068765,26,55,1.20849609375e-05,69,13,103,855948,16769542,16761367,78646,12988,44419,86807,17061,Tag0,unknown
320,1611473068775,26,59,1.29638671875e-05,69,13,103,855948,16769542,16761367,78646,12988,44419,86807,17061,Tag0,unknown
321,1611473068788,26,60,1.318359375e-05,69,13,103,855948,16769542,16761367,78646,12988,44419,86807,17061,Tag0,unknown
322,1611473068798,26,59,1.29638671875e-05,69,13,103,855948,16769542,16761367,78646,12988,44419,86807,17061,Tag0,unknown
323,1611473068826,26,61,1.34033203125e-05,69,13,103,855948,16769542,16761367,78646,12988,44419,86807,17061,Tag0,unknown
324,1611473068836,26,64,1.40625e-05,69,13,103,855948,16769542,16761367,78646,12988,44419,86807,17061,Tag0,unknown
325,1611473068848,26,61,1.34033203125e-05,69,13,103,855948,16769542,16761367,78646,12988,44419,86807,17061,Tag0,unknown
326,1611473068864,26,65,1.42822265625e-05,69,13,103,855948,16769542,16761367,78646,12988,44419,86807,17061,Tag0,unknown
327,1611473068878,26,64,1.40625e-05,69,13,103,855948,16769542,16761367,78646,12988,44419,86807,17061,Tag0,unknown
328,1611473068896,26,65,1.42822265625e-05,69,13,103,855948,16769542,16761367,78646,12988,44419,86807,17061,Tag0,unknown
329,1611473068913,26,65,1.42822265625e-05,69,13,103,855948,16769542,16761367,78646,12988,44419,86807,17061,Tag0,unknown
330,1611473068923,26,65,1.42822265625e-05,69,13,103,855948,16769542,16761367,78646,12988,44419,86807,17061,Tag0,unknown
331,1611473068935,26,65,1.42822265625e-05,69,13,103,855948,16769542,16761367,78646,12988,44419,86807,17061,Tag0,unknown
332,1611473068947,26,65,1.42822265625e-05,69,13,103,855948,16769542,16761367,78646,12988,44419,86807,17061,Tag0,unknown
333,1611473068974,26,65,1.42822265625e-05,69,13,103,855948,16769542,16761367,78646,12988,44419,86807,17061,Tag0,unknown
334,1611473068984,26,65,1.42822265625e-05,69,13,103,855948,16769542,16761367,78646,12988,44419,86807,17061,Tag0,unknown
335,1611473068998,26,65,1.42822265625e-05,69,13,103,855948,16769542,16761367,78646,12988,44419,86807,17061,Tag0,unknown
336,1611473069016,26,64,1.40625e-05,69,13,103,855948,16769542,16761367,78646,12988,44419,86807,17061,Tag0,unknown
337,1611473069031,26,65,1.42822265625e-05,69,13,103,855948,16769542,16761367,78646,12988,44419,86807,17061,Tag0,unknown
338,1611473069052,26,66,1.4501953125e-05,69,13,103,855948,16769542,16761367,78646,12988,44419,86807,17061,Tag0,unknown
339,1611473069062,26,65,1.42822265625e-05,69,13,103,855948,16769542,16761367,78646,12988,44419,86807,17061,Tag0,unknown
340,1611473069072,26,65,1.42822265625e-05,69,13,103,855948,16769542,16761367,78646,12988,44419,86807,17061,Tag0,unknown
341,1611473069096,26,65,1.42822265625e-05,69,13,103,855948,16769542,16761367,78646,12988,44419,86807,17061,Tag0,unknown
342,1611473069114,26,65,1.42822265625e-05,69,13,103,855948,16769542,16761367,78646,12988,44419,86807,17061,Tag0,unknown
343,1611473069130,26,65,1.42822265625e-05,69,13,103,855948,16769542,16761367,78646,12988,44419,86807,17061,Tag0,unknown
344,1611473069152,26,65,1.42822265625e-05,69,13,103,855948,16769542,16761367,78646,12988,44419,86807,17061,Tag0,unknown
345,1611473069164,26,65,1.42822265625e-05,69,13,103,855948,16769542,16761367,78646,12988,44419,86807,17061,Tag0,unknown
346,1611473069186,26,65,1.42822265625e-05,69,13,103,855948,16769542,16761367,78646,12988,44419,86807,17061,Tag0,unknown
347,1611473069199,26,64,1.40625e-05,69,13,103,855948,16769542,16761367,78646,12988,44419,86807,17061,Tag0,unknown
348,1611473069210,26,65,1.42822265625e-05,69,13,103,855948,16769542,16761367,78646,12988,44419,86807,17061,Tag0,unknown
349,1611473069220,26,65,1.42822265625e-05,69,13,103,855948,16769542,16761367,78646,12988,44419,86807,17061,Tag0,unknown
350,1611473069233,26,65,1.42822265625e-05,69,13,103,855948,16769542,16761367,78646,12988,44419,86807,17061,Tag0,unknown
351,1611473069250,26,65,1.42822265625e-05,69,13,103,855948,16769542,16761367,78646,12988,44419,86807,17061,Tag0,unknown
352,1611473069260,25,66,1.4501953125e-05,69,13,103,1722325,16760894,16779,20787,14640,2945,329,262,Tag0,unknown
353,1611473069279,25,64,1.40625e-05,69,13,103,1722325,16760894,16779,20787,14640,2945,329,262,Tag0,unknown
354,1611473069299,25,65,1.42822265625e-05,69,13,103,1722325,16760894,16779,20787,14640,2945,329,262,Tag0,unknown
355,1611473069312,25,65,1.42822265625e-05,69,13,103,1722325,16760894,16779,20787,14640,2945,329,262,Tag0,unknown
356,1611473069337,25,65,1.42822265625e-05,69,13,103,1722325,16760894,16779,20787,14640,2945,329,262,Tag0,unknown
357,1611473069347,25,66,1.4501953125e-05,69,13,103,1722325,16760894,16779,20787,14640,2945,329,262,Tag0,unknown
358,1611473069375,25,81,1.77978515625e-05,69,13,103,1722325,16760894,16779,20787,14640,2945,329,262,Tag0,unknown
359,1611473069385,25,-115,-2.52685546875e-05,69,13,103,1722325,16760894,16779,20787,14640,2945,329,262,Tag0,unknown
360,1611473069398,25,-29,-6.3720703125e-06,69,13,103,1722325,16760894,16779,20787,14640,2945,329,262,Tag0,unknown
361,1611473069408,25,121,2.6586914062500006e-05,69,13,103,1722325,16760894,16779,20787,14640,2945,329,262,Tag0,unknown
362,1611473069422,25,-68,-1.494140625e-05,69,13,103,1722325,16760894,16779,20787,14640,2945,329,262,Tag0,unknown
363,1611473069432,25,324,7.119140625e-05,69,13,103,1722325,16760894,16779,20787,14640,2945,329,262,Tag0,unknown
364,1611473069449,25,1099,0.0002414794921875,69,13,103,1722325,16760894,16779,20787,14640,2945,329,262,Tag0,unknown
365,1611473069464,25,1494,0.0003282714843750001,69,13,103,1722325,16760894,16779,20787,14640,2945,329,262,Tag0,unknown
366,1611473069479,25,1791,0.0003935302734375,69,13,103,1722325,16760894,16779,20787,14640,2945,329,262,Tag0,unknown
367,1611473069496,25,1523,0.0003346435546875,69,13,103,1722325,16760894,16779,20787,14640,2945,329,262,Tag0,unknown
368,1611473069514,25,1687,0.0003706787109375,69,13,103,1722325,16760894,16779,20787,14640,2945,329,262,Tag0,unknown
369,1611473069534,25,1735,0.0003812255859375,69,13,103,1722325,16760894,16779,20787,14640,2945,329,262,Tag0,unknown
370,1611473069547,25,1682,0.000369580078125,69,13,103,1722325,16760894,16779,20787,14640,2945,329,262,Tag0,unknown
371,1611473069568,25,1300,0.00028564453125,69,13,103,1722325,16760894,16779,20787,14640,2945,329,262,Tag0,unknown
372,1611473069585,25,999,0.0002195068359375,69,13,103,1722325,16760894,16779,20787,14640,2945,329,262,Tag0,unknown
373,1611473069595,25,887,0.00019489746093750006,69,13,103,1722325,16760894,16779,20787,14640,2945,329,262,Tag0,unknown
374,1611473069605,25,441,9.68994140625e-05,69,13,103,1722325,16760894,16779,20787,14640,2945,329,262,Tag0,unknown
375,1611473069619,25,552,0.0001212890625,69,13,103,1722325,16760894,16779,20787,14640,2945,329,262,Tag0,unknown
376,1611473069629,25,183,4.02099609375e-05,69,13,103,1722325,16760894,16779,20787,14640,2945,329,262,Tag0,unknown
377,1611473069646,25,269,5.91064453125e-05,69,13,103,1722325,16760894,16779,20787,14640,2945,329,262,Tag0,unknown
378,1611473069662,25,257,5.64697265625e-05,69,13,103,1722325,16760894,16779,20787,14640,2945,329,262,Tag0,unknown
379,1611473069687,25,-71,-1.56005859375e-05,69,13,103,1722325,16760894,16779,20787,14640,2945,329,262,Tag0,unknown
380,1611473069697,25,-75,-1.64794921875e-05,69,13,103,1722325,16760894,16779,20787,14640,2945,329,262,Tag0,unknown
381,1611473069715,25,121,2.6586914062500006e-05,69,13,103,1722325,16760894,16779,20787,14640,2945,329,262,Tag0,unknown
382,1611473069732,25,115,2.52685546875e-05,69,13,103,1722325,16760894,16779,20787,14640,2945,329,262,Tag0,unknown
383,1611473069748,25,106,2.3291015625000006e-05,69,13,103,1722325,16760894,16779,20787,14640,2945,329,262,Tag0,unknown
384,1611473069766,25,93,2.04345703125e-05,69,13,103,1722325,16760894,16779,20787,14640,2945,329,262,Tag0,unknown
385,1611473069782,25,86,1.8896484375000006e-05,69,13,103,1722325,16760894,16779,20787,14640,2945,329,262,Tag0,unknown
386,1611473069792,25,75,1.64794921875e-05,69,13,103,1722325,16760894,16779,20787,14640,2945,329,262,Tag0,unknown
387,1611473069804,25,73,1.6040039062500002e-05,69,13,103,1722325,16760894,16779,20787,14640,2945,329,262,Tag0,unknown
388,1611473069814,25,73,1.6040039062500002e-05,69,13,103,1722325,16760894,16779,20787,14640,2945,329,262,Tag0,unknown
389,1611473069836,25,71,1.56005859375e-05,69,13,103,1722325,16760894,16779,20787,14640,2945,329,262,Tag0,unknown
390,1611473069848,25,69,1.51611328125e-05,69,13,103,1722325,16760894,16779,20787,14640,2945,329,262,Tag0,unknown
391,1611473069858,25,67,1.4721679687500003e-05,69,13,103,1722325,16760894,16779,20787,14640,2945,329,262,Tag0,unknown
392,1611473069876,25,66,1.4501953125e-05,69,13,103,1722325,16760894,16779,20787,14640,2945,329,262,Tag0,unknown
393,1611473069900,25,66,1.4501953125e-05,69,13,103,1722325,16760894,16779,20787,14640,2945,329,262,Tag0,unknown
394,1611473069914,25,65,1.42822265625e-05,69,13,103,1722325,16760894,16779,20787,14640,2945,329,262,Tag0,unknown
395,1611473069931,25,65,1.42822265625e-05,69,13,103,1722325,16760894,16779,20787,14640,2945,329,262,Tag0,unknown
396,1611473069941,25,65,1.42822265625e-05,69,13,103,1722325,16760894,16779,20787,14640,2945,329,262,Tag0,unknown
397,1611473069951,25,65,1.42822265625e-05,69,13,103,1722325,16760894,16779,20787,14640,2945,329,262,Tag0,unknown
398,1611473069966,25,65,1.42822265625e-05,69,13,103,1722325,16760894,16779,20787,14640,2945,329,262,Tag0,unknown
399,1611473069984,25,64,1.40625e-05,69,13,103,1722325,16760894,16779,20787,14640,2945,329,262,Tag0,unknown
400,1611473069997,25,65,1.42822265625e-05,69,13,103,1722325,16760894,16779,20787,14640,2945,329,262,Tag0,unknown
401,1611473070029,25,62,1.3623046875e-05,69,13,103,1722325,16760894,16779,20787,14640,2945,329,262,Tag0,unknown
402,1611473070046,25,64,1.40625e-05,69,13,103,1722325,16760894,16779,20787,14640,2945,329,262,Tag0,unknown
403,1611473070069,25,64,1.40625e-05,69,13,103,1722325,16760894,16779,20787,14640,2945,329,262,Tag0,unknown
404,1611473070079,25,64,1.40625e-05,69,13,103,1722325,16760894,16779,20787,14640,2945,329,262,Tag0,unknown
405,1611473070103,25,64,1.40625e-05,69,13,103,1722325,16760894,16779,20787,14640,2945,329,262,Tag0,unknown
406,1611473070116,25,65,1.42822265625e-05,69,13,103,1722325,16760894,16779,20787,14640,2945,329,262,Tag0,unknown
407,1611473070126,25,65,1.42822265625e-05,69,13,103,1722325,16760894,16779,20787,14640,2945,329,262,Tag0,unknown
408,1611473070136,25,64,1.40625e-05,69,13,103,1722325,16760894,16779,20787,14640,2945,329,262,Tag0,unknown
409,1611473070149,25,64,1.40625e-05,69,13,103,1722325,16760894,16779,20787,14640,2945,329,262,Tag0,unknown
410,1611473070165,25,65,1.42822265625e-05,69,13,103,1722325,16760894,16779,20787,14640,2945,329,262,Tag0,unknown
411,1611473070182,25,65,1.42822265625e-05,69,13,103,1722325,16760894,16779,20787,14640,2945,329,262,Tag0,unknown
412,1611473070192,25,64,1.40625e-05,69,13,103,1722325,16760894,16779,20787,14640,2945,329,262,Tag0,unknown
413,1611473070202,25,64,1.40625e-05,69,13,103,1722325,16760894,16779,20787,14640,2945,329,262,Tag0,unknown
414,1611473070216,25,65,1.42822265625e-05,69,13,103,1722325,16760894,16779,20787,14640,2945,329,262,Tag0,unknown
415,1611473070232,25,65,1.42822265625e-05,69,13,103,1722325,16760894,16779,20787,14640,2945,329,262,Tag0,unknown
416,1611473070242,25,23,5.0537109375e-06,69,13,103,164581,1243,2731,2389,1677,431,286,38,Tag0,unknown
417,1611473070257,25,23,5.0537109375e-06,69,13,103,164581,1243,2731,2389,1677,431,286,38,Tag0,unknown
418,1611473070267,25,23,5.0537109375e-06,69,13,103,164581,1243,2731,2389,1677,431,286,38,Tag0,unknown
419,1611473070290,25,23,5.0537109375e-06,69,13,103,164581,1243,2731,2389,1677,431,286,38,Tag0,unknown
420,1611473070300,25,-2048,-0.00045,69,13,103,164581,1243,2731,2389,1677,431,286,38,Tag0,unknown
421,1611473070314,25,-2048,-0.00045,69,13,103,164581,1243,2731,2389,1677,431,286,38,Tag0,unknown
422,1611473070332,25,-835,-0.0001834716796875,69,13,103,164581,1243,2731,2389,1677,431,286,38,Tag0,unknown
423,1611473070350,25,-1461,-0.00032102050781250004,69,13,103,164581,1243,2731,2389,1677,431,286,38,Tag0,unknown
424,1611473070360,25,-1225,-0.0002691650390625,69,13,103,164581,1243,2731,2389,1677,431,286,38,Tag0,unknown
425,1611473070371,25,-1447,-0.0003179443359375,69,13,103,164581,1243,2731,2389,1677,431,286,38,Tag0,unknown
426,1611473070384,25,-1319,-0.0002898193359375,69,13,103,164581,1243,2731,2389,1677,431,286,38,Tag0,unknown
427,1611473070403,25,-796,-0.00017490234374999998,69,13,103,164581,1243,2731,2389,1677,431,286,38,Tag0,unknown
428,1611473070416,25,-472,-0.0001037109375,69,13,103,164581,1243,2731,2389,1677,431,286,38,Tag0,unknown
429,1611473070426,25,-539,-0.0001184326171875,69,13,103,164581,1243,2731,2389,1677,431,286,38,Tag0,unknown
430,1611473070436,25,-196,-4.306640625e-05,69,13,103,164581,1243,2731,2389,1677,431,286,38,Tag0,unknown
431,1611473070449,25,107,2.35107421875e-05,69,13,103,164581,1243,2731,2389,1677,431,286,38,Tag0,unknown
432,1611473070464,25,-315,-6.92138671875e-05,69,13,103,164581,1243,2731,2389,1677,431,286,38,Tag0,unknown
433,1611473070483,25,-299,-6.56982421875e-05,69,13,103,164581,1243,2731,2389,1677,431,286,38,Tag0,unknown
434,1611473070497,25,-298,-6.5478515625e-05,69,13,103,164581,1243,2731,2389,1677,431,286,38,Tag0,unknown
435,1611473070524,25,-137,-3.01025390625e-05,69,13,103,164581,1243,2731,2389,1677,431,286,38,Tag0,unknown
436,1611473070534,25,-345,-7.58056640625e-05,69,13,103,164581,1243,2731,2389,1677,431,286,38,Tag0,unknown
437,1611473070557,25,-388,-8.525390625e-05,69,13,103,164581,1243,2731,2389,1677,431,286,38,Tag0,unknown
438,1611473070567,25,-620,-0.00013623046875,69,13,103,164581,1243,2731,2389,1677,431,286,38,Tag0,unknown
439,1611473070582,25,-186,-4.0869140625e-05,69,13,103,164581,1243,2731,2389,1677,431,286,38,Tag0,unknown
440,1611473070601,25,-356,-7.822265625e-05,69,13,103,164581,1243,2731,2389,1677,431,286,38,Tag0,unknown
441,1611473070616,25,279,6.13037109375e-05,69,13,103,164581,1243,2731,2389,1677,431,286,38,Tag0,unknown
442,1611473070635,25,113,2.48291015625e-05,69,13,103,164581,1243,2731,2389,1677,431,286,38,Tag0,unknown
443,1611473070654,25,-38,-8.349609375e-06,69,13,103,164581,1243,2731,2389,1677,431,286,38,Tag0,unknown
444,1611473070664,25,1791,0.0003935302734375,69,13,103,164581,1243,2731,2389,1677,431,286,38,Tag0,unknown
445,1611473070676,25,1844,0.0004051757812500001,69,13,103,164581,1243,2731,2389,1677,431,286,38,Tag0,unknown
446,1611473070687,25,1834,0.000402978515625,69,13,103,164581,1243,2731,2389,1677,431,286,38,Tag0,unknown
447,1611473070706,25,874,0.000192041015625,69,13,103,164581,1243,2731,2389,1677,431,286,38,Tag0,unknown
448,1611473070716,25,1144,0.0002513671875,69,13,103,164581,1243,2731,2389,1677,431,286,38,Tag0,unknown
449,1611473070732,25,-76,-1.669921875e-05,69,13,103,164581,1243,2731,2389,1677,431,286,38,Tag0,unknown
450,1611473070749,25,-377,-8.28369140625e-05,69,13,103,164581,1243,2731,2389,1677,431,286,38,Tag0,unknown
451,1611473070776,25,-413,-9.07470703125e-05,69,13,103,164581,1243,2731,2389,1677,431,286,38,Tag0,unknown
452,1611473070786,25,-645,-0.0001417236328125,69,13,103,164581,1243,2731,2389,1677,431,286,38,Tag0,unknown
453,1611473070800,25,-552,-0.0001212890625,69,13,103,164581,1243,2731,2389,1677,431,286,38,Tag0,unknown
454,1611473070821,25,-2118,-0.000465380859375,69,13,103,164581,1243,2731,2389,1677,431,286,38,Tag0,unknown
455,1611473070835,25,-1460,-0.00032080078125,69,13,103,164581,1243,2731,2389,1677,431,286,38,Tag0,unknown
456,1611473070848,25,-1293,-0.0002841064453125,69,13,103,164581,1243,2731,2389,1677,431,286,38,Tag0,unknown
457,1611473070870,25,-723,-0.0001588623046875,69,13,103,164581,1243,2731,2389,1677,431,286,38,Tag0,unknown
458,1611473070881,25,-693,-0.0001522705078125,69,13,103,164581,1243,2731,2389,1677,431,286,38,Tag0,unknown
459,1611473070910,25,-245,-5.38330078125e-05,69,13,103,164581,1243,2731,2389,1677,431,286,38,Tag0,unknown
460,1611473070920,25,-211,-4.63623046875e-05,69,13,103,164581,1243,2731,2389,1677,431,286,38,Tag0,unknown
461,1611473070935,25,-139,-3.0541992187500004e-05,69,13,103,164581,1243,2731,2389,1677,431,286,38,Tag0,unknown
462,1611473070953,25,-377,-8.28369140625e-05,69,13,103,164581,1243,2731,2389,1677,431,286,38,Tag0,unknown
463,1611473070968,25,-311,-6.833496093750001e-05,69,13,103,164581,1243,2731,2389,1677,431,286,38,Tag0,unknown
464,1611473070985,25,21,4.614257812500002e-06,69,13,103,164581,1243,2731,2389,1677,431,286,38,Tag0,unknown
465,1611473071000,25,85,1.86767578125e-05,69,13,103,164581,1243,2731,2389,1677,431,286,38,Tag0,unknown
466,1611473071022,25,-107,-2.35107421875e-05,69,13,103,164581,1243,2731,2389,1677,431,286,38,Tag0,unknown
467,1611473071035,25,277,6.086425781250001e-05,69,13,103,164581,1243,2731,2389,1677,431,286,38,Tag0,unknown
468,1611473071045,25,553,0.0001215087890625,69,13,103,164581,1243,2731,2389,1677,431,286,38,Tag0,unknown
469,1611473071065,25,221,4.85595703125e-05,69,13,103,164581,1243,2731,2389,1677,431,286,38,Tag0,unknown
470,1611473071090,25,523,0.0001149169921875,69,13,103,164581,1243,2731,2389,1677,431,286,38,Tag0,unknown
471,1611473071100,25,-95,-2.08740234375e-05,69,13,103,164581,1243,2731,2389,1677,431,286,38,Tag0,unknown
472,1611473071117,25,9,1.9775390625e-06,69,13,103,164581,1243,2731,2389,1677,431,286,38,Tag0,unknown
473,1611473071134,25,-361,-7.93212890625e-05,69,13,103,164581,1243,2731,2389,1677,431,286,38,Tag0,unknown
474,1611473071150,25,-58,-1.2744140625e-05,69,13,103,164581,1243,2731,2389,1677,431,286,38,Tag0,unknown
475,1611473071168,25,49,1.07666015625e-05,69,13,103,164581,1243,2731,2389,1677,431,286,38,Tag0,unknown
476,1611473071184,25,-228,-5.009765625000001e-05,69,13,103,164581,1243,2731,2389,1677,431,286,38,Tag0,unknown
477,1611473071194,25,-484,-0.00010634765625,69,13,103,164581,1243,2731,2389,1677,431,286,38,Tag0,unknown
478,1611473071209,25,-629,-0.0001382080078125,69,13,103,164581,1243,2731,2389,1677,431,286,38,Tag0,unknown
479,1611473071237,25,-525,-0.0001153564453125,69,13,103,164581,1243,2731,2389,1677,431,286,38,Tag0,unknown
480,1611473071248,25,-547,-0.0001201904296875,69,13,103,164581,1243,2731,2389,1677,431,286,38,Tag0,unknown
481,1611473071276,51,-305,-6.70166015625e-05,69,13,103,2609459,53966,140845,95535,39267,158030,10825,5917,Tag0,unknown
482,1611473071286,51,113,2.48291015625e-05,69,13,103,2609459,53966,140845,95535,39267,158030,10825,5917,Tag0,unknown
483,1611473071302,51,1057,0.0002322509765625,69,13,103,2609459,53966,140845,95535,39267,158030,10825,5917,Tag0,unknown
484,1611473071312,51,172,3.779296875000001e-05,69,13,103,2609459,53966,140845,95535,39267,158030,10825,5917,Tag0,unknown
485,1611473071322,51,405,8.89892578125e-05,69,13,103,2609459,53966,140845,95535,39267,158030,10825,5917,Tag0,unknown
486,1611473071343,51,9,1.9775390625e-06,69,13,103,2609459,53966,140845,95535,39267,158030,10825,5917,Tag0,unknown
487,1611473071365,51,132,2.900390625e-05,69,13,103,2609459,53966,140845,95535,39267,158030,10825,5917,Tag0,unknown
488,1611473071387,51,-689,-0.0001513916015625,69,13,103,2609459,53966,140845,95535,39267,158030,10825,5917,Tag0,unknown
489,1611473071400,51,-650,-0.000142822265625,69,13,103,2609459,53966,140845,95535,39267,158030,10825,5917,Tag0,unknown
490,1611473071421,51,-1113,-0.0002445556640625,69,13,103,2609459,53966,140845,95535,39267,158030,10825,5917,Tag0,unknown
491,1611473071437,51,-729,-0.0001601806640625,69,13,103,2609459,53966,140845,95535,39267,158030,10825,5917,Tag0,unknown
492,1611473071447,51,-540,-0.00011865234375,69,13,103,2609459,53966,140845,95535,39267,158030,10825,5917,Tag0,unknown
493,1611473071463,51,-22,-4.833984375e-06,69,13,103,2609459,53966,140845,95535,39267,158030,10825,5917,Tag0,unknown
494,1611473071473,51,1553,0.0003412353515625,69,13,103,2609459,53966,140845,95535,39267,158030,10825,5917,Tag0,unknown
495,1611473071484,51,1064,0.0002337890625,69,13,103,2609459,53966,140845,95535,39267,158030,10825,5917,Tag0,unknown
496,1611473071501,51,801,0.0001760009765625,69,13,103,2609459,53966,140845,95535,39267,158030,10825,5917,Tag0,unknown
497,1611473071518,51,916,0.00020126953125,69,13,103,2609459,53966,140845,95535,39267,158030,10825,5917,Tag0,unknown
498,1611473071534,51,1216,0.0002671875,69,13,103,2609459,53966,140845,95535,39267,158030,10825,5917,Tag0,unknown
499,1611473071549,51,1515,0.0003328857421875,69,13,103,2609459,53966,140845,95535,39267,158030,10825,5917,Tag0,unknown
500,1611473071567,51,1052,0.00023115234375,69,13,103,2609459,53966,140845,95535,39267,158030,10825,5917,Tag0,unknown
501,1611473071584,51,1079,0.0002370849609375,69,13,103,2609459,53966,140845,95535,39267,158030,10825,5917,Tag0,unknown
502,1611473071608,51,377,8.28369140625e-05,69,13,103,2609459,53966,140845,95535,39267,158030,10825,5917,Tag0,unknown
503,1611473071618,51,872,0.0001916015625,69,13,103,2609459,53966,140845,95535,39267,158030,10825,5917,Tag0,unknown
504,1611473071642,51,538,0.000118212890625,69,13,103,2609459,53966,140845,95535,39267,158030,10825,5917,Tag0,unknown
505,1611473071652,51,-61,-1.34033203125e-05,69,13,103,2609459,53966,140845,95535,39267,158030,10825,5917,Tag0,unknown
506,1611473071667,51,-133,-2.92236328125e-05,69,13,103,2609459,53966,140845,95535,39267,158030,10825,5917,Tag0,unknown
507,1611473071684,51,-265,-5.82275390625e-05,69,13,103,2609459,53966,140845,95535,39267,158030,10825,5917,Tag0,unknown
508,1611473071700,51,-313,-6.87744140625e-05,69,13,103,2609459,53966,140845,95535,39267,158030,10825,5917,Tag0,unknown
509,1611473071719,51,-201,-4.41650390625e-05,69,13,103,2609459,53966,140845,95535,39267,158030,10825,5917,Tag0,unknown
510,1611473071735,51,-261,-5.73486328125e-05,69,13,103,2609459,53966,140845,95535,39267,158030,10825,5917,Tag0,unknown
511,1611473071745,51,-1145,-0.0002515869140625,69,13,103,2609459,53966,140845,95535,39267,158030,10825,5917,Tag0,unknown
512,1611473071767,51,-437,-9.60205078125e-05,69,13,103,2609459,53966,140845,95535,39267,158030,10825,5917,Tag0,unknown
513,1611473071787,51,-723,-0.0001588623046875,69,13,103,2609459,53966,140845,95535,39267,158030,10825,5917,Tag0,unknown
514,1611473071799,51,-860,-0.00018896484375,69,13,103,2609459,53966,140845,95535,39267,158030,10825,5917,Tag0,unknown
515,1611473071829,51,-80,-1.7578125e-05,69,13,103,2609459,53966,140845,95535,39267,158030,10825,5917,Tag0,unknown
516,1611473071850,51,-63,-1.38427734375e-05,69,13,103,2609459,53966,140845,95535,39267,158030,10825,5917,Tag0,unknown
517,1611473071869,51,-286,-6.2841796875e-05,69,13,103,2609459,53966,140845,95535,39267,158030,10825,5917,Tag0,unknown
518,1611473071886,51,107,2.35107421875e-05,69,13,103,2609459,53966,140845,95535,39267,158030,10825,5917,Tag0,unknown
519,1611473071896,51,-316,-6.943359375000001e-05,69,13,103,2609459,53966,140845,95535,39267,158030,10825,5917,Tag0,unknown
520,1611473071906,51,293,6.43798828125e-05,69,13,103,2609459,53966,140845,95535,39267,158030,10825,5917,Tag0,unknown
521,1611473071919,51,801,0.0001760009765625,69,13,103,2609459,53966,140845,95535,39267,158030,10825,5917,Tag0,unknown
522,1611473071977,51,-293,-6.43798828125e-05,69,13,103,2609459,53966,140845,95535,39267,158030,10825,5917,Tag0,unknown
523,1611473071989,51,125,2.74658203125e-05,69,13,103,2609459,53966,140845,95535,39267,158030,10825,5917,Tag0,unknown
524,1611473071999,51,73,1.6040039062500002e-05,69,13,103,2609459,53966,140845,95535,39267,158030,10825,5917,Tag0,unknown
525,1611473072116,51,134,2.9443359375000006e-05,69,13,103,2609459,53966,140845,95535,39267,158030,10825,5917,Tag0,unknown
526,1611473072139,51,-4,-8.7890625e-07,69,13,103,2609459,53966,140845,95535,39267,158030,10825,5917,Tag0,unknown
527,1611473072149,51,-390,-8.5693359375e-05,69,13,103,2609459,53966,140845,95535,39267,158030,10825,5917,Tag0,unknown
528,1611473072253,51,-625,-0.0001373291015625,69,13,103,2609459,53966,140845,95535,39267,158030,10825,5917,Tag0,unknown
529,1611473072280,51,-340,-7.470703125e-05,69,13,103,2609459,53966,140845,95535,39267,158030,10825,5917,Tag0,unknown
530,1611473072290,51,2,4.39453125e-07,69,13,103,2609459,53966,140845,95535,39267,158030,10825,5917,Tag0,unknown
531,1611473072319,51,-446,-9.7998046875e-05,69,13,103,2609459,53966,140845,95535,39267,158030,10825,5917,Tag0,unknown
532,1611473072336,51,-405,-8.89892578125e-05,69,13,103,2609459,53966,140845,95535,39267,158030,10825,5917,Tag0,unknown
533,1611473072458,51,-445,-9.77783203125e-05,69,13,103,2609459,53966,140845,95535,39267,158030,10825,5917,Tag0,unknown
534,1611473072477,51,-789,-0.00017336425781250002,69,13,103,2609459,53966,140845,95535,39267,158030,10825,5917,Tag0,unknown
535,1611473072492,51,-1361,-0.0002990478515625,69,13,103,2609459,53966,140845,95535,39267,158030,10825,5917,Tag0,unknown
536,1611473072502,51,-822,-0.000180615234375,69,13,103,2609459,53966,140845,95535,39267,158030,10825,5917,Tag0,unknown
537,1611473072512,51,-405,-8.89892578125e-05,69,13,103,2609459,53966,140845,95535,39267,158030,10825,5917,Tag0,unknown
538,1611473072522,51,528,0.000116015625,69,13,103,2609459,53966,140845,95535,39267,158030,10825,5917,Tag0,unknown
539,1611473072532,51,307,6.74560546875e-05,69,13,103,2609459,53966,140845,95535,39267,158030,10825,5917,Tag0,unknown
540,1611473072542,51,-32,-7.03125e-06,69,13,103,2609459,53966,140845,95535,39267,158030,10825,5917,Tag0,unknown
541,1611473072564,51,-486,-0.000106787109375,69,13,103,2609459,53966,140845,95535,39267,158030,10825,5917,Tag0,unknown
542,1611473072586,51,-465,-0.0001021728515625,69,13,103,2609459,53966,140845,95535,39267,158030,10825,5917,Tag0,unknown
543,1611473072603,51,-1340,-0.00029443359375,69,13,103,2609459,53966,140845,95535,39267,158030,10825,5917,Tag0,unknown
544,1611473072625,51,-1093,-0.0002401611328125,69,13,103,2609459,53966,140845,95535,39267,158030,10825,5917,Tag0,unknown
545,1611473072635,51,-441,-9.68994140625e-05,69,13,103,2609459,53966,140845,95535,39267,158030,10825,5917,Tag0,unknown
546,1611473072653,51,-1458,-0.000320361328125,69,13,103,2609459,53966,140845,95535,39267,158030,10825,5917,Tag0,unknown
547,1611473072663,51,-746,-0.000163916015625,69,13,103,2609459,53966,140845,95535,39267,158030,10825,5917,Tag0,unknown
548,1611473072673,51,-1115,-0.0002449951171875,69,13,103,2609459,53966,140845,95535,39267,158030,10825,5917,Tag0,unknown
549,1611473072687,51,-856,-0.0001880859375,69,13,103,2609459,53966,140845,95535,39267,158030,10825,5917,Tag0,unknown
550,1611473072708,51,-211,-4.63623046875e-05,69,13,103,2609459,53966,140845,95535,39267,158030,10825,5917,Tag0,unknown
551,1611473072718,51,-414,-9.0966796875e-05,69,13,103,2609459,53966,140845,95535,39267,158030,10825,5917,Tag0,unknown
552,1611473072734,51,48,1.0546875e-05,69,13,103,2609459,53966,140845,95535,39267,158030,10825,5917,Tag0,unknown
553,1611473072751,51,341,7.492675781250003e-05,69,13,103,2609459,53966,140845,95535,39267,158030,10825,5917,Tag0,unknown
554,1611473072769,51,784,0.000172265625,69,13,103,2609459,53966,140845,95535,39267,158030,10825,5917,Tag0,unknown
555,1611473072787,51,-67,-1.4721679687500003e-05,69,13,103,2609459,53966,140845,95535,39267,158030,10825,5917,Tag0,unknown
556,1611473072804,51,346,7.6025390625e-05,69,13,103,2609459,53966,140845,95535,39267,158030,10825,5917,Tag0,unknown
557,1611473072814,51,441,9.68994140625e-05,69,13,103,2609459,53966,140845,95535,39267,158030,10825,5917,Tag0,unknown
558,1611473072827,51,117,2.57080078125e-05,69,13,103,2609459,53966,140845,95535,39267,158030,10825,5917,Tag0,unknown
559,1611473072837,51,459,0.0001008544921875,69,13,103,2609459,53966,140845,95535,39267,158030,10825,5917,Tag0,unknown
560,1611473072853,51,-403,-8.854980468749999e-05,69,13,103,2609459,53966,140845,95535,39267,158030,10825,5917,Tag0,unknown
561,1611473072868,51,-499,-0.0001096435546875,69,13,103,2609459,53966,140845,95535,39267,158030,10825,5917,Tag0,unknown
562,1611473072892,51,-523,-0.0001149169921875,69,13,103,2609459,53966,140845,95535,39267,158030,10825,5917,Tag0,unknown
563,1611473072902,51,-20,-4.39453125e-06,69,13,103,2609459,53966,140845,95535,39267,158030,10825,5917,Tag0,unknown
564,1611473072928,51,-1353,-0.0002972900390625,69,13,103,2609459,53966,140845,95535,39267,158030,10825,5917,Tag0,unknown
565,1611473072938,51,-933,-0.0002050048828125,69,13,103,2609459,53966,140845,95535,39267,158030,10825,5917,Tag0,unknown
566,1611473072954,51,-1154,-0.00025356445312500005,69,13,103,2609459,53966,140845,95535,39267,158030,10825,5917,Tag0,unknown
567,1611473072964,51,-1893,-0.0004159423828125,69,13,103,2609459,53966,140845,95535,39267,158030,10825,5917,Tag0,unknown
568,1611473072975,51,-1343,-0.0002950927734375,69,13,103,2609459,53966,140845,95535,39267,158030,10825,5917,Tag0,unknown
569,1611473073002,51,-919,-0.0002019287109375,69,13,103,2609459,53966,140845,95535,39267,158030,10825,5917,Tag0,unknown
570,1611473073019,51,-647,-0.0001421630859375,69,13,103,2609459,53966,140845,95535,39267,158030,10825,5917,Tag0,unknown
571,1611473073029,51,-216,-4.74609375e-05,69,13,103,2609459,53966,140845,95535,39267,158030,10825,5917,Tag0,unknown
572,1611473073042,51,-126,-2.7685546875e-05,69,13,103,2609459,53966,140845,95535,39267,158030,10825,5917,Tag0,unknown
573,1611473073054,51,326,7.163085937500001e-05,69,13,103,2609459,53966,140845,95535,39267,158030,10825,5917,Tag0,unknown
574,1611473073078,51,448,9.84375e-05,69,13,103,2609459,53966,140845,95535,39267,158030,10825,5917,Tag0,unknown
575,1611473073089,51,437,9.60205078125e-05,69,13,103,2609459,53966,140845,95535,39267,158030,10825,5917,Tag0,unknown
576,1611473073099,51,202,4.4384765625e-05,69,13,103,2609459,53966,140845,95535,39267,158030,10825,5917,Tag0,unknown
577,1611473073118,51,-913,-0.0002006103515625,69,13,103,2609459,53966,140845,95535,39267,158030,10825,5917,Tag0,unknown
578,1611473073159,51,45,9.8876953125e-06,69,13,103,2609459,53966,140845,95535,39267,158030,10825,5917,Tag0,unknown
579,1611473073172,51,75,1.64794921875e-05,69,13,103,2609459,53966,140845,95535,39267,158030,10825,5917,Tag0,unknown
580,1611473073182,51,208,4.5703125e-05,69,13,103,2609459,53966,140845,95535,39267,158030,10825,5917,Tag0,unknown
581,1611473073217,51,343,7.53662109375e-05,69,13,103,2609459,53966,140845,95535,39267,158030,10825,5917,Tag0,unknown
582,1611473073239,51,569,0.0001250244140625,69,13,103,2609459,53966,140845,95535,39267,158030,10825,5917,Tag0,unknown
583,1611473073249,51,1715,0.0003768310546875,69,13,103,2609459,53966,140845,95535,39267,158030,10825,5917,Tag0,unknown
584,1611473073259,26,1379,0.0003030029296875,69,13,103,1630680,2090907,42844,120287,174235,1141659,16758175,16747571,Tag0,unknown
585,1611473073276,26,1603,0.0003522216796875,69,13,103,1630680,2090907,42844,120287,174235,1141659,16758175,16747571,Tag0,unknown
586,1611473073287,26,1173,0.0002577392578125,69,13,103,1630680,2090907,42844,120287,174235,1141659,16758175,16747571,Tag0,unknown
587,1611473073304,26,689,0.0001513916015625,69,13,103,1630680,2090907,42844,120287,174235,1141659,16758175,16747571,Tag0,unknown
588,1611473073319,26,797,0.0001751220703125,69,13,103,1630680,2090907,42844,120287,174235,1141659,16758175,16747571,Tag0,unknown
589,1611473073335,26,596,0.00013095703125,69,13,103,1630680,2090907,42844,120287,174235,1141659,16758175,16747571,Tag0,unknown
590,1611473073352,26,176,3.8671875e-05,69,13,103,1630680,2090907,42844,120287,174235,1141659,16758175,16747571,Tag0,unknown
591,1611473073369,26,326,7.163085937500001e-05,69,13,103,1630680,2090907,42844,120287,174235,1141659,16758175,16747571,Tag0,unknown
592,1611473073394,26,291,6.39404296875e-05,69,13,103,1630680,2090907,42844,120287,174235,1141659,16758175,16747571,Tag0,unknown
593,1611473073405,26,283,6.218261718750001e-05,69,13,103,1630680,2090907,42844,120287,174235,1141659,16758175,16747571,Tag0,unknown
594,1611473073415,26,-57,-1.25244140625e-05,69,13,103,1630680,2090907,42844,120287,174235,1141659,16758175,16747571,Tag0,unknown
595,1611473073429,26,-103,-2.26318359375e-05,69,13,103,1630680,2090907,42844,120287,174235,1141659,16758175,16747571,Tag0,unknown
596,1611473073439,26,-116,-2.548828125e-05,69,13,103,1630680,2090907,42844,120287,174235,1141659,16758175,16747571,Tag0,unknown
597,1611473073454,26,100,2.197265625e-05,69,13,103,1630680,2090907,42844,120287,174235,1141659,16758175,16747571,Tag0,unknown
598,1611473073472,26,-266,-5.8447265625e-05,69,13,103,1630680,2090907,42844,120287,174235,1141659,16758175,16747571,Tag0,unknown
599,1611473073487,26,-343,-7.53662109375e-05,69,13,103,1630680,2090907,42844,120287,174235,1141659,16758175,16747571,Tag0,unknown
600,1611473073503,26,-178,-3.9111328125e-05,69,13,103,1630680,2090907,42844,120287,174235,1141659,16758175,16747571,Tag0,unknown
601,1611473073519,26,-162,-3.5595703125e-05,69,13,103,1630680,2090907,42844,120287,174235,1141659,16758175,16747571,Tag0,unknown
602,1611473073545,26,-933,-0.0002050048828125,69,13,103,1630680,2090907,42844,120287,174235,1141659,16758175,16747571,Tag0,unknown
603,1611473073555,26,-483,-0.0001061279296875,69,13,103,1630680,2090907,42844,120287,174235,1141659,16758175,16747571,Tag0,unknown
604,1611473073579,26,-1349,-0.00029641113281250004,69,13,103,1630680,2090907,42844,120287,174235,1141659,16758175,16747571,Tag0,unknown
605,1611473073590,26,-1600,-0.0003515625,69,13,103,1630680,2090907,42844,120287,174235,1141659,16758175,16747571,Tag0,unknown
606,1611473073606,26,-855,-0.0001878662109375,69,13,103,1630680,2090907,42844,120287,174235,1141659,16758175,16747571,Tag0,unknown
607,1611473073633,26,-1058,-0.000232470703125,69,13,103,1630680,2090907,42844,120287,174235,1141659,16758175,16747571,Tag0,unknown
608,1611473073643,26,-467,-0.0001026123046875,69,13,103,1630680,2090907,42844,120287,174235,1141659,16758175,16747571,Tag0,unknown
609,1611473073655,26,-890,-0.000195556640625,69,13,103,1630680,2090907,42844,120287,174235,1141659,16758175,16747571,Tag0,unknown
610,1611473073685,26,-649,-0.00014260253906250002,69,13,103,1630680,2090907,42844,120287,174235,1141659,16758175,16747571,Tag0,unknown
611,1611473073703,26,-426,-9.3603515625e-05,69,13,103,1630680,2090907,42844,120287,174235,1141659,16758175,16747571,Tag0,unknown
612,1611473073736,26,-308,-6.767578125e-05,69,13,103,1630680,2090907,42844,120287,174235,1141659,16758175,16747571,Tag0,unknown
613,1611473073755,26,-503,-0.0001105224609375,69,13,103,1630680,2090907,42844,120287,174235,1141659,16758175,16747571,Tag0,unknown
614,1611473073765,26,-407,-8.94287109375e-05,69,13,103,1630680,2090907,42844,120287,174235,1141659,16758175,16747571,Tag0,unknown
615,1611473073775,26,-595,-0.0001307373046875,69,13,103,1630680,2090907,42844,120287,174235,1141659,16758175,16747571,Tag0,unknown
616,1611473073794,26,-1821,-0.0004001220703125,69,13,103,1630680,2090907,42844,120287,174235,1141659,16758175,16747571,Tag0,unknown
617,1611473073807,26,-1799,-0.0003952880859375001,69,13,103,1630680,2090907,42844,120287,174235,1141659,16758175,16747571,Tag0,unknown
618,1611473073817,26,-1219,-0.00026784667968750005,69,13,103,1630680,2090907,42844,120287,174235,1141659,16758175,16747571,Tag0,unknown
619,1611473073827,26,-870,-0.000191162109375,69,13,103,1630680,2090907,42844,120287,174235,1141659,16758175,16747571,Tag0,unknown
620,1611473073858,26,-456,-0.0001001953125,69,13,103,1630680,2090907,42844,120287,174235,1141659,16758175,16747571,Tag0,unknown
621,1611473073869,26,-438,-9.6240234375e-05,69,13,103,1630680,2090907,42844,120287,174235,1141659,16758175,16747571,Tag0,unknown
622,1611473073886,26,-172,-3.779296875000001e-05,69,13,103,1630680,2090907,42844,120287,174235,1141659,16758175,16747571,Tag0,unknown
623,1611473073916,26,-139,-3.0541992187500004e-05,69,13,103,1630680,2090907,42844,120287,174235,1141659,16758175,16747571,Tag0,unknown
624,1611473073936,26,-359,-7.88818359375e-05,69,13,103,1630680,2090907,42844,120287,174235,1141659,16758175,16747571,Tag0,unknown
625,1611473073946,26,-268,-5.888671875000001e-05,69,13,103,1630680,2090907,42844,120287,174235,1141659,16758175,16747571,Tag0,unknown
626,1611473073976,26,9,1.9775390625e-06,69,13,103,1630680,2090907,42844,120287,174235,1141659,16758175,16747571,Tag0,unknown
627,1611473073986,26,10,2.197265625e-06,69,13,103,1630680,2090907,42844,120287,174235,1141659,16758175,16747571,Tag0,unknown
628,1611473074035,26,42,9.228515625000003e-06,69,13,103,1630680,2090907,42844,120287,174235,1141659,16758175,16747571,Tag0,unknown
629,1611473074057,26,43,9.4482421875e-06,69,13,103,1630680,2090907,42844,120287,174235,1141659,16758175,16747571,Tag0,unknown
630,1611473074067,26,51,1.12060546875e-05,69,13,103,1630680,2090907,42844,120287,174235,1141659,16758175,16747571,Tag0,unknown
631,1611473074077,26,68,1.494140625e-05,69,13,103,1630680,2090907,42844,120287,174235,1141659,16758175,16747571,Tag0,unknown
632,1611473074087,26,198,4.350585937500001e-05,69,13,103,1630680,2090907,42844,120287,174235,1141659,16758175,16747571,Tag0,unknown
633,1611473074097,26,1791,0.0003935302734375,69,13,103,1630680,2090907,42844,120287,174235,1141659,16758175,16747571,Tag0,unknown
634,1611473074108,26,1791,0.0003935302734375,69,13,103,1630680,2090907,42844,120287,174235,1141659,16758175,16747571,Tag0,unknown
635,1611473074127,26,980,0.00021533203125,69,13,103,1630680,2090907,42844,120287,174235,1141659,16758175,16747571,Tag0,unknown
636,1611473074137,26,1212,0.00026630859375,69,13,103,1630680,2090907,42844,120287,174235,1141659,16758175,16747571,Tag0,unknown
637,1611473074160,26,-2048,-0.00045,69,13,103,1630680,2090907,42844,120287,174235,1141659,16758175,16747571,Tag0,unknown
638,1611473074174,26,-2048,-0.00045,69,13,103,1630680,2090907,42844,120287,174235,1141659,16758175,16747571,Tag0,unknown
639,1611473074198,26,-1218,-0.000267626953125,69,13,103,1630680,2090907,42844,120287,174235,1141659,16758175,16747571,Tag0,unknown
640,1611473074209,26,-1189,-0.0002612548828125,69,13,103,1630680,2090907,42844,120287,174235,1141659,16758175,16747571,Tag0,unknown
641,1611473074221,26,-1092,-0.00023994140625000006,69,13,103,1630680,2090907,42844,120287,174235,1141659,16758175,16747571,Tag0,unknown
642,1611473074238,26,-1059,-0.0002326904296875,69,13,103,1630680,2090907,42844,120287,174235,1141659,16758175,16747571,Tag0,unknown
643,1611473074256,26,-1026,-0.000225439453125,69,13,103,1630680,2090907,42844,120287,174235,1141659,16758175,16747571,Tag0,unknown
644,1611473074266,51,-787,-0.0001729248046875,69,13,103,2324655,150792,16770197,52778,70391,19990,13725,3978,Tag0,unknown
645,1611473074282,51,-585,-0.0001285400390625,69,13,103,2324655,150792,16770197,52778,70391,19990,13725,3978,Tag0,unknown
646,1611473074306,51,-345,-7.58056640625e-05,69,13,103,2324655,150792,16770197,52778,70391,19990,13725,3978,Tag0,unknown
647,1611473074320,51,-340,-7.470703125e-05,69,13,103,2324655,150792,16770197,52778,70391,19990,13725,3978,Tag0,unknown
648,1611473074340,51,-290,-6.3720703125e-05,69,13,103,2324655,150792,16770197,52778,70391,19990,13725,3978,Tag0,unknown
649,1611473074355,51,-285,-6.26220703125e-05,69,13,103,2324655,150792,16770197,52778,70391,19990,13725,3978,Tag0,unknown
650,1611473074374,51,3,6.591796875e-07,69,13,103,2324655,150792,16770197,52778,70391,19990,13725,3978,Tag0,unknown
651,1611473074392,51,6,1.318359375e-06,69,13,103,2324655,150792,16770197,52778,70391,19990,13725,3978,Tag0,unknown
652,1611473074402,51,25,5.4931640625e-06,69,13,103,2324655,150792,16770197,52778,70391,19990,13725,3978,Tag0,unknown
653,1611473074413,51,50,1.0986328125e-05,69,13,103,2324655,150792,16770197,52778,70391,19990,13725,3978,Tag0,unknown
654,1611473074425,51,103,2.26318359375e-05,69,13,103,2324655,150792,16770197,52778,70391,19990,13725,3978,Tag0,unknown
655,1611473074448,51,-112,-2.4609375e-05,69,13,103,2324655,150792,16770197,52778,70391,19990,13725,3978,Tag0,unknown
656,1611473074458,51,104,2.28515625e-05,69,13,103,2324655,150792,16770197,52778,70391,19990,13725,3978,Tag0,unknown
657,1611473074474,51,179,3.93310546875e-05,69,13,103,2324655,150792,16770197,52778,70391,19990,13725,3978,Tag0,unknown
658,1611473074487,51,130,2.8564453125e-05,69,13,103,2324655,150792,16770197,52778,70391,19990,13725,3978,Tag0,unknown
659,1611473074504,51,346,7.6025390625e-05,69,13,103,2324655,150792,16770197,52778,70391,19990,13725,3978,Tag0,unknown
660,1611473074523,51,332,7.294921875e-05,69,13,103,2324655,150792,16770197,52778,70391,19990,13725,3978,Tag0,unknown
661,1611473074540,51,408,8.964843749999999e-05,69,13,103,2324655,150792,16770197,52778,70391,19990,13725,3978,Tag0,unknown
662,1611473074572,51,87,1.91162109375e-05,69,13,103,2324655,150792,16770197,52778,70391,19990,13725,3978,Tag0,unknown
663,1611473074589,51,-286,-6.2841796875e-05,69,13,103,2324655,150792,16770197,52778,70391,19990,13725,3978,Tag0,unknown
664,1611473074599,51,-309,-6.78955078125e-05,69,13,103,2324655,150792,16770197,52778,70391,19990,13725,3978,Tag0,unknown
665,1611473074639,51,10,2.197265625e-06,69,13,103,2324655,150792,16770197,52778,70391,19990,13725,3978,Tag0,unknown
666,1611473074659,51,-317,-6.96533203125e-05,69,13,103,2324655,150792,16770197,52778,70391,19990,13725,3978,Tag0,unknown
667,1611473074669,51,-94,-2.0654296875e-05,69,13,103,2324655,150792,16770197,52778,70391,19990,13725,3978,Tag0,unknown
668,1611473074679,51,-311,-6.833496093750001e-05,69,13,103,2324655,150792,16770197,52778,70391,19990,13725,3978,Tag0,unknown
669,1611473074698,51,-273,-5.9985351562500014e-05,69,13,103,2324655,150792,16770197,52778,70391,19990,13725,3978,Tag0,unknown
670,1611473074708,51,633,0.00013908691406250002,69,13,103,2324655,150792,16770197,52778,70391,19990,13725,3978,Tag0,unknown
671,1611473074721,51,305,6.70166015625e-05,69,13,103,2324655,150792,16770197,52778,70391,19990,13725,3978,Tag0,unknown
672,1611473074738,51,141,3.09814453125e-05,69,13,103,2324655,150792,16770197,52778,70391,19990,13725,3978,Tag0,unknown
673,1611473074754,51,1062,0.000233349609375,69,13,103,2324655,150792,16770197,52778,70391,19990,13725,3978,Tag0,unknown
674,1611473074772,51,225,4.94384765625e-05,69,13,103,2324655,150792,16770197,52778,70391,19990,13725,3978,Tag0,unknown
675,1611473074788,51,633,0.00013908691406250002,69,13,103,2324655,150792,16770197,52778,70391,19990,13725,3978,Tag0,unknown
676,1611473074809,51,361,7.93212890625e-05,69,13,103,2324655,150792,16770197,52778,70391,19990,13725,3978,Tag0,unknown
677,1611473074826,51,-46,-1.0107421875e-05,69,13,103,2324655,150792,16770197,52778,70391,19990,13725,3978,Tag0,unknown
678,1611473074836,51,633,0.00013908691406250002,69,13,103,2324655,150792,16770197,52778,70391,19990,13725,3978,Tag0,unknown
679,1611473074850,51,-771,-0.0001694091796875,69,13,103,2324655,150792,16770197,52778,70391,19990,13725,3978,Tag0,unknown
680,1611473074864,51,400,8.7890625e-05,69,13,103,2324655,150792,16770197,52778,70391,19990,13725,3978,Tag0,unknown
681,1611473074882,51,410,9.0087890625e-05,69,13,103,2324655,150792,16770197,52778,70391,19990,13725,3978,Tag0,unknown
682,1611473074892,51,584,0.00012832031250000002,69,13,103,2324655,150792,16770197,52778,70391,19990,13725,3978,Tag0,unknown
683,1611473074905,51,709,0.0001557861328125,69,13,103,2324655,150792,16770197,52778,70391,19990,13725,3978,Tag0,unknown
684,1611473074921,51,581,0.0001276611328125,69,13,103,2324655,150792,16770197,52778,70391,19990,13725,3978,Tag0,unknown
685,1611473074939,51,539,0.0001184326171875,69,13,103,2324655,150792,16770197,52778,70391,19990,13725,3978,Tag0,unknown
686,1611473074956,51,485,0.0001065673828125,69,13,103,2324655,150792,16770197,52778,70391,19990,13725,3978,Tag0,unknown
687,1611473074973,51,1106,0.000243017578125,69,13,103,2324655,150792,16770197,52778,70391,19990,13725,3978,Tag0,unknown
688,1611473074983,51,577,0.00012678222656250002,69,13,103,2324655,150792,16770197,52778,70391,19990,13725,3978,Tag0,unknown
689,1611473074993,51,481,0.0001056884765625,69,13,103,2324655,150792,16770197,52778,70391,19990,13725,3978,Tag0,unknown
690,1611473075007,51,848,0.000186328125,69,13,103,2324655,150792,16770197,52778,70391,19990,13725,3978,Tag0,unknown
691,1611473075025,51,-111,-2.43896484375e-05,69,13,103,2324655,150792,16770197,52778,70391,19990,13725,3978,Tag0,unknown
692,1611473075042,51,-133,-2.92236328125e-05,69,13,103,2324655,150792,16770197,52778,70391,19990,13725,3978,Tag0,unknown
693,1611473075065,51,545,0.0001197509765625,69,13,103,2324655,150792,16770197,52778,70391,19990,13725,3978,Tag0,unknown
694,1611473075075,51,441,9.68994140625e-05,69,13,103,2324655,150792,16770197,52778,70391,19990,13725,3978,Tag0,unknown
695,1611473075098,51,-536,-0.0001177734375,69,13,103,2324655,150792,16770197,52778,70391,19990,13725,3978,Tag0,unknown
696,1611473075108,51,120,2.63671875e-05,69,13,103,2324655,150792,16770197,52778,70391,19990,13725,3978,Tag0,unknown
697,1611473075123,51,-345,-7.58056640625e-05,69,13,103,2324655,150792,16770197,52778,70391,19990,13725,3978,Tag0,unknown
698,1611473075150,51,-295,-6.48193359375e-05,69,13,103,2324655,150792,16770197,52778,70391,19990,13725,3978,Tag0,unknown
699,1611473075160,51,130,2.8564453125e-05,69,13,103,2324655,150792,16770197,52778,70391,19990,13725,3978,Tag0,unknown
700,1611473075174,51,-167,-3.66943359375e-05,69,13,103,2324655,150792,16770197,52778,70391,19990,13725,3978,Tag0,unknown
701,1611473075193,51,-627,-0.0001377685546875,69,13,103,2324655,150792,16770197,52778,70391,19990,13725,3978,Tag0,unknown
702,1611473075206,51,125,2.74658203125e-05,69,13,103,2324655,150792,16770197,52778,70391,19990,13725,3978,Tag0,unknown
703,1611473075225,51,-629,-0.0001382080078125,69,13,103,2324655,150792,16770197,52778,70391,19990,13725,3978,Tag0,unknown
704,1611473075239,51,-849,-0.0001865478515625,69,13,103,2324655,150792,16770197,52778,70391,19990,13725,3978,Tag0,unknown
705,1611473075265,26,-658,-0.000144580078125,69,13,103,2027263,353895,140600,28310,16757873,52435,27736,5987,Tag0,unknown
706,1611473075275,26,-484,-0.00010634765625,69,13,103,2027263,353895,140600,28310,16757873,52435,27736,5987,Tag0,unknown
707,1611473075290,26,283,6.218261718750001e-05,69,13,103,2027263,353895,140600,28310,16757873,52435,27736,5987,Tag0,unknown
708,1611473075311,26,35,7.6904296875e-06,69,13,103,2027263,353895,140600,28310,16757873,52435,27736,5987,Tag0,unknown
709,1611473075326,26,665,0.0001461181640625,69,13,103,2027263,353895,140600,28310,16757873,52435,27736,5987,Tag0,unknown
710,1611473075336,26,482,0.000105908203125,69,13,103,2027263,353895,140600,28310,16757873,52435,27736,5987,Tag0,unknown
711,1611473075348,26,724,0.00015908203125000002,69,13,103,2027263,353895,140600,28310,16757873,52435,27736,5987,Tag0,unknown
712,1611473075359,26,833,0.0001830322265625,69,13,103,2027263,353895,140600,28310,16757873,52435,27736,5987,Tag0,unknown
713,1611473075381,26,124,2.724609375e-05,69,13,103,2027263,353895,140600,28310,16757873,52435,27736,5987,Tag0,unknown
714,1611473075393,26,-375,-8.23974609375e-05,69,13,103,2027263,353895,140600,28310,16757873,52435,27736,5987,Tag0,unknown
715,1611473075407,26,-581,-0.0001276611328125,69,13,103,2027263,353895,140600,28310,16757873,52435,27736,5987,Tag0,unknown
716,1611473075422,26,0,0.0,69,13,103,2027263,353895,140600,28310,16757873,52435,27736,5987,Tag0,unknown
717,1611473075439,26,257,5.64697265625e-05,69,13,103,2027263,353895,140600,28310,16757873,52435,27736,5987,Tag0,unknown
718,1611473075460,26,-859,-0.0001887451171875,69,13,103,2027263,353895,140600,28310,16757873,52435,27736,5987,Tag0,unknown
719,1611473075478,26,-584,-0.00012832031250000002,69,13,103,2027263,353895,140600,28310,16757873,52435,27736,5987,Tag0,unknown
720,1611473075488,26,-235,-5.16357421875e-05,69,13,103,2027263,353895,140600,28310,16757873,52435,27736,5987,Tag0,unknown
721,1611473075498,26,-500,-0.00010986328125,69,13,103,2027263,353895,140600,28310,16757873,52435,27736,5987,Tag0,unknown
722,1611473075510,26,-839,-0.0001843505859375,69,13,103,2027263,353895,140600,28310,16757873,52435,27736,5987,Tag0,unknown
723,1611473075529,26,-1431,-0.0003144287109375,69,13,103,2027263,353895,140600,28310,16757873,52435,27736,5987,Tag0,unknown
724,1611473075540,26,-1624,-0.0003568359375000001,69,13,103,2027263,353895,140600,28310,16757873,52435,27736,5987,Tag0,unknown
725,1611473075550,26,-1290,-0.000283447265625,69,13,103,2027263,353895,140600,28310,16757873,52435,27736,5987,Tag0,unknown
726,1611473075568,26,-1057,-0.0002322509765625,69,13,103,2027263,353895,140600,28310,16757873,52435,27736,5987,Tag0,unknown
727,1611473075591,26,-38,-8.349609375e-06,69,13,103,2027263,353895,140600,28310,16757873,52435,27736,5987,Tag0,unknown
728,1611473075607,26,-243,-5.33935546875e-05,69,13,103,2027263,353895,140600,28310,16757873,52435,27736,5987,Tag0,unknown
729,1611473075625,26,-263,-5.778808593750001e-05,69,13,103,2027263,353895,140600,28310,16757873,52435,27736,5987,Tag0,unknown
730,1611473075635,26,280,6.15234375e-05,69,13,103,2027263,353895,140600,28310,16757873,52435,27736,5987,Tag0,unknown
731,1611473075650,26,-69,-1.51611328125e-05,69,13,103,2027263,353895,140600,28310,16757873,52435,27736,5987,Tag0,unknown
732,1611473075660,26,107,2.35107421875e-05,69,13,103,2027263,353895,140600,28310,16757873,52435,27736,5987,Tag0,unknown
733,1611473075675,26,-110,-2.4169921875e-05,69,13,103,2027263,353895,140600,28310,16757873,52435,27736,5987,Tag0,unknown
734,1611473075693,26,88,1.93359375e-05,69,13,103,2027263,353895,140600,28310,16757873,52435,27736,5987,Tag0,unknown
735,1611473075703,26,-407,-8.94287109375e-05,69,13,103,2027263,353895,140600,28310,16757873,52435,27736,5987,Tag0,unknown
736,1611473075722,26,-830,-0.000182373046875,69,13,103,2027263,353895,140600,28310,16757873,52435,27736,5987,Tag0,unknown
737,1611473075746,26,-428,-9.404296875e-05,69,13,103,2027263,353895,140600,28310,16757873,52435,27736,5987,Tag0,unknown
738,1611473075757,26,-795,-0.0001746826171875,69,13,103,2027263,353895,140600,28310,16757873,52435,27736,5987,Tag0,unknown
739,1611473075777,26,314,6.8994140625e-05,69,13,103,2027263,353895,140600,28310,16757873,52435,27736,5987,Tag0,unknown
740,1611473075790,26,774,0.000170068359375,69,13,103,2027263,353895,140600,28310,16757873,52435,27736,5987,Tag0,unknown
741,1611473075809,26,1819,0.0003996826171875001,69,13,103,2027263,353895,140600,28310,16757873,52435,27736,5987,Tag0,unknown
742,1611473075826,26,1330,0.000292236328125,69,13,103,2027263,353895,140600,28310,16757873,52435,27736,5987,Tag0,unknown
743,1611473075840,26,1107,0.0002432373046875,69,13,103,2027263,353895,140600,28310,16757873,52435,27736,5987,Tag0,unknown
744,1611473075850,26,1319,0.0002898193359375,69,13,103,2027263,353895,140600,28310,16757873,52435,27736,5987,Tag0,unknown
745,1611473075863,26,683,0.0001500732421875,69,13,103,2027263,353895,140600,28310,16757873,52435,27736,5987,Tag0,unknown
746,1611473075873,26,663,0.0001456787109375,69,13,103,2027263,353895,140600,28310,16757873,52435,27736,5987,Tag0,unknown
747,1611473075895,26,177,3.889160156250001e-05,69,13,103,2027263,353895,140600,28310,16757873,52435,27736,5987,Tag0,unknown
748,1611473075908,26,186,4.0869140625e-05,69,13,103,2027263,353895,140600,28310,16757873,52435,27736,5987,Tag0,unknown
749,1611473075931,26,-15,-3.2958984375e-06,69,13,103,2027263,353895,140600,28310,16757873,52435,27736,5987,Tag0,unknown
750,1611473075943,26,121,2.6586914062500006e-05,69,13,103,2027263,353895,140600,28310,16757873,52435,27736,5987,Tag0,unknown
751,1611473075968,26,-146,-3.2080078125000004e-05,69,13,103,2027263,353895,140600,28310,16757873,52435,27736,5987,Tag0,unknown
752,1611473075978,26,-267,-5.86669921875e-05,69,13,103,2027263,353895,140600,28310,16757873,52435,27736,5987,Tag0,unknown
753,1611473075992,26,90,1.9775390625e-05,69,13,103,2027263,353895,140600,28310,16757873,52435,27736,5987,Tag0,unknown
754,1611473076002,26,-748,-0.00016435546875,69,13,103,2027263,353895,140600,28310,16757873,52435,27736,5987,Tag0,unknown
755,1611473076012,26,-333,-7.316894531249999e-05,69,13,103,2027263,353895,140600,28310,16757873,52435,27736,5987,Tag0,unknown
756,1611473076025,26,-523,-0.0001149169921875,69,13,103,2027263,353895,140600,28310,16757873,52435,27736,5987,Tag0,unknown
757,1611473076045,26,-999,-0.0002195068359375,69,13,103,2027263,353895,140600,28310,16757873,52435,27736,5987,Tag0,unknown
758,1611473076055,26,-625,-0.0001373291015625,69,13,103,2027263,353895,140600,28310,16757873,52435,27736,5987,Tag0,unknown
759,1611473076065,26,-971,-0.0002133544921875,69,13,103,2027263,353895,140600,28310,16757873,52435,27736,5987,Tag0,unknown
760,1611473076083,26,-710,-0.000156005859375,69,13,103,2027263,353895,140600,28310,16757873,52435,27736,5987,Tag0,unknown
761,1611473076093,26,-260,-5.712890625e-05,69,13,103,2027263,353895,140600,28310,16757873,52435,27736,5987,Tag0,unknown
762,1611473076116,26,-811,-0.0001781982421875,69,13,103,2027263,353895,140600,28310,16757873,52435,27736,5987,Tag0,unknown
763,1611473076126,26,-860,-0.00018896484375,69,13,103,2027263,353895,140600,28310,16757873,52435,27736,5987,Tag0,unknown
764,1611473076136,26,17,3.7353515625e-06,69,13,103,2027263,353895,140600,28310,16757873,52435,27736,5987,Tag0,unknown
765,1611473076146,26,-627,-0.0001377685546875,69,13,103,2027263,353895,140600,28310,16757873,52435,27736,5987,Tag0,unknown
766,1611473076159,26,-488,-0.0001072265625,69,13,103,2027263,353895,140600,28310,16757873,52435,27736,5987,Tag0,unknown
767,1611473076175,26,368,8.0859375e-05,69,13,103,2027263,353895,140600,28310,16757873,52435,27736,5987,Tag0,unknown
768,1611473076193,26,-150,-3.2958984375e-05,69,13,103,2027263,353895,140600,28310,16757873,52435,27736,5987,Tag0,unknown
769,1611473076203,26,871,0.0001913818359375,69,13,103,2027263,353895,140600,28310,16757873,52435,27736,5987,Tag0,unknown
770,1611473076242,26,-52,-1.142578125e-05,69,13,103,1199771,327232,14116,69364,18963,526698,14290,8823,Tag0,unknown
771,1611473076263,26,145,3.18603515625e-05,69,13,103,1199771,327232,14116,69364,18963,526698,14290,8823,Tag0,unknown
772,1611473076274,26,778,0.000170947265625,69,13,103,1199771,327232,14116,69364,18963,526698,14290,8823,Tag0,unknown
773,1611473076297,26,-625,-0.0001373291015625,69,13,103,1199771,327232,14116,69364,18963,526698,14290,8823,Tag0,unknown
774,1611473076309,26,-485,-0.0001065673828125,69,13,103,1199771,327232,14116,69364,18963,526698,14290,8823,Tag0,unknown
775,1611473076319,26,-328,-7.207031249999999e-05,69,13,103,1199771,327232,14116,69364,18963,526698,14290,8823,Tag0,unknown
776,1611473076336,26,-362,-7.954101562500001e-05,69,13,103,1199771,327232,14116,69364,18963,526698,14290,8823,Tag0,unknown
777,1611473076346,26,115,2.52685546875e-05,69,13,103,1199771,327232,14116,69364,18963,526698,14290,8823,Tag0,unknown
778,1611473076359,26,217,4.76806640625e-05,69,13,103,1199771,327232,14116,69364,18963,526698,14290,8823,Tag0,unknown
779,1611473076376,26,-1045,-0.0002296142578125,69,13,103,1199771,327232,14116,69364,18963,526698,14290,8823,Tag0,unknown
780,1611473076393,26,-657,-0.0001443603515625,69,13,103,1199771,327232,14116,69364,18963,526698,14290,8823,Tag0,unknown
781,1611473076430,26,-1033,-0.0002269775390625,69,13,103,1199771,327232,14116,69364,18963,526698,14290,8823,Tag0,unknown
782,1611473076441,26,-663,-0.0001456787109375,69,13,103,1199771,327232,14116,69364,18963,526698,14290,8823,Tag0,unknown
783,1611473076451,26,-685,-0.0001505126953125,69,13,103,1199771,327232,14116,69364,18963,526698,14290,8823,Tag0,unknown
784,1611473076466,26,-467,-0.0001026123046875,69,13,103,1199771,327232,14116,69364,18963,526698,14290,8823,Tag0,unknown
785,1611473076477,26,-229,-5.03173828125e-05,69,13,103,1199771,327232,14116,69364,18963,526698,14290,8823,Tag0,unknown
786,1611473076487,26,334,7.338867187500001e-05,69,13,103,1199771,327232,14116,69364,18963,526698,14290,8823,Tag0,unknown
787,1611473076497,26,119,2.6147460937500007e-05,69,13,103,1199771,327232,14116,69364,18963,526698,14290,8823,Tag0,unknown
788,1611473076507,26,-5,-1.0986328125e-06,69,13,103,1199771,327232,14116,69364,18963,526698,14290,8823,Tag0,unknown
789,1611473076533,26,178,3.9111328125e-05,69,13,103,1199771,327232,14116,69364,18963,526698,14290,8823,Tag0,unknown
790,1611473076543,26,162,3.5595703125e-05,69,13,103,1199771,327232,14116,69364,18963,526698,14290,8823,Tag0,unknown
791,1611473076567,26,-332,-7.294921875e-05,69,13,103,1199771,327232,14116,69364,18963,526698,14290,8823,Tag0,unknown
792,1611473076577,26,-212,-4.658203125000001e-05,69,13,103,1199771,327232,14116,69364,18963,526698,14290,8823,Tag0,unknown
793,1611473076592,26,-540,-0.00011865234375,69,13,103,1199771,327232,14116,69364,18963,526698,14290,8823,Tag0,unknown
794,1611473076610,26,141,3.09814453125e-05,69,13,103,1199771,327232,14116,69364,18963,526698,14290,8823,Tag0,unknown
795,1611473076626,26,764,0.00016787109375,69,13,103,1199771,327232,14116,69364,18963,526698,14290,8823,Tag0,unknown
796,1611473076644,26,-83,-1.82373046875e-05,69,13,103,1199771,327232,14116,69364,18963,526698,14290,8823,Tag0,unknown
797,1611473076660,26,533,0.0001171142578125,69,13,103,1199771,327232,14116,69364,18963,526698,14290,8823,Tag0,unknown
798,1611473076670,26,578,0.000127001953125,69,13,103,1199771,327232,14116,69364,18963,526698,14290,8823,Tag0,unknown
799,1611473076680,26,492,0.00010810546875,69,13,103,1199771,327232,14116,69364,18963,526698,14290,8823,Tag0,unknown
800,1611473076694,26,723,0.0001588623046875,69,13,103,1199771,327232,14116,69364,18963,526698,14290,8823,Tag0,unknown
801,1611473076711,26,711,0.0001562255859375,69,13,103,1199771,327232,14116,69364,18963,526698,14290,8823,Tag0,unknown
802,1611473076727,26,1043,0.0002291748046875,69,13,103,1199771,327232,14116,69364,18963,526698,14290,8823,Tag0,unknown
803,1611473076737,26,130,2.8564453125e-05,69,13,103,1199771,327232,14116,69364,18963,526698,14290,8823,Tag0,unknown
804,1611473076750,26,214,4.7021484375e-05,69,13,103,1199771,327232,14116,69364,18963,526698,14290,8823,Tag0,unknown
805,1611473076760,26,629,0.0001382080078125,69,13,103,1199771,327232,14116,69364,18963,526698,14290,8823,Tag0,unknown
806,1611473076785,26,298,6.5478515625e-05,69,13,103,1199771,327232,14116,69364,18963,526698,14290,8823,Tag0,unknown
807,1611473076809,26,345,7.58056640625e-05,69,13,103,1199771,327232,14116,69364,18963,526698,14290,8823,Tag0,unknown
808,1611473076833,26,-796,-0.00017490234374999998,69,13,103,1199771,327232,14116,69364,18963,526698,14290,8823,Tag0,unknown
809,1611473076857,26,-1057,-0.0002322509765625,69,13,103,1199771,327232,14116,69364,18963,526698,14290,8823,Tag0,unknown
810,1611473076876,26,-739,-0.0001623779296875,69,13,103,1199771,327232,14116,69364,18963,526698,14290,8823,Tag0,unknown
811,1611473076894,26,-948,-0.00020830078125,69,13,103,1199771,327232,14116,69364,18963,526698,14290,8823,Tag0,unknown
812,1611473076910,26,-1625,-0.0003570556640625,69,13,103,1199771,327232,14116,69364,18963,526698,14290,8823,Tag0,unknown
813,1611473076920,26,-923,-0.0002028076171875,69,13,103,1199771,327232,14116,69364,18963,526698,14290,8823,Tag0,unknown
814,1611473077037,26,-1330,-0.000292236328125,69,13,103,1199771,327232,14116,69364,18963,526698,14290,8823,Tag0,unknown
815,1611473077061,26,-1367,-0.0003003662109375,69,13,103,1199771,327232,14116,69364,18963,526698,14290,8823,Tag0,unknown
816,1611473077072,26,-1098,-0.000241259765625,69,13,103,1199771,327232,14116,69364,18963,526698,14290,8823,Tag0,unknown
817,1611473077104,26,-681,-0.0001496337890625,69,13,103,1199771,327232,14116,69364,18963,526698,14290,8823,Tag0,unknown
818,1611473077127,26,-657,-0.0001443603515625,69,13,103,1199771,327232,14116,69364,18963,526698,14290,8823,Tag0,unknown
819,1611473077172,26,-179,-3.93310546875e-05,69,13,103,1199771,327232,14116,69364,18963,526698,14290,8823,Tag0,unknown
820,1611473077198,26,-629,-0.0001382080078125,69,13,103,1199771,327232,14116,69364,18963,526698,14290,8823,Tag0,unknown
821,1611473077209,26,64,1.40625e-05,69,13,103,1199771,327232,14116,69364,18963,526698,14290,8823,Tag0,unknown
822,1611473077313,26,-165,-3.62548828125e-05,69,13,103,1199771,327232,14116,69364,18963,526698,14290,8823,Tag0,unknown
823,1611473077338,26,81,1.77978515625e-05,69,13,103,1199771,327232,14116,69364,18963,526698,14290,8823,Tag0,unknown
824,1611473077348,26,215,4.72412109375e-05,69,13,103,1199771,327232,14116,69364,18963,526698,14290,8823,Tag0,unknown
825,1611473077362,26,84,1.8457031250000007e-05,69,13,103,1199771,327232,14116,69364,18963,526698,14290,8823,Tag0,unknown
826,1611473077379,26,-270,-5.9326171875e-05,69,13,103,1199771,327232,14116,69364,18963,526698,14290,8823,Tag0,unknown
827,1611473077395,26,2,4.39453125e-07,69,13,103,1199771,327232,14116,69364,18963,526698,14290,8823,Tag0,unknown
828,1611473077447,26,353,7.75634765625e-05,69,13,103,1199771,327232,14116,69364,18963,526698,14290,8823,Tag0,unknown
829,1611473077467,26,135,2.96630859375e-05,69,13,103,1199771,327232,14116,69364,18963,526698,14290,8823,Tag0,unknown
830,1611473077478,26,537,0.0001179931640625,69,13,103,1199771,327232,14116,69364,18963,526698,14290,8823,Tag0,unknown
831,1611473077493,26,392,8.61328125e-05,69,13,103,1199771,327232,14116,69364,18963,526698,14290,8823,Tag0,unknown
832,1611473077510,26,372,8.173828125e-05,69,13,103,1199771,327232,14116,69364,18963,526698,14290,8823,Tag0,unknown
833,1611473077520,26,-91,-1.99951171875e-05,69,13,103,1199771,327232,14116,69364,18963,526698,14290,8823,Tag0,unknown
834,1611473077533,26,-438,-9.6240234375e-05,69,13,103,1199771,327232,14116,69364,18963,526698,14290,8823,Tag0,unknown
835,1611473077543,26,-457,-0.0001004150390625,69,13,103,1199771,327232,14116,69364,18963,526698,14290,8823,Tag0,unknown
836,1611473077553,26,809,0.0001777587890625,69,13,103,1199771,327232,14116,69364,18963,526698,14290,8823,Tag0,unknown
837,1611473077575,26,135,2.96630859375e-05,69,13,103,1199771,327232,14116,69364,18963,526698,14290,8823,Tag0,unknown
838,1611473077598,26,646,0.000141943359375,69,13,103,1199771,327232,14116,69364,18963,526698,14290,8823,Tag0,unknown
839,1611473077609,26,871,0.0001913818359375,69,13,103,1199771,327232,14116,69364,18963,526698,14290,8823,Tag0,unknown
840,1611473077635,26,581,0.0001276611328125,69,13,103,1199771,327232,14116,69364,18963,526698,14290,8823,Tag0,unknown
841,1611473077646,26,564,0.00012392578125,69,13,103,1199771,327232,14116,69364,18963,526698,14290,8823,Tag0,unknown
842,1611473077661,26,164,3.603515625e-05,69,13,103,1199771,327232,14116,69364,18963,526698,14290,8823,Tag0,unknown
843,1611473077671,26,277,6.086425781250001e-05,69,13,103,1199771,327232,14116,69364,18963,526698,14290,8823,Tag0,unknown
844,1611473077681,26,-23,-5.0537109375e-06,69,13,103,1199771,327232,14116,69364,18963,526698,14290,8823,Tag0,unknown
845,1611473077709,26,-60,-1.318359375e-05,69,13,103,1199771,327232,14116,69364,18963,526698,14290,8823,Tag0,unknown
846,1611473077734,26,-64,-1.40625e-05,69,13,103,1199771,327232,14116,69364,18963,526698,14290,8823,Tag0,unknown
847,1611473077744,26,-91,-1.99951171875e-05,69,13,103,1199771,327232,14116,69364,18963,526698,14290,8823,Tag0,unknown
848,1611473077754,26,72,1.58203125e-05,69,13,103,1199771,327232,14116,69364,18963,526698,14290,8823,Tag0,unknown
849,1611473077764,26,-443,-9.73388671875e-05,69,13,103,1199771,327232,14116,69364,18963,526698,14290,8823,Tag0,unknown
850,1611473077780,26,-2048,-0.00045,69,13,103,1199771,327232,14116,69364,18963,526698,14290,8823,Tag0,unknown
851,1611473077794,26,-2048,-0.00045,69,13,103,1199771,327232,14116,69364,18963,526698,14290,8823,Tag0,unknown
852,1611473077804,26,-2048,-0.00045,69,13,103,1199771,327232,14116,69364,18963,526698,14290,8823,Tag0,unknown
853,1611473077817,26,-2048,-0.00045,69,13,103,1199771,327232,14116,69364,18963,526698,14290,8823,Tag0,unknown
854,1611473077827,26,-1790,-0.000393310546875,69,13,103,1199771,327232,14116,69364,18963,526698,14290,8823,Tag0,unknown
855,1611473077851,26,-1572,-0.00034541015625,69,13,103,1199771,327232,14116,69364,18963,526698,14290,8823,Tag0,unknown
856,1611473077861,26,-1336,-0.00029355468750000003,69,13,103,1199771,327232,14116,69364,18963,526698,14290,8823,Tag0,unknown
857,1611473077877,26,-851,-0.0001869873046875,69,13,103,1199771,327232,14116,69364,18963,526698,14290,8823,Tag0,unknown
858,1611473077893,26,1544,0.00033925781250000004,69,13,103,1199771,327232,14116,69364,18963,526698,14290,8823,Tag0,unknown
859,1611473077912,26,1791,0.0003935302734375,69,13,103,1199771,327232,14116,69364,18963,526698,14290,8823,Tag0,unknown
860,1611473077929,26,1791,0.0003935302734375,69,13,103,1199771,327232,14116,69364,18963,526698,14290,8823,Tag0,unknown
861,1611473077944,26,1791,0.0003935302734375,69,13,103,1199771,327232,14116,69364,18963,526698,14290,8823,Tag0,unknown
862,1611473077954,26,1171,0.0002572998046875,69,13,103,1199771,327232,14116,69364,18963,526698,14290,8823,Tag0,unknown
863,1611473077964,26,939,0.0002063232421875,69,13,103,1199771,327232,14116,69364,18963,526698,14290,8823,Tag0,unknown
864,1611473077978,26,900,0.00019775390625,69,13,103,1199771,327232,14116,69364,18963,526698,14290,8823,Tag0,unknown
865,1611473077998,26,499,0.0001096435546875,69,13,103,1199771,327232,14116,69364,18963,526698,14290,8823,Tag0,unknown
866,1611473078011,26,438,9.6240234375e-05,69,13,103,1199771,327232,14116,69364,18963,526698,14290,8823,Tag0,unknown
867,1611473078021,26,-74,-1.6259765625e-05,69,13,103,1199771,327232,14116,69364,18963,526698,14290,8823,Tag0,unknown
868,1611473078037,26,-117,-2.57080078125e-05,69,13,103,1199771,327232,14116,69364,18963,526698,14290,8823,Tag0,unknown
869,1611473078047,26,-28,-6.15234375e-06,69,13,103,1199771,327232,14116,69364,18963,526698,14290,8823,Tag0,unknown
870,1611473078071,26,-419,-9.20654296875e-05,69,13,103,1199771,327232,14116,69364,18963,526698,14290,8823,Tag0,unknown
871,1611473078081,26,-1865,-0.0004097900390625,69,13,103,1199771,327232,14116,69364,18963,526698,14290,8823,Tag0,unknown
872,1611473078095,26,-2048,-0.00045,69,13,103,1199771,327232,14116,69364,18963,526698,14290,8823,Tag0,unknown
873,1611473078110,26,-2048,-0.00045,69,13,103,1199771,327232,14116,69364,18963,526698,14290,8823,Tag0,unknown
874,1611473078127,26,-2048,-0.00045,69,13,103,1199771,327232,14116,69364,18963,526698,14290,8823,Tag0,unknown
875,1611473078145,26,-2120,-0.0004658203125,69,13,103,1199771,327232,14116,69364,18963,526698,14290,8823,Tag0,unknown
876,1611473078160,26,-2051,-0.0004506591796875,69,13,103,1199771,327232,14116,69364,18963,526698,14290,8823,Tag0,unknown
877,1611473078170,26,-1573,-0.0003456298828125,69,13,103,1199771,327232,14116,69364,18963,526698,14290,8823,Tag0,unknown
878,1611473078180,26,-1074,-0.000235986328125,69,13,103,1199771,327232,14116,69364,18963,526698,14290,8823,Tag0,unknown
879,1611473078191,26,-695,-0.0001527099609375,69,13,103,1199771,327232,14116,69364,18963,526698,14290,8823,Tag0,unknown
880,1611473078203,26,-421,-9.25048828125e-05,69,13,103,1199771,327232,14116,69364,18963,526698,14290,8823,Tag0,unknown
881,1611473078213,51,-580,-0.00012744140625,69,13,103,1248515,117437,8344,16746272,12801,23930,11866,11362,Tag0,unknown
882,1611473078229,51,-537,-0.0001179931640625,69,13,103,1248515,117437,8344,16746272,12801,23930,11866,11362,Tag0,unknown
883,1611473078246,51,-155,-3.40576171875e-05,69,13,103,1248515,117437,8344,16746272,12801,23930,11866,11362,Tag0,unknown
884,1611473078260,51,-146,-3.2080078125000004e-05,69,13,103,1248515,117437,8344,16746272,12801,23930,11866,11362,Tag0,unknown
885,1611473078280,51,-321,-7.053222656250001e-05,69,13,103,1248515,117437,8344,16746272,12801,23930,11866,11362,Tag0,unknown
886,1611473078297,51,-318,-6.9873046875e-05,69,13,103,1248515,117437,8344,16746272,12801,23930,11866,11362,Tag0,unknown
887,1611473078307,51,-107,-2.35107421875e-05,69,13,103,1248515,117437,8344,16746272,12801,23930,11866,11362,Tag0,unknown
888,1611473078320,51,35,7.6904296875e-06,69,13,103,1248515,117437,8344,16746272,12801,23930,11866,11362,Tag0,unknown
889,1611473078331,51,-84,-1.8457031250000007e-05,69,13,103,1248515,117437,8344,16746272,12801,23930,11866,11362,Tag0,unknown
890,1611473078346,51,69,1.51611328125e-05,69,13,103,1248515,117437,8344,16746272,12801,23930,11866,11362,Tag0,unknown
891,1611473078364,51,-283,-6.218261718750001e-05,69,13,103,1248515,117437,8344,16746272,12801,23930,11866,11362,Tag0,unknown
892,1611473078379,51,-363,-7.97607421875e-05,69,13,103,1248515,117437,8344,16746272,12801,23930,11866,11362,Tag0,unknown
893,1611473078397,51,-273,-5.9985351562500014e-05,69,13,103,1248515,117437,8344,16746272,12801,23930,11866,11362,Tag0,unknown
894,1611473078410,51,-269,-5.91064453125e-05,69,13,103,1248515,117437,8344,16746272,12801,23930,11866,11362,Tag0,unknown
895,1611473078431,51,9,1.9775390625e-06,69,13,103,1248515,117437,8344,16746272,12801,23930,11866,11362,Tag0,unknown
896,1611473078446,51,17,3.7353515625e-06,69,13,103,1248515,117437,8344,16746272,12801,23930,11866,11362,Tag0,unknown
897,1611473078468,51,-101,-2.21923828125e-05,69,13,103,1248515,117437,8344,16746272,12801,23930,11866,11362,Tag0,unknown
898,1611473078481,51,-108,-2.373046875e-05,69,13,103,1248515,117437,8344,16746272,12801,23930,11866,11362,Tag0,unknown
899,1611473078501,51,-87,-1.91162109375e-05,69,13,103,1248515,117437,8344,16746272,12801,23930,11866,11362,Tag0,unknown
900,1611473078517,51,-25,-5.4931640625e-06,69,13,103,1248515,117437,8344,16746272,12801,23930,11866,11362,Tag0,unknown
901,1611473078527,51,883,0.0001940185546875,69,13,103,1248515,117437,8344,16746272,12801,23930,11866,11362,Tag0,unknown
902,1611473078537,51,300,6.591796875e-05,69,13,103,1248515,117437,8344,16746272,12801,23930,11866,11362,Tag0,unknown
903,1611473078547,51,787,0.0001729248046875,69,13,103,1248515,117437,8344,16746272,12801,23930,11866,11362,Tag0,unknown
904,1611473078561,51,864,0.00018984375,69,13,103,1248515,117437,8344,16746272,12801,23930,11866,11362,Tag0,unknown
905,1611473078578,51,-23,-5.0537109375e-06,69,13,103,1248515,117437,8344,16746272,12801,23930,11866,11362,Tag0,unknown
906,1611473078595,51,865,0.0001900634765625,69,13,103,1248515,117437,8344,16746272,12801,23930,11866,11362,Tag0,unknown
907,1611473078616,51,160,3.515625e-05,69,13,103,1248515,117437,8344,16746272,12801,23930,11866,11362,Tag0,unknown
908,1611473078631,51,861,0.0001891845703125,69,13,103,1248515,117437,8344,16746272,12801,23930,11866,11362,Tag0,unknown
909,1611473078650,51,55,1.20849609375e-05,69,13,103,1248515,117437,8344,16746272,12801,23930,11866,11362,Tag0,unknown
910,1611473078665,51,67,1.4721679687500003e-05,69,13,103,1248515,117437,8344,16746272,12801,23930,11866,11362,Tag0,unknown
911,1611473078675,51,-391,-8.591308593750001e-05,69,13,103,1248515,117437,8344,16746272,12801,23930,11866,11362,Tag0,unknown
912,1611473078685,51,-819,-0.0001799560546875,69,13,103,1248515,117437,8344,16746272,12801,23930,11866,11362,Tag0,unknown
913,1611473078697,51,-423,-9.29443359375e-05,69,13,103,1248515,117437,8344,16746272,12801,23930,11866,11362,Tag0,unknown
914,1611473078719,51,-569,-0.0001250244140625,69,13,103,1248515,117437,8344,16746272,12801,23930,11866,11362,Tag0,unknown
915,1611473078731,51,-797,-0.0001751220703125,69,13,103,1248515,117437,8344,16746272,12801,23930,11866,11362,Tag0,unknown
916,1611473078747,51,-25,-5.4931640625e-06,69,13,103,1248515,117437,8344,16746272,12801,23930,11866,11362,Tag0,unknown
917,1611473078761,51,-7,-1.5380859375e-06,69,13,103,1248515,117437,8344,16746272,12801,23930,11866,11362,Tag0,unknown
918,1611473078778,51,454,9.9755859375e-05,69,13,103,1248515,117437,8344,16746272,12801,23930,11866,11362,Tag0,unknown
919,1611473078795,51,129,2.83447265625e-05,69,13,103,1248515,117437,8344,16746272,12801,23930,11866,11362,Tag0,unknown
920,1611473078813,51,-128,-2.8125e-05,69,13,103,1248515,117437,8344,16746272,12801,23930,11866,11362,Tag0,unknown
921,1611473078823,51,274,6.0205078125e-05,69,13,103,1248515,117437,8344,16746272,12801,23930,11866,11362,Tag0,unknown
922,1611473078837,51,417,9.16259765625e-05,69,13,103,1248515,117437,8344,16746272,12801,23930,11866,11362,Tag0,unknown
923,1611473078849,51,761,0.0001672119140625,69,13,103,1248515,117437,8344,16746272,12801,23930,11866,11362,Tag0,unknown
924,1611473078859,51,187,4.10888671875e-05,69,13,103,1248515,117437,8344,16746272,12801,23930,11866,11362,Tag0,unknown
925,1611473078869,51,581,0.0001276611328125,69,13,103,1248515,117437,8344,16746272,12801,23930,11866,11362,Tag0,unknown
926,1611473078879,51,897,0.0001970947265625,69,13,103,1248515,117437,8344,16746272,12801,23930,11866,11362,Tag0,unknown
927,1611473078903,51,259,5.69091796875e-05,69,13,103,1248515,117437,8344,16746272,12801,23930,11866,11362,Tag0,unknown
928,1611473078913,51,16,3.515625e-06,69,13,103,1248515,117437,8344,16746272,12801,23930,11866,11362,Tag0,unknown
929,1611473078937,51,-312,-6.85546875e-05,69,13,103,1248515,117437,8344,16746272,12801,23930,11866,11362,Tag0,unknown
930,1611473078949,51,-140,-3.076171875e-05,69,13,103,1248515,117437,8344,16746272,12801,23930,11866,11362,Tag0,unknown
931,1611473078960,51,327,7.18505859375e-05,69,13,103,1248515,117437,8344,16746272,12801,23930,11866,11362,Tag0,unknown
932,1611473078970,51,-329,-7.229003906250001e-05,69,13,103,1248515,117437,8344,16746272,12801,23930,11866,11362,Tag0,unknown
933,1611473078990,51,37,8.1298828125e-06,69,13,103,1248515,117437,8344,16746272,12801,23930,11866,11362,Tag0,unknown
934,1611473079000,51,234,5.1416015625e-05,69,13,103,1248515,117437,8344,16746272,12801,23930,11866,11362,Tag0,unknown
935,1611473079017,51,247,5.42724609375e-05,69,13,103,1248515,117437,8344,16746272,12801,23930,11866,11362,Tag0,unknown
936,1611473079034,51,-626,-0.000137548828125,69,13,103,1248515,117437,8344,16746272,12801,23930,11866,11362,Tag0,unknown
937,1611473079060,51,-793,-0.0001742431640625,69,13,103,1248515,117437,8344,16746272,12801,23930,11866,11362,Tag0,unknown
938,1611473079080,51,-827,-0.0001817138671875,69,13,103,1248515,117437,8344,16746272,12801,23930,11866,11362,Tag0,unknown
939,1611473079099,51,-31,-6.8115234375e-06,69,13,103,1248515,117437,8344,16746272,12801,23930,11866,11362,Tag0,unknown
940,1611473079112,51,85,1.86767578125e-05,69,13,103,1248515,117437,8344,16746272,12801,23930,11866,11362,Tag0,unknown
941,1611473079133,51,84,1.8457031250000007e-05,69,13,103,1248515,117437,8344,16746272,12801,23930,11866,11362,Tag0,unknown
942,1611473079146,51,17,3.7353515625e-06,69,13,103,1248515,117437,8344,16746272,12801,23930,11866,11362,Tag0,unknown
943,1611473079156,51,615,0.0001351318359375,69,13,103,1248515,117437,8344,16746272,12801,23930,11866,11362,Tag0,unknown
944,1611473079172,51,67,1.4721679687500003e-05,69,13,103,1248515,117437,8344,16746272,12801,23930,11866,11362,Tag0,unknown
945,1611473079182,51,677,0.00014875488281250002,69,13,103,1248515,117437,8344,16746272,12801,23930,11866,11362,Tag0,unknown
946,1611473079206,51,-651,-0.0001430419921875,69,13,103,1248515,117437,8344,16746272,12801,23930,11866,11362,Tag0,unknown
947,1611473079231,26,-825,-0.0001812744140625,69,13,103,304040,81378,22413,16746760,11124,66572,4944,3381,Tag0,unknown
948,1611473079247,26,-1090,-0.000239501953125,69,13,103,304040,81378,22413,16746760,11124,66572,4944,3381,Tag0,unknown
949,1611473079264,26,-804,-0.00017666015625,69,13,103,304040,81378,22413,16746760,11124,66572,4944,3381,Tag0,unknown
950,1611473079274,26,-325,-7.14111328125e-05,69,13,103,304040,81378,22413,16746760,11124,66572,4944,3381,Tag0,unknown
951,1611473079285,26,-331,-7.272949218750001e-05,69,13,103,304040,81378,22413,16746760,11124,66572,4944,3381,Tag0,unknown
952,1611473079296,26,-259,-5.69091796875e-05,69,13,103,304040,81378,22413,16746760,11124,66572,4944,3381,Tag0,unknown
953,1611473079318,26,-324,-7.119140625e-05,69,13,103,304040,81378,22413,16746760,11124,66572,4944,3381,Tag0,unknown
954,1611473079329,26,-521,-0.0001144775390625,69,13,103,304040,81378,22413,16746760,11124,66572,4944,3381,Tag0,unknown
955,1611473079339,26,325,7.14111328125e-05,69,13,103,304040,81378,22413,16746760,11124,66572,4944,3381,Tag0,unknown
956,1611473079355,26,203,4.4604492187500014e-05,69,13,103,304040,81378,22413,16746760,11124,66572,4944,3381,Tag0,unknown
957,1611473079365,26,146,3.2080078125000004e-05,69,13,103,304040,81378,22413,16746760,11124,66572,4944,3381,Tag0,unknown
958,1611473079389,26,579,0.0001272216796875,69,13,103,304040,81378,22413,16746760,11124,66572,4944,3381,Tag0,unknown
959,1611473079399,26,131,2.87841796875e-05,69,13,103,304040,81378,22413,16746760,11124,66572,4944,3381,Tag0,unknown
960,1611473079414,26,787,0.0001729248046875,69,13,103,304040,81378,22413,16746760,11124,66572,4944,3381,Tag0,unknown
961,1611473079431,26,126,2.7685546875e-05,69,13,103,304040,81378,22413,16746760,11124,66572,4944,3381,Tag0,unknown
962,1611473079448,26,614,0.000134912109375,69,13,103,304040,81378,22413,16746760,11124,66572,4944,3381,Tag0,unknown
963,1611473079468,26,103,2.26318359375e-05,69,13,103,304040,81378,22413,16746760,11124,66572,4944,3381,Tag0,unknown
964,1611473079480,26,-308,-6.767578125e-05,69,13,103,304040,81378,22413,16746760,11124,66572,4944,3381,Tag0,unknown
965,1611473079490,26,-810,-0.000177978515625,69,13,103,304040,81378,22413,16746760,11124,66572,4944,3381,Tag0,unknown
966,1611473079504,26,-590,-0.000129638671875,69,13,103,304040,81378,22413,16746760,11124,66572,4944,3381,Tag0,unknown
967,1611473079514,26,-13,-2.8564453125e-06,69,13,103,304040,81378,22413,16746760,11124,66572,4944,3381,Tag0,unknown
968,1611473079537,26,-872,-0.0001916015625,69,13,103,304040,81378,22413,16746760,11124,66572,4944,3381,Tag0,unknown
969,1611473079547,26,-467,-0.0001026123046875,69,13,103,304040,81378,22413,16746760,11124,66572,4944,3381,Tag0,unknown
970,1611473079565,26,-797,-0.0001751220703125,69,13,103,304040,81378,22413,16746760,11124,66572,4944,3381,Tag0,unknown
971,1611473079582,26,-445,-9.77783203125e-05,69,13,103,304040,81378,22413,16746760,11124,66572,4944,3381,Tag0,unknown
972,1611473079598,26,178,3.9111328125e-05,69,13,103,304040,81378,22413,16746760,11124,66572,4944,3381,Tag0,unknown
973,1611473079615,26,-707,-0.00015534667968750002,69,13,103,304040,81378,22413,16746760,11124,66572,4944,3381,Tag0,unknown
974,1611473079632,26,-843,-0.0001852294921875,69,13,103,304040,81378,22413,16746760,11124,66572,4944,3381,Tag0,unknown
975,1611473079642,26,-625,-0.0001373291015625,69,13,103,304040,81378,22413,16746760,11124,66572,4944,3381,Tag0,unknown
976,1611473079652,26,-183,-4.02099609375e-05,69,13,103,304040,81378,22413,16746760,11124,66572,4944,3381,Tag0,unknown
977,1611473079667,26,601,0.00013205566406249998,69,13,103,304040,81378,22413,16746760,11124,66572,4944,3381,Tag0,unknown
978,1611473079684,26,-205,-4.50439453125e-05,69,13,103,304040,81378,22413,16746760,11124,66572,4944,3381,Tag0,unknown
979,1611473079700,26,-373,-8.19580078125e-05,69,13,103,304040,81378,22413,16746760,11124,66572,4944,3381,Tag0,unknown
980,1611473079710,26,524,0.00011513671875,69,13,103,304040,81378,22413,16746760,11124,66572,4944,3381,Tag0,unknown
981,1611473079724,26,-357,-7.844238281250001e-05,69,13,103,304040,81378,22413,16746760,11124,66572,4944,3381,Tag0,unknown
982,1611473079734,26,710,0.000156005859375,69,13,103,304040,81378,22413,16746760,11124,66572,4944,3381,Tag0,unknown
983,1611473079747,26,-203,-4.4604492187500014e-05,69,13,103,304040,81378,22413,16746760,11124,66572,4944,3381,Tag0,unknown
984,1611473079763,26,332,7.294921875e-05,69,13,103,304040,81378,22413,16746760,11124,66572,4944,3381,Tag0,unknown
985,1611473079780,26,332,7.294921875e-05,69,13,103,304040,81378,22413,16746760,11124,66572,4944,3381,Tag0,unknown
986,1611473079798,26,348,7.646484375e-05,69,13,103,304040,81378,22413,16746760,11124,66572,4944,3381,Tag0,unknown
987,1611473079823,26,-90,-1.9775390625e-05,69,13,103,304040,81378,22413,16746760,11124,66572,4944,3381,Tag0,unknown
988,1611473079837,26,375,8.23974609375e-05,69,13,103,304040,81378,22413,16746760,11124,66572,4944,3381,Tag0,unknown
989,1611473079847,26,23,5.0537109375e-06,69,13,103,304040,81378,22413,16746760,11124,66572,4944,3381,Tag0,unknown
990,1611473079857,26,-377,-8.28369140625e-05,69,13,103,304040,81378,22413,16746760,11124,66572,4944,3381,Tag0,unknown
991,1611473079875,26,-476,-0.00010458984375,69,13,103,304040,81378,22413,16746760,11124,66572,4944,3381,Tag0,unknown
992,1611473079885,26,-489,-0.0001074462890625,69,13,103,304040,81378,22413,16746760,11124,66572,4944,3381,Tag0,unknown
993,1611473079899,26,-77,-1.69189453125e-05,69,13,103,304040,81378,22413,16746760,11124,66572,4944,3381,Tag0,unknown
994,1611473079909,26,-626,-0.000137548828125,69,13,103,304040,81378,22413,16746760,11124,66572,4944,3381,Tag0,unknown
995,1611473079919,26,-871,-0.0001913818359375,69,13,103,304040,81378,22413,16746760,11124,66572,4944,3381,Tag0,unknown
996,1611473079945,26,-773,-0.00016984863281250002,69,13,103,304040,81378,22413,16746760,11124,66572,4944,3381,Tag0,unknown
997,1611473079963,26,-775,-0.0001702880859375,69,13,103,304040,81378,22413,16746760,11124,66572,4944,3381,Tag0,unknown
998,1611473079981,26,-375,-8.23974609375e-05,69,13,103,304040,81378,22413,16746760,11124,66572,4944,3381,Tag0,unknown
999,1611473079999,26,-445,-9.77783203125e-05,69,13,103,304040,81378,22413,16746760,11124,66572,4944,3381,Tag0,unknown
1000,1611473080009,26,362,7.954101562500001e-05,69,13,103,304040,81378,22413,16746760,11124,66572,4944,3381,Tag0,unknown
1001,1611473080025,26,25,5.4931640625e-06,69,13,103,304040,81378,22413,16746760,11124,66572,4944,3381,Tag0,unknown
1002,1611473080053,26,-247,-5.42724609375e-05,69,13,103,304040,81378,22413,16746760,11124,66572,4944,3381,Tag0,unknown
1003,1611473080063,26,-243,-5.33935546875e-05,69,13,103,304040,81378,22413,16746760,11124,66572,4944,3381,Tag0,unknown
1004,1611473080080,26,-171,-3.75732421875e-05,69,13,103,304040,81378,22413,16746760,11124,66572,4944,3381,Tag0,unknown
1005,1611473080098,26,-277,-6.086425781250001e-05,69,13,103,304040,81378,22413,16746760,11124,66572,4944,3381,Tag0,unknown
1006,1611473080116,26,125,2.74658203125e-05,69,13,103,304040,81378,22413,16746760,11124,66572,4944,3381,Tag0,unknown
1007,1611473080133,26,-605,-0.0001329345703125,69,13,103,304040,81378,22413,16746760,11124,66572,4944,3381,Tag0,unknown
1008,1611473080149,26,-819,-0.0001799560546875,69,13,103,304040,81378,22413,16746760,11124,66572,4944,3381,Tag0,unknown
1009,1611473080159,26,-573,-0.0001259033203125,69,13,103,304040,81378,22413,16746760,11124,66572,4944,3381,Tag0,unknown
1010,1611473080169,26,-145,-3.18603515625e-05,69,13,103,304040,81378,22413,16746760,11124,66572,4944,3381,Tag0,unknown
1011,1611473080181,26,429,9.42626953125e-05,69,13,103,304040,81378,22413,16746760,11124,66572,4944,3381,Tag0,unknown
1012,1611473080199,26,-341,-7.492675781250003e-05,69,13,103,304040,81378,22413,16746760,11124,66572,4944,3381,Tag0,unknown
1013,1611473080215,26,-228,-5.009765625000001e-05,69,13,103,304040,81378,22413,16746760,11124,66572,4944,3381,Tag0,unknown
1014,1611473080238,26,99,2.1752929687500006e-05,69,13,103,1350916,100979,107685,71287,16768772,660292,22981,14984,Tag0,unknown
1015,1611473080248,26,604,0.00013271484375,69,13,103,1350916,100979,107685,71287,16768772,660292,22981,14984,Tag0,unknown
1016,1611473080265,26,529,0.0001162353515625,69,13,103,1350916,100979,107685,71287,16768772,660292,22981,14984,Tag0,unknown
1017,1611473080280,26,297,6.525878906250001e-05,69,13,103,1350916,100979,107685,71287,16768772,660292,22981,14984,Tag0,unknown
1018,1611473080305,26,-55,-1.20849609375e-05,69,13,103,1350916,100979,107685,71287,16768772,660292,22981,14984,Tag0,unknown
1019,1611473080320,26,-260,-5.712890625e-05,69,13,103,1350916,100979,107685,71287,16768772,660292,22981,14984,Tag0,unknown
1020,1611473080330,26,770,0.000169189453125,69,13,103,1350916,100979,107685,71287,16768772,660292,22981,14984,Tag0,unknown
