,timestampMs,poorSignal,eegRawValue,eegRawValueVolts,attention,meditation,blinkStrength,delta,theta,alphaLow,alphaHigh,betaLow,betaHigh,gammaLow,gammaMid,tagEvent,location
0,1611475027236,200,18,3.955078125e-06,0,0,69,703180,90539,16751857,17309,16762689,28744,5333,5754,Tag0,unknown
1,1611475027304,200,-291,-6.39404296875e-05,0,0,69,703180,90539,16751857,17309,16762689,28744,5333,5754,Tag0,unknown
2,1611475027322,200,374,8.2177734375e-05,0,0,69,703180,90539,16751857,17309,16762689,28744,5333,5754,Tag0,unknown
3,1611475027439,200,265,5.82275390625e-05,0,0,69,703180,90539,16751857,17309,16762689,28744,5333,5754,Tag0,unknown
4,1611475027455,200,-299,-6.56982421875e-05,0,0,69,703180,90539,16751857,17309,16762689,28744,5333,5754,Tag0,unknown
5,1611475027560,200,-7,-1.5380859375e-06,0,0,69,703180,90539,16751857,17309,16762689,28744,5333,5754,Tag0,unknown
6,1611475027572,200,6,1.318359375e-06,0,0,69,703180,90539,16751857,17309,16762689,28744,5333,5754,Tag0,unknown
7,1611475027590,200,-13,-2.8564453125e-06,0,0,69,906924,297184,38654,53974,40044,58339,83264,12088,Tag0,unknown
8,1611475027621,200,257,5.64697265625e-05,0,0,69,906924,297184,38654,53974,40044,58339,83264,12088,Tag0,unknown
9,1611475027639,200,-75,-1.64794921875e-05,0,0,69,906924,297184,38654,53974,40044,58339,83264,12088,Tag0,unknown
10,1611475027683,200,-633,-0.00013908691406250002,0,0,69,906924,297184,38654,53974,40044,58339,83264,12088,Tag0,unknown
11,1611475027693,200,329,7.229003906250001e-05,0,0,69,906924,297184,38654,53974,40044,58339,83264,12088,Tag0,unknown
12,1611475027706,200,-168,-3.6914062500000014e-05,0,0,69,906924,297184,38654,53974,40044,58339,83264,12088,Tag0,unknown
13,1611475027742,200,-378,-8.3056640625e-05,0,0,69,906924,297184,38654,53974,40044,58339,83264,12088,Tag0,unknown
14,1611475027756,200,-185,-4.06494140625e-05,0,0,69,906924,297184,38654,53974,40044,58339,83264,12088,Tag0,unknown
15,1611475027803,200,90,1.9775390625e-05,0,0,69,906924,297184,38654,53974,40044,58339,83264,12088,Tag0,unknown
16,1611475027829,200,318,6.9873046875e-05,0,0,69,906924,297184,38654,53974,40044,58339,83264,12088,Tag0,unknown
17,1611475027860,200,-314,-6.8994140625e-05,0,0,69,906924,297184,38654,53974,40044,58339,83264,12088,Tag0,unknown
18,1611475027873,200,281,6.17431640625e-05,0,0,69,906924,297184,38654,53974,40044,58339,83264,12088,Tag0,unknown
19,1611475027917,200,-615,-0.0001351318359375,0,0,69,906924,297184,38654,53974,40044,58339,83264,12088,Tag0,unknown
20,1611475027969,200,-218,-4.7900390625e-05,0,0,69,906924,297184,38654,53974,40044,58339,83264,12088,Tag0,unknown
21,1611475027989,200,-309,-6.78955078125e-05,0,0,69,906924,297184,38654,53974,40044,58339,83264,12088,Tag0,unknown
22,1611475028029,200,146,3.2080078125000004e-05,0,0,69,906924,297184,38654,53974,40044,58339,83264,12088,Tag0,unknown
23,1611475028039,200,229,5.03173828125e-05,0,0,69,906924,297184,38654,53974,40044,58339,83264,12088,Tag0,unknown
24,1611475028086,200,323,7.09716796875e-05,0,0,69,906924,297184,38654,53974,40044,58339,83264,12088,Tag0,unknown
25,1611475028106,200,-62,-1.3623046875e-05,0,0,69,906924,297184,38654,53974,40044,58339,83264,12088,Tag0,unknown
26,1611475028129,200,-7,-1.5380859375e-06,0,0,69,906924,297184,38654,53974,40044,58339,83264,12088,Tag0,unknown
27,1611475028140,200,-283,-6.218261718750001e-05,0,0,69,906924,297184,38654,53974,40044,58339,83264,12088,Tag0,unknown
28,1611475028162,200,115,2.52685546875e-05,0,0,69,906924,297184,38654,53974,40044,58339,83264,12088,Tag0,unknown
29,1611475028174,200,183,4.02099609375e-05,0,0,69,906924,297184,38654,53974,40044,58339,83264,12088,Tag0,unknown
30,1611475028199,200,-519,-0.0001140380859375,0,0,69,906924,297184,38654,53974,40044,58339,83264,12088,Tag0,unknown
31,1611475028232,200,263,5.778808593750001e-05,0,0,69,906924,297184,38654,53974,40044,58339,83264,12088,Tag0,unknown
32,1611475028242,200,325,7.14111328125e-05,0,0,69,906924,297184,38654,53974,40044,58339,83264,12088,Tag0,unknown
33,1611475028271,200,-69,-1.51611328125e-05,0,0,69,906924,297184,38654,53974,40044,58339,83264,12088,Tag0,unknown
34,1611475028305,200,-157,-3.44970703125e-05,0,0,69,906924,297184,38654,53974,40044,58339,83264,12088,Tag0,unknown
35,1611475028324,200,-132,-2.900390625e-05,0,0,69,323379,79549,16744549,15960,57105,40863,46660,22832,Tag0,unknown
36,1611475028342,200,-107,-2.35107421875e-05,0,0,69,323379,79549,16744549,15960,57105,40863,46660,22832,Tag0,unknown
37,1611475028357,200,-9,-1.9775390625e-06,0,0,69,323379,79549,16744549,15960,57105,40863,46660,22832,Tag0,unknown
38,1611475028376,200,-342,-7.5146484375e-05,0,0,69,323379,79549,16744549,15960,57105,40863,46660,22832,Tag0,unknown
39,1611475028390,200,-37,-8.1298828125e-06,0,0,69,323379,79549,16744549,15960,57105,40863,46660,22832,Tag0,unknown
40,1611475028410,200,-42,-9.228515625000003e-06,0,0,69,323379,79549,16744549,15960,57105,40863,46660,22832,Tag0,unknown
41,1611475028424,200,-145,-3.18603515625e-05,0,0,69,323379,79549,16744549,15960,57105,40863,46660,22832,Tag0,unknown
42,1611475028452,200,-136,-2.98828125e-05,0,0,69,323379,79549,16744549,15960,57105,40863,46660,22832,Tag0,unknown
43,1611475028489,200,-633,-0.00013908691406250002,0,0,69,323379,79549,16744549,15960,57105,40863,46660,22832,Tag0,unknown
44,1611475028507,200,65,1.42822265625e-05,0,0,69,323379,79549,16744549,15960,57105,40863,46660,22832,Tag0,unknown
45,1611475028530,200,-148,-3.251953125e-05,0,0,69,323379,79549,16744549,15960,57105,40863,46660,22832,Tag0,unknown
46,1611475028540,200,-538,-0.000118212890625,0,0,69,323379,79549,16744549,15960,57105,40863,46660,22832,Tag0,unknown
47,1611475028567,200,-48,-1.0546875e-05,0,0,69,323379,79549,16744549,15960,57105,40863,46660,22832,Tag0,unknown
48,1611475028604,200,189,4.15283203125e-05,0,0,69,323379,79549,16744549,15960,57105,40863,46660,22832,Tag0,unknown
49,1611475028637,200,-115,-2.52685546875e-05,0,0,69,323379,79549,16744549,15960,57105,40863,46660,22832,Tag0,unknown
50,1611475028657,200,14,3.076171875e-06,0,0,69,323379,79549,16744549,15960,57105,40863,46660,22832,Tag0,unknown
51,1611475028675,200,73,1.6040039062500002e-05,0,0,69,323379,79549,16744549,15960,57105,40863,46660,22832,Tag0,unknown
52,1611475028691,200,-202,-4.4384765625e-05,0,0,69,323379,79549,16744549,15960,57105,40863,46660,22832,Tag0,unknown
53,1611475028709,200,-519,-0.0001140380859375,0,0,69,323379,79549,16744549,15960,57105,40863,46660,22832,Tag0,unknown
54,1611475028724,200,103,2.26318359375e-05,0,0,69,323379,79549,16744549,15960,57105,40863,46660,22832,Tag0,unknown
55,1611475028750,200,39,8.5693359375e-06,0,0,69,323379,79549,16744549,15960,57105,40863,46660,22832,Tag0,unknown
56,1611475028784,200,234,5.1416015625e-05,0,0,69,323379,79549,16744549,15960,57105,40863,46660,22832,Tag0,unknown
57,1611475028794,200,68,1.494140625e-05,0,0,69,323379,79549,16744549,15960,57105,40863,46660,22832,Tag0,unknown
58,1611475028821,200,305,6.70166015625e-05,0,0,69,323379,79549,16744549,15960,57105,40863,46660,22832,Tag0,unknown
59,1611475028855,200,-372,-8.173828125e-05,0,0,69,323379,79549,16744549,15960,57105,40863,46660,22832,Tag0,unknown
60,1611475028874,200,-20,-4.39453125e-06,0,0,69,323379,79549,16744549,15960,57105,40863,46660,22832,Tag0,unknown
61,1611475028895,200,-540,-0.00011865234375,0,0,69,323379,79549,16744549,15960,57105,40863,46660,22832,Tag0,unknown
62,1611475028908,200,-633,-0.00013908691406250002,0,0,69,323379,79549,16744549,15960,57105,40863,46660,22832,Tag0,unknown
63,1611475028929,200,-148,-3.251953125e-05,0,0,69,323379,79549,16744549,15960,57105,40863,46660,22832,Tag0,unknown
64,1611475028941,200,24,5.2734375e-06,0,0,69,323379,79549,16744549,15960,57105,40863,46660,22832,Tag0,unknown
65,1611475028962,200,-206,-4.5263671875e-05,0,0,69,323379,79549,16744549,15960,57105,40863,46660,22832,Tag0,unknown
66,1611475028974,200,-119,-2.6147460937500007e-05,0,0,69,323379,79549,16744549,15960,57105,40863,46660,22832,Tag0,unknown
67,1611475028996,200,277,6.086425781250001e-05,0,0,69,323379,79549,16744549,15960,57105,40863,46660,22832,Tag0,unknown
68,1611475029008,200,-269,-5.91064453125e-05,0,0,69,323379,79549,16744549,15960,57105,40863,46660,22832,Tag0,unknown
69,1611475029030,200,-237,-5.20751953125e-05,0,0,69,323379,79549,16744549,15960,57105,40863,46660,22832,Tag0,unknown
70,1611475029041,200,65,1.42822265625e-05,0,0,69,323379,79549,16744549,15960,57105,40863,46660,22832,Tag0,unknown
71,1611475029069,200,-165,-3.62548828125e-05,0,0,69,323379,79549,16744549,15960,57105,40863,46660,22832,Tag0,unknown
72,1611475029102,200,256,5.625e-05,0,0,69,323379,79549,16744549,15960,57105,40863,46660,22832,Tag0,unknown
73,1611475029139,200,362,7.954101562500001e-05,0,0,69,323379,79549,16744549,15960,57105,40863,46660,22832,Tag0,unknown
74,1611475029172,200,-342,-7.5146484375e-05,0,0,69,323379,79549,16744549,15960,57105,40863,46660,22832,Tag0,unknown
75,1611475029221,200,277,6.086425781250001e-05,0,0,69,323379,79549,16744549,15960,57105,40863,46660,22832,Tag0,unknown
76,1611475029242,200,-41,-9.0087890625e-06,0,0,69,323379,79549,16744549,15960,57105,40863,46660,22832,Tag0,unknown
77,1611475029283,200,-47,-1.03271484375e-05,0,0,69,323379,79549,16744549,15960,57105,40863,46660,22832,Tag0,unknown
78,1611475029293,200,-31,-6.8115234375e-06,0,0,69,323379,79549,16744549,15960,57105,40863,46660,22832,Tag0,unknown
79,1611475029309,200,283,6.218261718750001e-05,0,0,69,128029,199760,23622,16863,24683,17350,14053,1521,Tag0,unknown
80,1611475029343,200,381,8.371582031250001e-05,0,0,69,128029,199760,23622,16863,24683,17350,14053,1521,Tag0,unknown
81,1611475029359,200,137,3.01025390625e-05,0,0,69,128029,199760,23622,16863,24683,17350,14053,1521,Tag0,unknown
82,1611475029400,200,-23,-5.0537109375e-06,0,0,69,128029,199760,23622,16863,24683,17350,14053,1521,Tag0,unknown
83,1611475029410,200,165,3.62548828125e-05,0,0,69,128029,199760,23622,16863,24683,17350,14053,1521,Tag0,unknown
84,1611475029425,200,515,0.0001131591796875,0,0,69,128029,199760,23622,16863,24683,17350,14053,1521,Tag0,unknown
85,1611475029443,200,123,2.70263671875e-05,0,0,69,128029,199760,23622,16863,24683,17350,14053,1521,Tag0,unknown
86,1611475029459,200,18,3.955078125e-06,0,0,69,128029,199760,23622,16863,24683,17350,14053,1521,Tag0,unknown
87,1611475029477,200,-93,-2.04345703125e-05,0,0,69,128029,199760,23622,16863,24683,17350,14053,1521,Tag0,unknown
88,1611475029492,200,-125,-2.74658203125e-05,0,0,69,128029,199760,23622,16863,24683,17350,14053,1521,Tag0,unknown
89,1611475029523,200,-529,-0.0001162353515625,0,0,69,128029,199760,23622,16863,24683,17350,14053,1521,Tag0,unknown
90,1611475029556,200,137,3.01025390625e-05,0,0,69,128029,199760,23622,16863,24683,17350,14053,1521,Tag0,unknown
91,1611475029576,200,219,4.81201171875e-05,0,0,69,128029,199760,23622,16863,24683,17350,14053,1521,Tag0,unknown
92,1611475029593,200,221,4.85595703125e-05,0,0,69,128029,199760,23622,16863,24683,17350,14053,1521,Tag0,unknown
93,1611475029609,200,-83,-1.82373046875e-05,0,0,69,128029,199760,23622,16863,24683,17350,14053,1521,Tag0,unknown
94,1611475029626,200,-229,-5.03173828125e-05,0,0,69,128029,199760,23622,16863,24683,17350,14053,1521,Tag0,unknown
95,1611475029642,200,-185,-4.06494140625e-05,0,0,69,128029,199760,23622,16863,24683,17350,14053,1521,Tag0,unknown
96,1611475029666,200,-525,-0.0001153564453125,0,0,69,128029,199760,23622,16863,24683,17350,14053,1521,Tag0,unknown
97,1611475029677,200,-403,-8.854980468749999e-05,0,0,69,128029,199760,23622,16863,24683,17350,14053,1521,Tag0,unknown
98,1611475029733,200,55,1.20849609375e-05,0,0,69,128029,199760,23622,16863,24683,17350,14053,1521,Tag0,unknown
99,1611475029743,200,96,2.109375e-05,0,0,69,128029,199760,23622,16863,24683,17350,14053,1521,Tag0,unknown
100,1611475029784,200,135,2.96630859375e-05,0,0,69,128029,199760,23622,16863,24683,17350,14053,1521,Tag0,unknown
101,1611475029794,200,281,6.17431640625e-05,0,0,69,128029,199760,23622,16863,24683,17350,14053,1521,Tag0,unknown
102,1611475029844,200,121,2.6586914062500006e-05,0,0,69,128029,199760,23622,16863,24683,17350,14053,1521,Tag0,unknown
103,1611475029860,200,-356,-7.822265625e-05,0,0,69,128029,199760,23622,16863,24683,17350,14053,1521,Tag0,unknown
104,1611475029904,200,-557,-0.0001223876953125,0,0,69,128029,199760,23622,16863,24683,17350,14053,1521,Tag0,unknown
105,1611475029944,200,-242,-5.317382812500001e-05,0,0,69,128029,199760,23622,16863,24683,17350,14053,1521,Tag0,unknown
106,1611475029960,200,-355,-7.80029296875e-05,0,0,69,128029,199760,23622,16863,24683,17350,14053,1521,Tag0,unknown
107,1611475029981,200,-251,-5.51513671875e-05,0,0,69,128029,199760,23622,16863,24683,17350,14053,1521,Tag0,unknown
108,1611475029993,200,-632,-0.00013886718750000002,0,0,69,128029,199760,23622,16863,24683,17350,14053,1521,Tag0,unknown
109,1611475030015,200,324,7.119140625e-05,0,0,69,128029,199760,23622,16863,24683,17350,14053,1521,Tag0,unknown
110,1611475030027,200,333,7.316894531249999e-05,0,0,69,128029,199760,23622,16863,24683,17350,14053,1521,Tag0,unknown
111,1611475030055,200,292,6.416015625000001e-05,0,0,69,128029,199760,23622,16863,24683,17350,14053,1521,Tag0,unknown
112,1611475030093,200,-142,-3.1201171875e-05,0,0,69,128029,199760,23622,16863,24683,17350,14053,1521,Tag0,unknown
113,1611475030103,200,116,2.548828125e-05,0,0,69,128029,199760,23622,16863,24683,17350,14053,1521,Tag0,unknown
114,1611475030120,200,-119,-2.6147460937500007e-05,0,0,69,128029,199760,23622,16863,24683,17350,14053,1521,Tag0,unknown
115,1611475030130,200,-351,-7.71240234375e-05,0,0,69,128029,199760,23622,16863,24683,17350,14053,1521,Tag0,unknown
116,1611475030140,200,29,6.3720703125e-06,0,0,69,128029,199760,23622,16863,24683,17350,14053,1521,Tag0,unknown
117,1611475030161,200,53,1.1645507812500003e-05,0,0,69,128029,199760,23622,16863,24683,17350,14053,1521,Tag0,unknown
118,1611475030181,200,355,7.80029296875e-05,0,0,69,128029,199760,23622,16863,24683,17350,14053,1521,Tag0,unknown
119,1611475030191,200,283,6.218261718750001e-05,0,0,69,128029,199760,23622,16863,24683,17350,14053,1521,Tag0,unknown
120,1611475030204,200,-200,-4.39453125e-05,0,0,69,128029,199760,23622,16863,24683,17350,14053,1521,Tag0,unknown
121,1611475030215,200,-343,-7.53662109375e-05,0,0,69,128029,199760,23622,16863,24683,17350,14053,1521,Tag0,unknown
122,1611475030237,200,-353,-7.75634765625e-05,0,0,69,128029,199760,23622,16863,24683,17350,14053,1521,Tag0,unknown
123,1611475030248,200,-168,-3.6914062500000014e-05,0,0,69,128029,199760,23622,16863,24683,17350,14053,1521,Tag0,unknown
124,1611475030258,200,-365,-8.02001953125e-05,0,0,69,128029,199760,23622,16863,24683,17350,14053,1521,Tag0,unknown
125,1611475030281,200,-95,-2.08740234375e-05,0,0,69,128029,199760,23622,16863,24683,17350,14053,1521,Tag0,unknown
126,1611475030298,200,51,1.12060546875e-05,0,0,69,128029,199760,23622,16863,24683,17350,14053,1521,Tag0,unknown
127,1611475030316,200,-67,-1.4721679687500003e-05,0,0,69,1272707,16777047,22371,9608,5216,17947,17878,1750,Tag0,unknown
128,1611475030341,200,250,5.4931640625e-05,0,0,69,1272707,16777047,22371,9608,5216,17947,17878,1750,Tag0,unknown
129,1611475030363,200,145,3.18603515625e-05,0,0,69,1272707,16777047,22371,9608,5216,17947,17878,1750,Tag0,unknown
130,1611475030380,200,-59,-1.29638671875e-05,0,0,69,1272707,16777047,22371,9608,5216,17947,17878,1750,Tag0,unknown
131,1611475030399,200,-312,-6.85546875e-05,0,0,69,1272707,16777047,22371,9608,5216,17947,17878,1750,Tag0,unknown
132,1611475030409,200,-87,-1.91162109375e-05,0,0,69,1272707,16777047,22371,9608,5216,17947,17878,1750,Tag0,unknown
133,1611475030425,200,-8,-1.7578125e-06,0,0,69,1272707,16777047,22371,9608,5216,17947,17878,1750,Tag0,unknown
134,1611475030435,200,-233,-5.119628906250001e-05,0,0,69,1272707,16777047,22371,9608,5216,17947,17878,1750,Tag0,unknown
135,1611475030449,200,-35,-7.6904296875e-06,0,0,69,1272707,16777047,22371,9608,5216,17947,17878,1750,Tag0,unknown
136,1611475030459,200,119,2.6147460937500007e-05,0,0,69,1272707,16777047,22371,9608,5216,17947,17878,1750,Tag0,unknown
137,1611475030469,200,-130,-2.8564453125e-05,0,0,69,1272707,16777047,22371,9608,5216,17947,17878,1750,Tag0,unknown
138,1611475030480,200,-107,-2.35107421875e-05,0,0,69,1272707,16777047,22371,9608,5216,17947,17878,1750,Tag0,unknown
139,1611475030498,200,-419,-9.20654296875e-05,0,0,69,1272707,16777047,22371,9608,5216,17947,17878,1750,Tag0,unknown
140,1611475030513,200,-149,-3.27392578125e-05,0,0,69,1272707,16777047,22371,9608,5216,17947,17878,1750,Tag0,unknown
141,1611475030537,200,-231,-5.07568359375e-05,0,0,69,1272707,16777047,22371,9608,5216,17947,17878,1750,Tag0,unknown
142,1611475030547,200,-197,-4.32861328125e-05,0,0,69,1272707,16777047,22371,9608,5216,17947,17878,1750,Tag0,unknown
143,1611475030570,200,259,5.69091796875e-05,0,0,69,1272707,16777047,22371,9608,5216,17947,17878,1750,Tag0,unknown
144,1611475030583,200,286,6.2841796875e-05,0,0,69,1272707,16777047,22371,9608,5216,17947,17878,1750,Tag0,unknown
145,1611475030593,200,1,2.197265625e-07,0,0,69,1272707,16777047,22371,9608,5216,17947,17878,1750,Tag0,unknown
146,1611475030604,200,123,2.70263671875e-05,0,0,69,1272707,16777047,22371,9608,5216,17947,17878,1750,Tag0,unknown
147,1611475030617,200,179,3.93310546875e-05,0,0,69,1272707,16777047,22371,9608,5216,17947,17878,1750,Tag0,unknown
148,1611475030642,200,-348,-7.646484375e-05,0,0,69,1272707,16777047,22371,9608,5216,17947,17878,1750,Tag0,unknown
149,1611475030653,200,-364,-7.998046875e-05,0,0,69,1272707,16777047,22371,9608,5216,17947,17878,1750,Tag0,unknown
150,1611475030664,200,-282,-6.1962890625e-05,0,0,69,1272707,16777047,22371,9608,5216,17947,17878,1750,Tag0,unknown
151,1611475030679,200,265,5.82275390625e-05,0,0,69,1272707,16777047,22371,9608,5216,17947,17878,1750,Tag0,unknown
152,1611475030695,200,150,3.2958984375e-05,0,0,69,1272707,16777047,22371,9608,5216,17947,17878,1750,Tag0,unknown
153,1611475030712,200,-222,-4.8779296875e-05,0,0,69,1272707,16777047,22371,9608,5216,17947,17878,1750,Tag0,unknown
154,1611475030729,200,-122,-2.6806640625e-05,0,0,69,1272707,16777047,22371,9608,5216,17947,17878,1750,Tag0,unknown
155,1611475030751,200,-156,-3.427734375e-05,0,0,69,1272707,16777047,22371,9608,5216,17947,17878,1750,Tag0,unknown
156,1611475030765,200,50,1.0986328125e-05,0,0,69,1272707,16777047,22371,9608,5216,17947,17878,1750,Tag0,unknown
157,1611475030786,200,133,2.92236328125e-05,0,0,69,1272707,16777047,22371,9608,5216,17947,17878,1750,Tag0,unknown
158,1611475030799,200,259,5.69091796875e-05,0,0,69,1272707,16777047,22371,9608,5216,17947,17878,1750,Tag0,unknown
159,1611475030809,200,-211,-4.63623046875e-05,0,0,69,1272707,16777047,22371,9608,5216,17947,17878,1750,Tag0,unknown
160,1611475030825,200,-91,-1.99951171875e-05,0,0,69,1272707,16777047,22371,9608,5216,17947,17878,1750,Tag0,unknown
161,1611475030835,200,-183,-4.02099609375e-05,0,0,69,1272707,16777047,22371,9608,5216,17947,17878,1750,Tag0,unknown
162,1611475030859,200,-858,-0.000188525390625,0,0,69,1272707,16777047,22371,9608,5216,17947,17878,1750,Tag0,unknown
163,1611475030869,200,-686,-0.000150732421875,0,0,69,1272707,16777047,22371,9608,5216,17947,17878,1750,Tag0,unknown
164,1611475030879,200,292,6.416015625000001e-05,0,0,69,1272707,16777047,22371,9608,5216,17947,17878,1750,Tag0,unknown
165,1611475030889,200,377,8.28369140625e-05,0,0,69,1272707,16777047,22371,9608,5216,17947,17878,1750,Tag0,unknown
166,1611475030899,200,0,0.0,0,0,69,1272707,16777047,22371,9608,5216,17947,17878,1750,Tag0,unknown
167,1611475030914,200,332,7.294921875e-05,0,0,69,1272707,16777047,22371,9608,5216,17947,17878,1750,Tag0,unknown
168,1611475030931,200,371,8.151855468750001e-05,0,0,69,1272707,16777047,22371,9608,5216,17947,17878,1750,Tag0,unknown
169,1611475030947,200,134,2.9443359375000006e-05,0,0,69,1272707,16777047,22371,9608,5216,17947,17878,1750,Tag0,unknown
170,1611475030970,200,520,0.0001142578125,0,0,69,1272707,16777047,22371,9608,5216,17947,17878,1750,Tag0,unknown
171,1611475030985,200,633,0.00013908691406250002,0,0,69,1272707,16777047,22371,9608,5216,17947,17878,1750,Tag0,unknown
172,1611475031016,200,333,7.316894531249999e-05,0,0,69,1272707,16777047,22371,9608,5216,17947,17878,1750,Tag0,unknown
173,1611475031033,200,-344,-7.558593750000001e-05,0,0,69,1272707,16777047,22371,9608,5216,17947,17878,1750,Tag0,unknown
174,1611475031043,200,-31,-6.8115234375e-06,0,0,69,1272707,16777047,22371,9608,5216,17947,17878,1750,Tag0,unknown
175,1611475031054,200,369,8.10791015625e-05,0,0,69,1272707,16777047,22371,9608,5216,17947,17878,1750,Tag0,unknown
176,1611475031065,200,-59,-1.29638671875e-05,0,0,69,1272707,16777047,22371,9608,5216,17947,17878,1750,Tag0,unknown
177,1611475031084,200,-125,-2.74658203125e-05,0,0,69,1272707,16777047,22371,9608,5216,17947,17878,1750,Tag0,unknown
178,1611475031098,200,-7,-1.5380859375e-06,0,0,69,1272707,16777047,22371,9608,5216,17947,17878,1750,Tag0,unknown
179,1611475031118,200,-524,-0.00011513671875,0,0,69,1272707,16777047,22371,9608,5216,17947,17878,1750,Tag0,unknown
180,1611475031132,200,-554,-0.000121728515625,0,0,69,1272707,16777047,22371,9608,5216,17947,17878,1750,Tag0,unknown
181,1611475031154,200,-91,-1.99951171875e-05,0,0,69,1272707,16777047,22371,9608,5216,17947,17878,1750,Tag0,unknown
182,1611475031167,200,-75,-1.64794921875e-05,0,0,69,1272707,16777047,22371,9608,5216,17947,17878,1750,Tag0,unknown
183,1611475031177,200,-216,-4.74609375e-05,0,0,69,1272707,16777047,22371,9608,5216,17947,17878,1750,Tag0,unknown
184,1611475031192,200,-59,-1.29638671875e-05,0,0,69,1272707,16777047,22371,9608,5216,17947,17878,1750,Tag0,unknown
185,1611475031202,200,-351,-7.71240234375e-05,0,0,69,1272707,16777047,22371,9608,5216,17947,17878,1750,Tag0,unknown
186,1611475031229,200,-371,-8.151855468750001e-05,0,0,69,1272707,16777047,22371,9608,5216,17947,17878,1750,Tag0,unknown
187,1611475031239,200,577,0.00012678222656250002,0,0,69,1272707,16777047,22371,9608,5216,17947,17878,1750,Tag0,unknown
188,1611475031250,200,186,4.0869140625e-05,0,0,69,1272707,16777047,22371,9608,5216,17947,17878,1750,Tag0,unknown
189,1611475031274,200,-268,-5.888671875000001e-05,0,0,69,1272707,16777047,22371,9608,5216,17947,17878,1750,Tag0,unknown
190,1611475031284,200,50,1.0986328125e-05,0,0,69,1272707,16777047,22371,9608,5216,17947,17878,1750,Tag0,unknown
191,1611475031301,200,-232,-5.09765625e-05,0,0,69,1540274,151732,202685,79705,47648,16754345,54669,5322,Tag0,unknown
192,1611475031316,200,-205,-4.50439453125e-05,0,0,69,1540274,151732,202685,79705,47648,16754345,54669,5322,Tag0,unknown
193,1611475031333,200,554,0.000121728515625,0,0,69,1540274,151732,202685,79705,47648,16754345,54669,5322,Tag0,unknown
194,1611475031343,200,-379,-8.32763671875e-05,0,0,69,1540274,151732,202685,79705,47648,16754345,54669,5322,Tag0,unknown
195,1611475031353,200,-214,-4.7021484375e-05,0,0,69,1540274,151732,202685,79705,47648,16754345,54669,5322,Tag0,unknown
196,1611475031368,200,-205,-4.50439453125e-05,0,0,69,1540274,151732,202685,79705,47648,16754345,54669,5322,Tag0,unknown
197,1611475031385,200,-20,-4.39453125e-06,0,0,69,1540274,151732,202685,79705,47648,16754345,54669,5322,Tag0,unknown
198,1611475031401,200,-29,-6.3720703125e-06,0,0,69,1540274,151732,202685,79705,47648,16754345,54669,5322,Tag0,unknown
199,1611475031411,200,-80,-1.7578125e-05,0,0,69,1540274,151732,202685,79705,47648,16754345,54669,5322,Tag0,unknown
200,1611475031425,200,-35,-7.6904296875e-06,0,0,69,1540274,151732,202685,79705,47648,16754345,54669,5322,Tag0,unknown
201,1611475031435,200,311,6.833496093750001e-05,0,0,69,1540274,151732,202685,79705,47648,16754345,54669,5322,Tag0,unknown
202,1611475031459,200,-167,-3.66943359375e-05,0,0,69,1540274,151732,202685,79705,47648,16754345,54669,5322,Tag0,unknown
203,1611475031469,200,-177,-3.889160156250001e-05,0,0,69,1540274,151732,202685,79705,47648,16754345,54669,5322,Tag0,unknown
204,1611475031481,200,-443,-9.73388671875e-05,0,0,69,1540274,151732,202685,79705,47648,16754345,54669,5322,Tag0,unknown
205,1611475031499,200,-370,-8.1298828125e-05,0,0,69,1540274,151732,202685,79705,47648,16754345,54669,5322,Tag0,unknown
206,1611475031515,200,-561,-0.0001232666015625,0,0,69,1540274,151732,202685,79705,47648,16754345,54669,5322,Tag0,unknown
207,1611475031533,200,184,4.04296875e-05,0,0,69,1540274,151732,202685,79705,47648,16754345,54669,5322,Tag0,unknown
208,1611475031550,200,532,0.00011689453125,0,0,69,1540274,151732,202685,79705,47648,16754345,54669,5322,Tag0,unknown
209,1611475031560,200,285,6.26220703125e-05,0,0,69,1540274,151732,202685,79705,47648,16754345,54669,5322,Tag0,unknown
210,1611475031574,200,-64,-1.40625e-05,0,0,69,1540274,151732,202685,79705,47648,16754345,54669,5322,Tag0,unknown
211,1611475031585,200,117,2.57080078125e-05,0,0,69,1540274,151732,202685,79705,47648,16754345,54669,5322,Tag0,unknown
212,1611475031604,200,582,0.000127880859375,0,0,69,1540274,151732,202685,79705,47648,16754345,54669,5322,Tag0,unknown
213,1611475031619,200,379,8.32763671875e-05,0,0,69,1540274,151732,202685,79705,47648,16754345,54669,5322,Tag0,unknown
214,1611475031629,200,363,7.97607421875e-05,0,0,69,1540274,151732,202685,79705,47648,16754345,54669,5322,Tag0,unknown
215,1611475031640,200,-28,-6.15234375e-06,0,0,69,1540274,151732,202685,79705,47648,16754345,54669,5322,Tag0,unknown
216,1611475031652,200,-59,-1.29638671875e-05,0,0,69,1540274,151732,202685,79705,47648,16754345,54669,5322,Tag0,unknown
217,1611475031667,200,-77,-1.69189453125e-05,0,0,69,1540274,151732,202685,79705,47648,16754345,54669,5322,Tag0,unknown
218,1611475031685,200,-613,-0.00013469238281250002,0,0,69,1540274,151732,202685,79705,47648,16754345,54669,5322,Tag0,unknown
219,1611475031699,200,323,7.09716796875e-05,0,0,69,1540274,151732,202685,79705,47648,16754345,54669,5322,Tag0,unknown
220,1611475031716,200,12,2.63671875e-06,0,0,69,1540274,151732,202685,79705,47648,16754345,54669,5322,Tag0,unknown
221,1611475031733,200,166,3.6474609375e-05,0,0,69,1540274,151732,202685,79705,47648,16754345,54669,5322,Tag0,unknown
222,1611475031750,200,554,0.000121728515625,0,0,69,1540274,151732,202685,79705,47648,16754345,54669,5322,Tag0,unknown
223,1611475031768,200,-292,-6.416015625000001e-05,0,0,69,1540274,151732,202685,79705,47648,16754345,54669,5322,Tag0,unknown
224,1611475031778,200,-104,-2.28515625e-05,0,0,69,1540274,151732,202685,79705,47648,16754345,54669,5322,Tag0,unknown
225,1611475031790,200,3,6.591796875e-07,0,0,69,1540274,151732,202685,79705,47648,16754345,54669,5322,Tag0,unknown
226,1611475031801,200,91,1.99951171875e-05,0,0,69,1540274,151732,202685,79705,47648,16754345,54669,5322,Tag0,unknown
227,1611475031824,200,-163,-3.581542968750001e-05,0,0,69,1540274,151732,202685,79705,47648,16754345,54669,5322,Tag0,unknown
228,1611475031836,200,-247,-5.42724609375e-05,0,0,69,1540274,151732,202685,79705,47648,16754345,54669,5322,Tag0,unknown
229,1611475031846,200,-601,-0.00013205566406249998,0,0,69,1540274,151732,202685,79705,47648,16754345,54669,5322,Tag0,unknown
230,1611475031864,200,45,9.8876953125e-06,0,0,69,1540274,151732,202685,79705,47648,16754345,54669,5322,Tag0,unknown
231,1611475031884,200,-206,-4.5263671875e-05,0,0,69,1540274,151732,202685,79705,47648,16754345,54669,5322,Tag0,unknown
232,1611475031900,200,-307,-6.74560546875e-05,0,0,69,1540274,151732,202685,79705,47648,16754345,54669,5322,Tag0,unknown
233,1611475031916,200,199,4.37255859375e-05,0,0,69,1540274,151732,202685,79705,47648,16754345,54669,5322,Tag0,unknown
234,1611475031981,200,-197,-4.32861328125e-05,0,0,69,1540274,151732,202685,79705,47648,16754345,54669,5322,Tag0,unknown
235,1611475032006,200,-547,-0.0001201904296875,0,0,69,1540274,151732,202685,79705,47648,16754345,54669,5322,Tag0,unknown
236,1611475032016,200,-290,-6.3720703125e-05,0,0,69,1540274,151732,202685,79705,47648,16754345,54669,5322,Tag0,unknown
237,1611475032049,200,-99,-2.1752929687500006e-05,0,0,69,1540274,151732,202685,79705,47648,16754345,54669,5322,Tag0,unknown
238,1611475032068,200,-87,-1.91162109375e-05,0,0,69,1540274,151732,202685,79705,47648,16754345,54669,5322,Tag0,unknown
239,1611475032117,200,-369,-8.10791015625e-05,0,0,69,1540274,151732,202685,79705,47648,16754345,54669,5322,Tag0,unknown
240,1611475032135,200,-541,-0.0001188720703125,0,0,69,1540274,151732,202685,79705,47648,16754345,54669,5322,Tag0,unknown
241,1611475032185,200,267,5.86669921875e-05,0,0,69,1540274,151732,202685,79705,47648,16754345,54669,5322,Tag0,unknown
242,1611475032203,200,300,6.591796875e-05,0,0,69,1540274,151732,202685,79705,47648,16754345,54669,5322,Tag0,unknown
243,1611475032252,200,-347,-7.62451171875e-05,0,0,69,1540274,151732,202685,79705,47648,16754345,54669,5322,Tag0,unknown
244,1611475032269,200,-177,-3.889160156250001e-05,0,0,69,1540274,151732,202685,79705,47648,16754345,54669,5322,Tag0,unknown
245,1611475032279,200,-630,-0.000138427734375,0,0,69,1540274,151732,202685,79705,47648,16754345,54669,5322,Tag0,unknown
246,1611475032319,200,-342,-7.5146484375e-05,0,0,69,1540274,151732,202685,79705,47648,16754345,54669,5322,Tag0,unknown
247,1611475032336,200,-135,-2.96630859375e-05,0,0,69,1540274,151732,202685,79705,47648,16754345,54669,5322,Tag0,unknown
248,1611475032387,200,-549,-0.0001206298828125,0,0,69,1540274,151732,202685,79705,47648,16754345,54669,5322,Tag0,unknown
249,1611475032403,200,-425,-9.33837890625e-05,0,0,69,1540274,151732,202685,79705,47648,16754345,54669,5322,Tag0,unknown
250,1611475032413,200,67,1.4721679687500003e-05,0,0,69,1540274,151732,202685,79705,47648,16754345,54669,5322,Tag0,unknown
251,1611475032454,200,337,7.40478515625e-05,0,0,69,1540274,151732,202685,79705,47648,16754345,54669,5322,Tag0,unknown
252,1611475032472,200,187,4.10888671875e-05,0,0,69,1540274,151732,202685,79705,47648,16754345,54669,5322,Tag0,unknown
253,1611475032482,200,-312,-6.85546875e-05,0,0,69,1540274,151732,202685,79705,47648,16754345,54669,5322,Tag0,unknown
254,1611475032504,200,326,7.163085937500001e-05,0,0,69,1540274,151732,202685,79705,47648,16754345,54669,5322,Tag0,unknown
255,1611475032520,200,51,1.12060546875e-05,0,0,69,1540274,151732,202685,79705,47648,16754345,54669,5322,Tag0,unknown
256,1611475032530,200,483,0.0001061279296875,0,0,69,1540274,151732,202685,79705,47648,16754345,54669,5322,Tag0,unknown
257,1611475032544,200,-62,-1.3623046875e-05,0,0,69,1540274,151732,202685,79705,47648,16754345,54669,5322,Tag0,unknown
258,1611475032554,200,345,7.58056640625e-05,0,0,69,1540274,151732,202685,79705,47648,16754345,54669,5322,Tag0,unknown
259,1611475032564,200,371,8.151855468750001e-05,0,0,69,1540274,151732,202685,79705,47648,16754345,54669,5322,Tag0,unknown
260,1611475032574,200,71,1.56005859375e-05,0,0,69,1540274,151732,202685,79705,47648,16754345,54669,5322,Tag0,unknown
261,1611475032591,200,53,1.1645507812500003e-05,0,0,69,1540274,151732,202685,79705,47648,16754345,54669,5322,Tag0,unknown
262,1611475032601,200,289,6.35009765625e-05,0,0,69,1540274,151732,202685,79705,47648,16754345,54669,5322,Tag0,unknown
263,1611475032626,200,315,6.92138671875e-05,0,0,69,1540274,151732,202685,79705,47648,16754345,54669,5322,Tag0,unknown
264,1611475032636,200,-124,-2.724609375e-05,0,0,69,1540274,151732,202685,79705,47648,16754345,54669,5322,Tag0,unknown
265,1611475032664,200,277,6.086425781250001e-05,0,0,69,1540274,151732,202685,79705,47648,16754345,54669,5322,Tag0,unknown
266,1611475032687,200,-220,-4.833984375e-05,0,0,69,1540274,151732,202685,79705,47648,16754345,54669,5322,Tag0,unknown
267,1611475032703,200,-627,-0.0001377685546875,0,0,69,1540274,151732,202685,79705,47648,16754345,54669,5322,Tag0,unknown
268,1611475032720,200,-371,-8.151855468750001e-05,0,0,69,1540274,151732,202685,79705,47648,16754345,54669,5322,Tag0,unknown
269,1611475032730,200,-85,-1.86767578125e-05,0,0,69,1540274,151732,202685,79705,47648,16754345,54669,5322,Tag0,unknown
270,1611475032740,200,-192,-4.21875e-05,0,0,69,1540274,151732,202685,79705,47648,16754345,54669,5322,Tag0,unknown
271,1611475032754,200,-563,-0.0001237060546875,0,0,69,1540274,151732,202685,79705,47648,16754345,54669,5322,Tag0,unknown
272,1611475032770,200,-376,-8.261718750000001e-05,0,0,69,1540274,151732,202685,79705,47648,16754345,54669,5322,Tag0,unknown
273,1611475032786,200,-257,-5.64697265625e-05,0,0,69,1540274,151732,202685,79705,47648,16754345,54669,5322,Tag0,unknown
274,1611475032796,200,-229,-5.03173828125e-05,0,0,69,1540274,151732,202685,79705,47648,16754345,54669,5322,Tag0,unknown
275,1611475032811,200,-61,-1.34033203125e-05,0,0,69,1540274,151732,202685,79705,47648,16754345,54669,5322,Tag0,unknown
276,1611475032821,200,290,6.3720703125e-05,0,0,69,1540274,151732,202685,79705,47648,16754345,54669,5322,Tag0,unknown
277,1611475032846,200,123,2.70263671875e-05,0,0,69,1540274,151732,202685,79705,47648,16754345,54669,5322,Tag0,unknown
278,1611475032856,200,87,1.91162109375e-05,0,0,69,1540274,151732,202685,79705,47648,16754345,54669,5322,Tag0,unknown
279,1611475032870,200,-25,-5.4931640625e-06,0,0,69,1540274,151732,202685,79705,47648,16754345,54669,5322,Tag0,unknown
280,1611475032880,200,403,8.854980468749999e-05,0,0,69,1540274,151732,202685,79705,47648,16754345,54669,5322,Tag0,unknown
281,1611475032890,200,107,2.35107421875e-05,0,0,69,1540274,151732,202685,79705,47648,16754345,54669,5322,Tag0,unknown
282,1611475032901,200,37,8.1298828125e-06,0,0,69,1540274,151732,202685,79705,47648,16754345,54669,5322,Tag0,unknown
283,1611475032919,200,-22,-4.833984375e-06,0,0,69,1540274,151732,202685,79705,47648,16754345,54669,5322,Tag0,unknown
284,1611475032935,200,181,3.97705078125e-05,0,0,69,1540274,151732,202685,79705,47648,16754345,54669,5322,Tag0,unknown
285,1611475032955,200,-225,-4.94384765625e-05,0,0,69,1540274,151732,202685,79705,47648,16754345,54669,5322,Tag0,unknown
286,1611475032969,200,-67,-1.4721679687500003e-05,0,0,69,1540274,151732,202685,79705,47648,16754345,54669,5322,Tag0,unknown
287,1611475032989,200,129,2.83447265625e-05,0,0,69,1540274,151732,202685,79705,47648,16754345,54669,5322,Tag0,unknown
288,1611475033004,200,286,6.2841796875e-05,0,0,69,1540274,151732,202685,79705,47648,16754345,54669,5322,Tag0,unknown
289,1611475033014,200,-156,-3.427734375e-05,0,0,69,1540274,151732,202685,79705,47648,16754345,54669,5322,Tag0,unknown
290,1611475033027,200,-118,-2.5927734375e-05,0,0,69,1540274,151732,202685,79705,47648,16754345,54669,5322,Tag0,unknown
291,1611475033037,200,-22,-4.833984375e-06,0,0,69,1540274,151732,202685,79705,47648,16754345,54669,5322,Tag0,unknown
292,1611475033060,200,-202,-4.4384765625e-05,0,0,69,1540274,151732,202685,79705,47648,16754345,54669,5322,Tag0,unknown
293,1611475033070,200,-178,-3.9111328125e-05,0,0,69,1540274,151732,202685,79705,47648,16754345,54669,5322,Tag0,unknown
294,1611475033082,200,213,4.68017578125e-05,0,0,69,1540274,151732,202685,79705,47648,16754345,54669,5322,Tag0,unknown
295,1611475033102,200,-233,-5.119628906250001e-05,0,0,69,1540274,151732,202685,79705,47648,16754345,54669,5322,Tag0,unknown
296,1611475033118,200,-325,-7.14111328125e-05,0,0,69,1540274,151732,202685,79705,47648,16754345,54669,5322,Tag0,unknown
297,1611475033135,200,-107,-2.35107421875e-05,0,0,69,1540274,151732,202685,79705,47648,16754345,54669,5322,Tag0,unknown
298,1611475033152,200,-330,-7.2509765625e-05,0,0,69,1540274,151732,202685,79705,47648,16754345,54669,5322,Tag0,unknown
299,1611475033174,200,-117,-2.57080078125e-05,0,0,69,1540274,151732,202685,79705,47648,16754345,54669,5322,Tag0,unknown
300,1611475033189,200,147,3.22998046875e-05,0,0,69,1540274,151732,202685,79705,47648,16754345,54669,5322,Tag0,unknown
301,1611475033207,200,-124,-2.724609375e-05,0,0,69,1540274,151732,202685,79705,47648,16754345,54669,5322,Tag0,unknown
302,1611475033221,200,-328,-7.207031249999999e-05,0,0,69,1540274,151732,202685,79705,47648,16754345,54669,5322,Tag0,unknown
303,1611475033231,200,513,0.0001127197265625,0,0,69,1540274,151732,202685,79705,47648,16754345,54669,5322,Tag0,unknown
304,1611475033245,200,157,3.44970703125e-05,0,0,69,1540274,151732,202685,79705,47648,16754345,54669,5322,Tag0,unknown
305,1611475033255,200,-249,-5.47119140625e-05,0,0,69,1540274,151732,202685,79705,47648,16754345,54669,5322,Tag0,unknown
306,1611475033279,200,-219,-4.81201171875e-05,0,0,69,1540274,151732,202685,79705,47648,16754345,54669,5322,Tag0,unknown
307,1611475033289,200,-61,-1.34033203125e-05,0,0,69,1540274,151732,202685,79705,47648,16754345,54669,5322,Tag0,unknown
308,1611475033310,200,256,5.625e-05,0,0,69,588866,16749973,12794,16747122,9288,28510,14325,3833,Tag0,unknown
309,1611475033324,200,-321,-7.053222656250001e-05,0,0,69,588866,16749973,12794,16747122,9288,28510,14325,3833,Tag0,unknown
310,1611475033349,200,-840,-0.0001845703125,0,0,69,588866,16749973,12794,16747122,9288,28510,14325,3833,Tag0,unknown
311,1611475033369,200,-651,-0.0001430419921875,0,0,69,588866,16749973,12794,16747122,9288,28510,14325,3833,Tag0,unknown
312,1611475033386,200,-333,-7.316894531249999e-05,0,0,69,588866,16749973,12794,16747122,9288,28510,14325,3833,Tag0,unknown
313,1611475033403,200,-322,-7.0751953125e-05,0,0,69,588866,16749973,12794,16747122,9288,28510,14325,3833,Tag0,unknown
314,1611475033422,200,485,0.0001065673828125,0,0,69,588866,16749973,12794,16747122,9288,28510,14325,3833,Tag0,unknown
315,1611475033439,200,836,0.00018369140625,0,0,69,588866,16749973,12794,16747122,9288,28510,14325,3833,Tag0,unknown
316,1611475033449,200,567,0.0001245849609375,0,0,69,588866,16749973,12794,16747122,9288,28510,14325,3833,Tag0,unknown
317,1611475033460,200,595,0.0001307373046875,0,0,69,588866,16749973,12794,16747122,9288,28510,14325,3833,Tag0,unknown
318,1611475033471,200,1,2.197265625e-07,0,0,69,588866,16749973,12794,16747122,9288,28510,14325,3833,Tag0,unknown
319,1611475033490,200,193,4.240722656250001e-05,0,0,69,588866,16749973,12794,16747122,9288,28510,14325,3833,Tag0,unknown
320,1611475033503,200,105,2.30712890625e-05,0,0,69,588866,16749973,12794,16747122,9288,28510,14325,3833,Tag0,unknown
321,1611475033531,200,118,2.5927734375e-05,0,0,69,588866,16749973,12794,16747122,9288,28510,14325,3833,Tag0,unknown
322,1611475033554,200,-205,-4.50439453125e-05,0,0,69,588866,16749973,12794,16747122,9288,28510,14325,3833,Tag0,unknown
323,1611475033575,200,-311,-6.833496093750001e-05,0,0,69,588866,16749973,12794,16747122,9288,28510,14325,3833,Tag0,unknown
324,1611475033589,200,283,6.218261718750001e-05,0,0,69,588866,16749973,12794,16747122,9288,28510,14325,3833,Tag0,unknown
325,1611475033599,200,-235,-5.16357421875e-05,0,0,69,588866,16749973,12794,16747122,9288,28510,14325,3833,Tag0,unknown
326,1611475033610,200,-824,-0.0001810546875,0,0,69,588866,16749973,12794,16747122,9288,28510,14325,3833,Tag0,unknown
327,1611475033623,200,-891,-0.0001957763671875,0,0,69,588866,16749973,12794,16747122,9288,28510,14325,3833,Tag0,unknown
328,1611475033633,200,259,5.69091796875e-05,0,0,69,588866,16749973,12794,16747122,9288,28510,14325,3833,Tag0,unknown
329,1611475033643,200,281,6.17431640625e-05,0,0,69,588866,16749973,12794,16747122,9288,28510,14325,3833,Tag0,unknown
330,1611475033654,200,-121,-2.6586914062500006e-05,0,0,69,588866,16749973,12794,16747122,9288,28510,14325,3833,Tag0,unknown
331,1611475033670,200,82,1.8017578125e-05,0,0,69,588866,16749973,12794,16747122,9288,28510,14325,3833,Tag0,unknown
332,1611475033687,200,149,3.27392578125e-05,0,0,69,588866,16749973,12794,16747122,9288,28510,14325,3833,Tag0,unknown
333,1611475033705,200,121,2.6586914062500006e-05,0,0,69,588866,16749973,12794,16747122,9288,28510,14325,3833,Tag0,unknown
334,1611475033715,200,-24,-5.2734375e-06,0,0,69,588866,16749973,12794,16747122,9288,28510,14325,3833,Tag0,unknown
335,1611475033725,200,-64,-1.40625e-05,0,0,69,588866,16749973,12794,16747122,9288,28510,14325,3833,Tag0,unknown
336,1611475033738,200,314,6.8994140625e-05,0,0,69,588866,16749973,12794,16747122,9288,28510,14325,3833,Tag0,unknown
337,1611475033758,200,40,8.7890625e-06,0,0,69,588866,16749973,12794,16747122,9288,28510,14325,3833,Tag0,unknown
338,1611475033772,200,-346,-7.6025390625e-05,0,0,69,588866,16749973,12794,16747122,9288,28510,14325,3833,Tag0,unknown
339,1611475033782,200,-38,-8.349609375e-06,0,0,69,588866,16749973,12794,16747122,9288,28510,14325,3833,Tag0,unknown
340,1611475033797,200,117,2.57080078125e-05,0,0,69,588866,16749973,12794,16747122,9288,28510,14325,3833,Tag0,unknown
341,1611475033807,200,-250,-5.4931640625e-05,0,0,69,588866,16749973,12794,16747122,9288,28510,14325,3833,Tag0,unknown
342,1611475033830,200,-253,-5.55908203125e-05,0,0,69,588866,16749973,12794,16747122,9288,28510,14325,3833,Tag0,unknown
343,1611475033840,200,-297,-6.525878906250001e-05,0,0,69,588866,16749973,12794,16747122,9288,28510,14325,3833,Tag0,unknown
344,1611475033850,200,-564,-0.00012392578125,0,0,69,588866,16749973,12794,16747122,9288,28510,14325,3833,Tag0,unknown
345,1611475033860,200,312,6.85546875e-05,0,0,69,588866,16749973,12794,16747122,9288,28510,14325,3833,Tag0,unknown
346,1611475033873,200,-360,-7.91015625e-05,0,0,69,588866,16749973,12794,16747122,9288,28510,14325,3833,Tag0,unknown
347,1611475033889,200,337,7.40478515625e-05,0,0,69,588866,16749973,12794,16747122,9288,28510,14325,3833,Tag0,unknown
348,1611475033908,200,373,8.19580078125e-05,0,0,69,588866,16749973,12794,16747122,9288,28510,14325,3833,Tag0,unknown
349,1611475033924,200,-337,-7.40478515625e-05,0,0,69,588866,16749973,12794,16747122,9288,28510,14325,3833,Tag0,unknown
350,1611475033934,200,267,5.86669921875e-05,0,0,69,588866,16749973,12794,16747122,9288,28510,14325,3833,Tag0,unknown
351,1611475033944,200,372,8.173828125e-05,0,0,69,588866,16749973,12794,16747122,9288,28510,14325,3833,Tag0,unknown
352,1611475033958,200,-619,-0.0001360107421875,0,0,69,588866,16749973,12794,16747122,9288,28510,14325,3833,Tag0,unknown
353,1611475033975,200,-183,-4.02099609375e-05,0,0,69,588866,16749973,12794,16747122,9288,28510,14325,3833,Tag0,unknown
354,1611475033989,200,-187,-4.10888671875e-05,0,0,69,588866,16749973,12794,16747122,9288,28510,14325,3833,Tag0,unknown
355,1611475034005,200,-787,-0.0001729248046875,0,0,69,588866,16749973,12794,16747122,9288,28510,14325,3833,Tag0,unknown
356,1611475034021,200,-235,-5.16357421875e-05,0,0,69,588866,16749973,12794,16747122,9288,28510,14325,3833,Tag0,unknown
357,1611475034041,200,83,1.82373046875e-05,0,0,69,588866,16749973,12794,16747122,9288,28510,14325,3833,Tag0,unknown
358,1611475034060,200,-83,-1.82373046875e-05,0,0,69,588866,16749973,12794,16747122,9288,28510,14325,3833,Tag0,unknown
359,1611475034070,200,-197,-4.32861328125e-05,0,0,69,588866,16749973,12794,16747122,9288,28510,14325,3833,Tag0,unknown
360,1611475034080,200,373,8.19580078125e-05,0,0,69,588866,16749973,12794,16747122,9288,28510,14325,3833,Tag0,unknown
361,1611475034090,200,186,4.0869140625e-05,0,0,69,588866,16749973,12794,16747122,9288,28510,14325,3833,Tag0,unknown
362,1611475034100,200,185,4.06494140625e-05,0,0,69,588866,16749973,12794,16747122,9288,28510,14325,3833,Tag0,unknown
363,1611475034123,200,173,3.80126953125e-05,0,0,69,588866,16749973,12794,16747122,9288,28510,14325,3833,Tag0,unknown
364,1611475034138,200,311,6.833496093750001e-05,0,0,69,588866,16749973,12794,16747122,9288,28510,14325,3833,Tag0,unknown
365,1611475034148,200,267,5.86669921875e-05,0,0,69,588866,16749973,12794,16747122,9288,28510,14325,3833,Tag0,unknown
366,1611475034163,200,537,0.0001179931640625,0,0,69,588866,16749973,12794,16747122,9288,28510,14325,3833,Tag0,unknown
367,1611475034174,200,532,0.00011689453125,0,0,69,588866,16749973,12794,16747122,9288,28510,14325,3833,Tag0,unknown
368,1611475034199,200,-212,-4.658203125000001e-05,0,0,69,588866,16749973,12794,16747122,9288,28510,14325,3833,Tag0,unknown
369,1611475034209,200,259,5.69091796875e-05,0,0,69,588866,16749973,12794,16747122,9288,28510,14325,3833,Tag0,unknown
370,1611475034223,200,-19,-4.1748046875e-06,0,0,69,588866,16749973,12794,16747122,9288,28510,14325,3833,Tag0,unknown
371,1611475034233,200,-380,-8.349609375e-05,0,0,69,588866,16749973,12794,16747122,9288,28510,14325,3833,Tag0,unknown
372,1611475034243,200,-40,-8.7890625e-06,0,0,69,588866,16749973,12794,16747122,9288,28510,14325,3833,Tag0,unknown
373,1611475034254,200,-289,-6.35009765625e-05,0,0,69,588866,16749973,12794,16747122,9288,28510,14325,3833,Tag0,unknown
374,1611475034271,200,-79,-1.7358398437500006e-05,0,0,69,588866,16749973,12794,16747122,9288,28510,14325,3833,Tag0,unknown
375,1611475034288,200,-313,-6.87744140625e-05,0,0,69,588866,16749973,12794,16747122,9288,28510,14325,3833,Tag0,unknown
376,1611475034307,200,29,6.3720703125e-06,0,0,69,270464,12387,4949,806,6582,2011,2220,666,Tag0,unknown
377,1611475034321,200,212,4.658203125000001e-05,0,0,69,270464,12387,4949,806,6582,2011,2220,666,Tag0,unknown
378,1611475034353,200,40,8.7890625e-06,0,0,69,270464,12387,4949,806,6582,2011,2220,666,Tag0,unknown
379,1611475034373,200,-169,-3.71337890625e-05,0,0,69,270464,12387,4949,806,6582,2011,2220,666,Tag0,unknown
380,1611475034383,200,300,6.591796875e-05,0,0,69,270464,12387,4949,806,6582,2011,2220,666,Tag0,unknown
381,1611475034397,200,263,5.778808593750001e-05,0,0,69,270464,12387,4949,806,6582,2011,2220,666,Tag0,unknown
382,1611475034422,200,-381,-8.371582031250001e-05,0,0,69,270464,12387,4949,806,6582,2011,2220,666,Tag0,unknown
383,1611475034440,200,-133,-2.92236328125e-05,0,0,69,270464,12387,4949,806,6582,2011,2220,666,Tag0,unknown
384,1611475034458,200,-21,-4.614257812500002e-06,0,0,69,270464,12387,4949,806,6582,2011,2220,666,Tag0,unknown
385,1611475034474,200,-265,-5.82275390625e-05,0,0,69,270464,12387,4949,806,6582,2011,2220,666,Tag0,unknown
386,1611475034484,200,133,2.92236328125e-05,0,0,69,270464,12387,4949,806,6582,2011,2220,666,Tag0,unknown
387,1611475034504,200,177,3.889160156250001e-05,0,0,69,270464,12387,4949,806,6582,2011,2220,666,Tag0,unknown
388,1611475034526,200,51,1.12060546875e-05,0,0,69,270464,12387,4949,806,6582,2011,2220,666,Tag0,unknown
389,1611475034538,200,2,4.39453125e-07,0,0,69,270464,12387,4949,806,6582,2011,2220,666,Tag0,unknown
390,1611475034566,200,-278,-6.108398437500001e-05,0,0,69,270464,12387,4949,806,6582,2011,2220,666,Tag0,unknown
391,1611475034577,200,-131,-2.87841796875e-05,0,0,69,270464,12387,4949,806,6582,2011,2220,666,Tag0,unknown
392,1611475034587,200,-61,-1.34033203125e-05,0,0,69,270464,12387,4949,806,6582,2011,2220,666,Tag0,unknown
393,1611475034598,200,-236,-5.185546875e-05,0,0,69,270464,12387,4949,806,6582,2011,2220,666,Tag0,unknown
394,1611475034609,200,-4,-8.7890625e-07,0,0,69,270464,12387,4949,806,6582,2011,2220,666,Tag0,unknown
395,1611475034619,200,-26,-5.712890625e-06,0,0,69,270464,12387,4949,806,6582,2011,2220,666,Tag0,unknown
396,1611475034629,200,256,5.625e-05,0,0,69,270464,12387,4949,806,6582,2011,2220,666,Tag0,unknown
397,1611475034639,200,-757,-0.0001663330078125,0,0,69,270464,12387,4949,806,6582,2011,2220,666,Tag0,unknown
398,1611475034655,200,-1285,-0.0002823486328125,0,0,69,270464,12387,4949,806,6582,2011,2220,666,Tag0,unknown
399,1611475034672,200,-709,-0.0001557861328125,0,0,69,270464,12387,4949,806,6582,2011,2220,666,Tag0,unknown
400,1611475034688,200,-1123,-0.00024675292968750004,0,0,69,270464,12387,4949,806,6582,2011,2220,666,Tag0,unknown
401,1611475034711,200,220,4.833984375e-05,0,0,69,270464,12387,4949,806,6582,2011,2220,666,Tag0,unknown
402,1611475034724,200,234,5.1416015625e-05,0,0,69,270464,12387,4949,806,6582,2011,2220,666,Tag0,unknown
403,1611475034746,200,-593,-0.00013029785156250002,0,0,69,270464,12387,4949,806,6582,2011,2220,666,Tag0,unknown
404,1611475034757,200,-252,-5.537109375e-05,0,0,69,270464,12387,4949,806,6582,2011,2220,666,Tag0,unknown
405,1611475034773,200,25,5.4931640625e-06,0,0,69,270464,12387,4949,806,6582,2011,2220,666,Tag0,unknown
406,1611475034792,200,24,5.2734375e-06,0,0,69,270464,12387,4949,806,6582,2011,2220,666,Tag0,unknown
407,1611475034817,200,25,5.4931640625e-06,0,0,69,270464,12387,4949,806,6582,2011,2220,666,Tag0,unknown
408,1611475034838,200,-1442,-0.000316845703125,0,0,69,270464,12387,4949,806,6582,2011,2220,666,Tag0,unknown
409,1611475034858,200,1448,0.00031816406250000003,0,0,69,270464,12387,4949,806,6582,2011,2220,666,Tag0,unknown
410,1611475034873,200,1285,0.0002823486328125,0,0,69,270464,12387,4949,806,6582,2011,2220,666,Tag0,unknown
411,1611475034890,200,1077,0.0002366455078125,0,0,69,270464,12387,4949,806,6582,2011,2220,666,Tag0,unknown
412,1611475034907,200,843,0.0001852294921875,0,0,69,270464,12387,4949,806,6582,2011,2220,666,Tag0,unknown
413,1611475034923,200,208,4.5703125e-05,0,0,69,270464,12387,4949,806,6582,2011,2220,666,Tag0,unknown
414,1611475034940,200,179,3.93310546875e-05,0,0,69,270464,12387,4949,806,6582,2011,2220,666,Tag0,unknown
415,1611475034959,200,321,7.053222656250001e-05,0,0,69,270464,12387,4949,806,6582,2011,2220,666,Tag0,unknown
416,1611475034974,200,277,6.086425781250001e-05,0,0,69,270464,12387,4949,806,6582,2011,2220,666,Tag0,unknown
417,1611475034991,200,-36,-7.91015625e-06,0,0,69,270464,12387,4949,806,6582,2011,2220,666,Tag0,unknown
418,1611475035008,200,-45,-9.8876953125e-06,0,0,69,270464,12387,4949,806,6582,2011,2220,666,Tag0,unknown
419,1611475035018,200,-102,-2.2412109375e-05,0,0,69,270464,12387,4949,806,6582,2011,2220,666,Tag0,unknown
420,1611475035029,200,-128,-2.8125e-05,0,0,69,270464,12387,4949,806,6582,2011,2220,666,Tag0,unknown
421,1611475035041,200,-128,-2.8125e-05,0,0,69,270464,12387,4949,806,6582,2011,2220,666,Tag0,unknown
422,1611475035063,200,103,2.26318359375e-05,0,0,69,270464,12387,4949,806,6582,2011,2220,666,Tag0,unknown
423,1611475035074,200,103,2.26318359375e-05,0,0,69,270464,12387,4949,806,6582,2011,2220,666,Tag0,unknown
424,1611475035084,200,90,1.9775390625e-05,0,0,69,270464,12387,4949,806,6582,2011,2220,666,Tag0,unknown
425,1611475035094,200,83,1.82373046875e-05,0,0,69,270464,12387,4949,806,6582,2011,2220,666,Tag0,unknown
426,1611475035106,200,81,1.77978515625e-05,0,0,69,270464,12387,4949,806,6582,2011,2220,666,Tag0,unknown
427,1611475035123,200,77,1.69189453125e-05,0,0,69,270464,12387,4949,806,6582,2011,2220,666,Tag0,unknown
428,1611475035139,200,73,1.6040039062500002e-05,0,0,69,270464,12387,4949,806,6582,2011,2220,666,Tag0,unknown
429,1611475035157,200,73,1.6040039062500002e-05,0,0,69,270464,12387,4949,806,6582,2011,2220,666,Tag0,unknown
430,1611475035167,200,70,1.5380859375e-05,0,0,69,270464,12387,4949,806,6582,2011,2220,666,Tag0,unknown
431,1611475035190,200,69,1.51611328125e-05,0,0,69,270464,12387,4949,806,6582,2011,2220,666,Tag0,unknown
432,1611475035208,200,68,1.494140625e-05,0,0,69,270464,12387,4949,806,6582,2011,2220,666,Tag0,unknown
433,1611475035223,200,67,1.4721679687500003e-05,0,0,69,270464,12387,4949,806,6582,2011,2220,666,Tag0,unknown
434,1611475035246,200,67,1.4721679687500003e-05,0,0,69,270464,12387,4949,806,6582,2011,2220,666,Tag0,unknown
435,1611475035258,200,66,1.4501953125e-05,0,0,69,270464,12387,4949,806,6582,2011,2220,666,Tag0,unknown
436,1611475035280,200,66,1.4501953125e-05,0,0,69,270464,12387,4949,806,6582,2011,2220,666,Tag0,unknown
437,1611475035290,200,66,1.4501953125e-05,0,0,69,270464,12387,4949,806,6582,2011,2220,666,Tag0,unknown
438,1611475035309,25,65,1.42822265625e-05,0,0,69,353853,16758428,18141,14286,16766871,16752590,22920,8892,Tag0,unknown
439,1611475035323,25,67,1.4721679687500003e-05,0,0,69,353853,16758428,18141,14286,16766871,16752590,22920,8892,Tag0,unknown
440,1611475035349,25,66,1.4501953125e-05,0,0,69,353853,16758428,18141,14286,16766871,16752590,22920,8892,Tag0,unknown
441,1611475035359,25,65,1.42822265625e-05,0,0,69,353853,16758428,18141,14286,16766871,16752590,22920,8892,Tag0,unknown
442,1611475035373,25,68,1.494140625e-05,0,0,69,353853,16758428,18141,14286,16766871,16752590,22920,8892,Tag0,unknown
443,1611475035390,25,65,1.42822265625e-05,0,0,69,353853,16758428,18141,14286,16766871,16752590,22920,8892,Tag0,unknown
444,1611475035407,25,65,1.42822265625e-05,0,0,69,353853,16758428,18141,14286,16766871,16752590,22920,8892,Tag0,unknown
445,1611475035417,25,65,1.42822265625e-05,0,0,69,353853,16758428,18141,14286,16766871,16752590,22920,8892,Tag0,unknown
446,1611475035432,25,65,1.42822265625e-05,0,0,69,353853,16758428,18141,14286,16766871,16752590,22920,8892,Tag0,unknown
447,1611475035458,25,65,1.42822265625e-05,0,0,69,353853,16758428,18141,14286,16766871,16752590,22920,8892,Tag0,unknown
448,1611475035475,25,66,1.4501953125e-05,0,0,69,353853,16758428,18141,14286,16766871,16752590,22920,8892,Tag0,unknown
449,1611475035494,25,65,1.42822265625e-05,0,0,69,353853,16758428,18141,14286,16766871,16752590,22920,8892,Tag0,unknown
450,1611475035509,25,66,1.4501953125e-05,0,0,69,353853,16758428,18141,14286,16766871,16752590,22920,8892,Tag0,unknown
451,1611475035519,25,65,1.42822265625e-05,0,0,69,353853,16758428,18141,14286,16766871,16752590,22920,8892,Tag0,unknown
452,1611475035530,25,65,1.42822265625e-05,0,0,69,353853,16758428,18141,14286,16766871,16752590,22920,8892,Tag0,unknown
453,1611475035541,25,65,1.42822265625e-05,0,0,69,353853,16758428,18141,14286,16766871,16752590,22920,8892,Tag0,unknown
454,1611475035564,25,65,1.42822265625e-05,0,0,69,353853,16758428,18141,14286,16766871,16752590,22920,8892,Tag0,unknown
455,1611475035575,25,65,1.42822265625e-05,0,0,69,353853,16758428,18141,14286,16766871,16752590,22920,8892,Tag0,unknown
456,1611475035585,25,66,1.4501953125e-05,0,0,69,353853,16758428,18141,14286,16766871,16752590,22920,8892,Tag0,unknown
457,1611475035607,25,65,1.42822265625e-05,0,0,69,353853,16758428,18141,14286,16766871,16752590,22920,8892,Tag0,unknown
458,1611475035623,25,65,1.42822265625e-05,0,0,69,353853,16758428,18141,14286,16766871,16752590,22920,8892,Tag0,unknown
459,1611475035640,25,65,1.42822265625e-05,0,0,69,353853,16758428,18141,14286,16766871,16752590,22920,8892,Tag0,unknown
460,1611475035657,25,65,1.42822265625e-05,0,0,69,353853,16758428,18141,14286,16766871,16752590,22920,8892,Tag0,unknown
461,1611475035667,25,65,1.42822265625e-05,0,0,69,353853,16758428,18141,14286,16766871,16752590,22920,8892,Tag0,unknown
462,1611475035692,25,66,1.4501953125e-05,0,0,69,353853,16758428,18141,14286,16766871,16752590,22920,8892,Tag0,unknown
463,1611475035709,25,68,1.494140625e-05,0,0,69,353853,16758428,18141,14286,16766871,16752590,22920,8892,Tag0,unknown
464,1611475035725,25,67,1.4721679687500003e-05,0,0,69,353853,16758428,18141,14286,16766871,16752590,22920,8892,Tag0,unknown
465,1611475035735,25,65,1.42822265625e-05,0,0,69,353853,16758428,18141,14286,16766871,16752590,22920,8892,Tag0,unknown
466,1611475035752,25,65,1.42822265625e-05,0,0,69,353853,16758428,18141,14286,16766871,16752590,22920,8892,Tag0,unknown
467,1611475035762,25,-2048,-0.00045,0,0,69,353853,16758428,18141,14286,16766871,16752590,22920,8892,Tag0,unknown
468,1611475035786,25,1123,0.00024675292968750004,0,0,69,353853,16758428,18141,14286,16766871,16752590,22920,8892,Tag0,unknown
469,1611475035807,25,-2048,-0.00045,0,0,69,353853,16758428,18141,14286,16766871,16752590,22920,8892,Tag0,unknown
470,1611475035825,25,-2076,-0.00045615234375,0,0,69,353853,16758428,18141,14286,16766871,16752590,22920,8892,Tag0,unknown
471,1611475035841,25,-1684,-0.00037001953125,0,0,69,353853,16758428,18141,14286,16766871,16752590,22920,8892,Tag0,unknown
472,1611475035864,25,-1398,-0.000307177734375,0,0,69,353853,16758428,18141,14286,16766871,16752590,22920,8892,Tag0,unknown
473,1611475035878,25,-935,-0.0002054443359375,0,0,69,353853,16758428,18141,14286,16766871,16752590,22920,8892,Tag0,unknown
474,1611475035891,25,-785,-0.0001724853515625,0,0,69,353853,16758428,18141,14286,16766871,16752590,22920,8892,Tag0,unknown
475,1611475035907,25,-407,-8.94287109375e-05,0,0,69,353853,16758428,18141,14286,16766871,16752590,22920,8892,Tag0,unknown
476,1611475035929,25,-222,-4.8779296875e-05,0,0,69,353853,16758428,18141,14286,16766871,16752590,22920,8892,Tag0,unknown
477,1611475035940,25,-215,-4.72412109375e-05,0,0,69,353853,16758428,18141,14286,16766871,16752590,22920,8892,Tag0,unknown
478,1611475035969,25,-305,-6.70166015625e-05,0,0,69,353853,16758428,18141,14286,16766871,16752590,22920,8892,Tag0,unknown
479,1611475035979,25,-285,-6.26220703125e-05,0,0,69,353853,16758428,18141,14286,16766871,16752590,22920,8892,Tag0,unknown
480,1611475036003,25,-260,-5.712890625e-05,0,0,69,353853,16758428,18141,14286,16766871,16752590,22920,8892,Tag0,unknown
481,1611475036013,25,3,6.591796875e-07,0,0,69,353853,16758428,18141,14286,16766871,16752590,22920,8892,Tag0,unknown
482,1611475036027,25,18,3.955078125e-06,0,0,69,353853,16758428,18141,14286,16766871,16752590,22920,8892,Tag0,unknown
483,1611475036037,25,35,7.6904296875e-06,0,0,69,353853,16758428,18141,14286,16766871,16752590,22920,8892,Tag0,unknown
484,1611475036059,25,38,8.349609375e-06,0,0,69,353853,16758428,18141,14286,16766871,16752590,22920,8892,Tag0,unknown
485,1611475036080,25,49,1.07666015625e-05,0,0,69,353853,16758428,18141,14286,16766871,16752590,22920,8892,Tag0,unknown
486,1611475036092,25,50,1.0986328125e-05,0,0,69,353853,16758428,18141,14286,16766871,16752590,22920,8892,Tag0,unknown
487,1611475036102,25,57,1.25244140625e-05,0,0,69,353853,16758428,18141,14286,16766871,16752590,22920,8892,Tag0,unknown
488,1611475036134,25,58,1.2744140625e-05,0,0,69,353853,16758428,18141,14286,16766871,16752590,22920,8892,Tag0,unknown
489,1611475036144,25,60,1.318359375e-05,0,0,69,353853,16758428,18141,14286,16766871,16752590,22920,8892,Tag0,unknown
490,1611475036158,25,64,1.40625e-05,0,0,69,353853,16758428,18141,14286,16766871,16752590,22920,8892,Tag0,unknown
491,1611475036176,25,64,1.40625e-05,0,0,69,353853,16758428,18141,14286,16766871,16752590,22920,8892,Tag0,unknown
492,1611475036195,25,64,1.40625e-05,0,0,69,353853,16758428,18141,14286,16766871,16752590,22920,8892,Tag0,unknown
493,1611475036211,25,65,1.42822265625e-05,0,0,69,353853,16758428,18141,14286,16766871,16752590,22920,8892,Tag0,unknown
494,1611475036226,25,65,1.42822265625e-05,0,0,69,353853,16758428,18141,14286,16766871,16752590,22920,8892,Tag0,unknown
495,1611475036243,25,66,1.4501953125e-05,0,0,69,353853,16758428,18141,14286,16766871,16752590,22920,8892,Tag0,unknown
496,1611475036260,25,67,1.4721679687500003e-05,0,0,69,353853,16758428,18141,14286,16766871,16752590,22920,8892,Tag0,unknown
497,1611475036275,25,66,1.4501953125e-05,0,0,69,353853,16758428,18141,14286,16766871,16752590,22920,8892,Tag0,unknown
498,1611475036301,25,25,5.4931640625e-06,0,0,69,668434,16676,16746005,16748874,8231,4945,1774,2094,Tag0,unknown
499,1611475036311,25,26,5.712890625e-06,0,0,69,668434,16676,16746005,16748874,8231,4945,1774,2094,Tag0,unknown
500,1611475036336,25,25,5.4931640625e-06,0,0,69,668434,16676,16746005,16748874,8231,4945,1774,2094,Tag0,unknown
501,1611475036346,25,71,1.56005859375e-05,0,0,69,668434,16676,16746005,16748874,8231,4945,1774,2094,Tag0,unknown
502,1611475036360,25,-177,-3.889160156250001e-05,0,0,69,668434,16676,16746005,16748874,8231,4945,1774,2094,Tag0,unknown
503,1611475036378,25,-2048,-0.00045,0,0,69,668434,16676,16746005,16748874,8231,4945,1774,2094,Tag0,unknown
504,1611475036407,25,-1585,-0.0003482666015625,0,0,69,668434,16676,16746005,16748874,8231,4945,1774,2094,Tag0,unknown
505,1611475036427,25,-1276,-0.00028037109375,0,0,69,668434,16676,16746005,16748874,8231,4945,1774,2094,Tag0,unknown
506,1611475036437,25,-1046,-0.000229833984375,0,0,69,668434,16676,16746005,16748874,8231,4945,1774,2094,Tag0,unknown
507,1611475036449,25,-482,-0.000105908203125,0,0,69,668434,16676,16746005,16748874,8231,4945,1774,2094,Tag0,unknown
508,1611475036460,25,-461,-0.0001012939453125,0,0,69,668434,16676,16746005,16748874,8231,4945,1774,2094,Tag0,unknown
509,1611475036484,25,-525,-0.0001153564453125,0,0,69,668434,16676,16746005,16748874,8231,4945,1774,2094,Tag0,unknown
510,1611475036495,25,-515,-0.0001131591796875,0,0,69,668434,16676,16746005,16748874,8231,4945,1774,2094,Tag0,unknown
511,1611475036505,25,-381,-8.371582031250001e-05,0,0,69,668434,16676,16746005,16748874,8231,4945,1774,2094,Tag0,unknown
512,1611475036515,25,-342,-7.5146484375e-05,0,0,69,668434,16676,16746005,16748874,8231,4945,1774,2094,Tag0,unknown
513,1611475036528,25,-322,-7.0751953125e-05,0,0,69,668434,16676,16746005,16748874,8231,4945,1774,2094,Tag0,unknown
514,1611475036543,25,-315,-6.92138671875e-05,0,0,69,668434,16676,16746005,16748874,8231,4945,1774,2094,Tag0,unknown
515,1611475036553,25,-259,-5.69091796875e-05,0,0,69,668434,16676,16746005,16748874,8231,4945,1774,2094,Tag0,unknown
516,1611475036568,25,14,3.076171875e-06,0,0,69,668434,16676,16746005,16748874,8231,4945,1774,2094,Tag0,unknown
517,1611475036578,25,27,5.932617187500001e-06,0,0,69,668434,16676,16746005,16748874,8231,4945,1774,2094,Tag0,unknown
518,1611475036604,25,33,7.2509765625e-06,0,0,69,668434,16676,16746005,16748874,8231,4945,1774,2094,Tag0,unknown
519,1611475036626,25,42,9.228515625000003e-06,0,0,69,668434,16676,16746005,16748874,8231,4945,1774,2094,Tag0,unknown
520,1611475036636,25,52,1.142578125e-05,0,0,69,668434,16676,16746005,16748874,8231,4945,1774,2094,Tag0,unknown
521,1611475036646,25,53,1.1645507812500003e-05,0,0,69,668434,16676,16746005,16748874,8231,4945,1774,2094,Tag0,unknown
522,1611475036661,25,55,1.20849609375e-05,0,0,69,668434,16676,16746005,16748874,8231,4945,1774,2094,Tag0,unknown
523,1611475036678,25,57,1.25244140625e-05,0,0,69,668434,16676,16746005,16748874,8231,4945,1774,2094,Tag0,unknown
524,1611475036698,25,60,1.318359375e-05,0,0,69,668434,16676,16746005,16748874,8231,4945,1774,2094,Tag0,unknown
525,1611475036708,25,61,1.34033203125e-05,0,0,69,668434,16676,16746005,16748874,8231,4945,1774,2094,Tag0,unknown
526,1611475036722,25,64,1.40625e-05,0,0,69,668434,16676,16746005,16748874,8231,4945,1774,2094,Tag0,unknown
527,1611475036748,25,65,1.42822265625e-05,0,0,69,668434,16676,16746005,16748874,8231,4945,1774,2094,Tag0,unknown
528,1611475036759,25,65,1.42822265625e-05,0,0,69,668434,16676,16746005,16748874,8231,4945,1774,2094,Tag0,unknown
529,1611475036788,25,65,1.42822265625e-05,0,0,69,668434,16676,16746005,16748874,8231,4945,1774,2094,Tag0,unknown
530,1611475036810,25,66,1.4501953125e-05,0,0,69,668434,16676,16746005,16748874,8231,4945,1774,2094,Tag0,unknown
531,1611475036841,25,66,1.4501953125e-05,0,0,69,668434,16676,16746005,16748874,8231,4945,1774,2094,Tag0,unknown
532,1611475036861,25,66,1.4501953125e-05,0,0,69,668434,16676,16746005,16748874,8231,4945,1774,2094,Tag0,unknown
533,1611475036871,25,66,1.4501953125e-05,0,0,69,668434,16676,16746005,16748874,8231,4945,1774,2094,Tag0,unknown
534,1611475036881,25,68,1.494140625e-05,0,0,69,668434,16676,16746005,16748874,8231,4945,1774,2094,Tag0,unknown
535,1611475036891,25,66,1.4501953125e-05,0,0,69,668434,16676,16746005,16748874,8231,4945,1774,2094,Tag0,unknown
536,1611475036901,25,67,1.4721679687500003e-05,0,0,69,668434,16676,16746005,16748874,8231,4945,1774,2094,Tag0,unknown
537,1611475036918,25,67,1.4721679687500003e-05,0,0,69,668434,16676,16746005,16748874,8231,4945,1774,2094,Tag0,unknown
538,1611475036929,25,67,1.4721679687500003e-05,0,0,69,668434,16676,16746005,16748874,8231,4945,1774,2094,Tag0,unknown
539,1611475036939,25,67,1.4721679687500003e-05,0,0,69,668434,16676,16746005,16748874,8231,4945,1774,2094,Tag0,unknown
540,1611475036996,25,67,1.4721679687500003e-05,0,0,69,668434,16676,16746005,16748874,8231,4945,1774,2094,Tag0,unknown
541,1611475037015,25,67,1.4721679687500003e-05,0,0,69,668434,16676,16746005,16748874,8231,4945,1774,2094,Tag0,unknown
542,1611475037026,25,66,1.4501953125e-05,0,0,69,668434,16676,16746005,16748874,8231,4945,1774,2094,Tag0,unknown
543,1611475037065,25,66,1.4501953125e-05,0,0,69,668434,16676,16746005,16748874,8231,4945,1774,2094,Tag0,unknown
544,1611475037083,25,67,1.4721679687500003e-05,0,0,69,668434,16676,16746005,16748874,8231,4945,1774,2094,Tag0,unknown
545,1611475037093,25,67,1.4721679687500003e-05,0,0,69,668434,16676,16746005,16748874,8231,4945,1774,2094,Tag0,unknown
546,1611475037206,25,66,1.4501953125e-05,0,0,69,668434,16676,16746005,16748874,8231,4945,1774,2094,Tag0,unknown
547,1611475037236,25,67,1.4721679687500003e-05,0,0,69,668434,16676,16746005,16748874,8231,4945,1774,2094,Tag0,unknown
548,1611475037246,25,66,1.4501953125e-05,0,0,69,668434,16676,16746005,16748874,8231,4945,1774,2094,Tag0,unknown
549,1611475037257,25,66,1.4501953125e-05,0,0,69,668434,16676,16746005,16748874,8231,4945,1774,2094,Tag0,unknown
550,1611475037279,25,66,1.4501953125e-05,0,0,69,668434,16676,16746005,16748874,8231,4945,1774,2094,Tag0,unknown
551,1611475037408,25,66,1.4501953125e-05,0,0,69,668434,16676,16746005,16748874,8231,4945,1774,2094,Tag0,unknown
552,1611475037439,25,66,1.4501953125e-05,0,0,69,668434,16676,16746005,16748874,8231,4945,1774,2094,Tag0,unknown
553,1611475037450,25,67,1.4721679687500003e-05,0,0,69,668434,16676,16746005,16748874,8231,4945,1774,2094,Tag0,unknown
554,1611475037460,25,67,1.4721679687500003e-05,0,0,69,668434,16676,16746005,16748874,8231,4945,1774,2094,Tag0,unknown
555,1611475037522,25,67,1.4721679687500003e-05,0,0,69,668434,16676,16746005,16748874,8231,4945,1774,2094,Tag0,unknown
556,1611475037532,25,66,1.4501953125e-05,0,0,69,668434,16676,16746005,16748874,8231,4945,1774,2094,Tag0,unknown
557,1611475037546,25,67,1.4721679687500003e-05,0,0,69,668434,16676,16746005,16748874,8231,4945,1774,2094,Tag0,unknown
558,1611475037565,25,66,1.4501953125e-05,0,0,69,668434,16676,16746005,16748874,8231,4945,1774,2094,Tag0,unknown
559,1611475037581,25,67,1.4721679687500003e-05,0,0,69,668434,16676,16746005,16748874,8231,4945,1774,2094,Tag0,unknown
560,1611475037591,25,66,1.4501953125e-05,0,0,69,668434,16676,16746005,16748874,8231,4945,1774,2094,Tag0,unknown
561,1611475037604,25,67,1.4721679687500003e-05,0,0,69,668434,16676,16746005,16748874,8231,4945,1774,2094,Tag0,unknown
562,1611475037614,25,66,1.4501953125e-05,0,0,69,668434,16676,16746005,16748874,8231,4945,1774,2094,Tag0,unknown
563,1611475037625,25,67,1.4721679687500003e-05,0,0,69,668434,16676,16746005,16748874,8231,4945,1774,2094,Tag0,unknown
564,1611475037635,25,66,1.4501953125e-05,0,0,69,668434,16676,16746005,16748874,8231,4945,1774,2094,Tag0,unknown
565,1611475037645,25,68,1.494140625e-05,0,0,69,668434,16676,16746005,16748874,8231,4945,1774,2094,Tag0,unknown
566,1611475037660,25,67,1.4721679687500003e-05,0,0,69,668434,16676,16746005,16748874,8231,4945,1774,2094,Tag0,unknown
567,1611475037686,25,66,1.4501953125e-05,0,0,69,668434,16676,16746005,16748874,8231,4945,1774,2094,Tag0,unknown
568,1611475037696,25,66,1.4501953125e-05,0,0,69,668434,16676,16746005,16748874,8231,4945,1774,2094,Tag0,unknown
569,1611475037719,25,67,1.4721679687500003e-05,0,0,69,668434,16676,16746005,16748874,8231,4945,1774,2094,Tag0,unknown
570,1611475037730,25,69,1.51611328125e-05,0,0,69,668434,16676,16746005,16748874,8231,4945,1774,2094,Tag0,unknown
571,1611475037740,25,1791,0.0003935302734375,0,0,69,668434,16676,16746005,16748874,8231,4945,1774,2094,Tag0,unknown
572,1611475037750,25,1791,0.0003935302734375,0,0,69,668434,16676,16746005,16748874,8231,4945,1774,2094,Tag0,unknown
573,1611475037763,25,1791,0.0003935302734375,0,0,69,668434,16676,16746005,16748874,8231,4945,1774,2094,Tag0,unknown
574,1611475037790,25,1768,0.0003884765625,0,0,69,668434,16676,16746005,16748874,8231,4945,1774,2094,Tag0,unknown
575,1611475037800,25,1579,0.0003469482421875,0,0,69,668434,16676,16746005,16748874,8231,4945,1774,2094,Tag0,unknown
576,1611475037812,25,1021,0.0002243408203125,0,0,69,668434,16676,16746005,16748874,8231,4945,1774,2094,Tag0,unknown
577,1611475037831,25,839,0.0001843505859375,0,0,69,668434,16676,16746005,16748874,8231,4945,1774,2094,Tag0,unknown
578,1611475037844,25,811,0.0001781982421875,0,0,69,668434,16676,16746005,16748874,8231,4945,1774,2094,Tag0,unknown
579,1611475037865,25,542,0.000119091796875,0,0,69,668434,16676,16746005,16748874,8231,4945,1774,2094,Tag0,unknown
580,1611475037879,25,523,0.0001149169921875,0,0,69,668434,16676,16746005,16748874,8231,4945,1774,2094,Tag0,unknown
581,1611475037906,25,-5,-1.0986328125e-06,0,0,69,668434,16676,16746005,16748874,8231,4945,1774,2094,Tag0,unknown
582,1611475037916,25,-24,-5.2734375e-06,0,0,69,668434,16676,16746005,16748874,8231,4945,1774,2094,Tag0,unknown
583,1611475037939,25,-71,-1.56005859375e-05,0,0,69,668434,16676,16746005,16748874,8231,4945,1774,2094,Tag0,unknown
584,1611475037949,25,-83,-1.82373046875e-05,0,0,69,668434,16676,16746005,16748874,8231,4945,1774,2094,Tag0,unknown
585,1611475037964,25,-118,-2.5927734375e-05,0,0,69,668434,16676,16746005,16748874,8231,4945,1774,2094,Tag0,unknown
586,1611475037974,25,117,2.57080078125e-05,0,0,69,668434,16676,16746005,16748874,8231,4945,1774,2094,Tag0,unknown
587,1611475037996,25,105,2.30712890625e-05,0,0,69,668434,16676,16746005,16748874,8231,4945,1774,2094,Tag0,unknown
588,1611475038014,25,96,2.109375e-05,0,0,69,668434,16676,16746005,16748874,8231,4945,1774,2094,Tag0,unknown
589,1611475038030,25,91,1.99951171875e-05,0,0,69,668434,16676,16746005,16748874,8231,4945,1774,2094,Tag0,unknown
590,1611475038040,25,83,1.82373046875e-05,0,0,69,668434,16676,16746005,16748874,8231,4945,1774,2094,Tag0,unknown
591,1611475038055,25,81,1.77978515625e-05,0,0,69,668434,16676,16746005,16748874,8231,4945,1774,2094,Tag0,unknown
592,1611475038078,25,74,1.6259765625e-05,0,0,69,668434,16676,16746005,16748874,8231,4945,1774,2094,Tag0,unknown
593,1611475038096,25,71,1.56005859375e-05,0,0,69,668434,16676,16746005,16748874,8231,4945,1774,2094,Tag0,unknown
594,1611475038112,25,71,1.56005859375e-05,0,0,69,668434,16676,16746005,16748874,8231,4945,1774,2094,Tag0,unknown
595,1611475038130,25,69,1.51611328125e-05,0,0,69,668434,16676,16746005,16748874,8231,4945,1774,2094,Tag0,unknown
596,1611475038147,25,69,1.51611328125e-05,0,0,69,668434,16676,16746005,16748874,8231,4945,1774,2094,Tag0,unknown
597,1611475038157,25,69,1.51611328125e-05,0,0,69,668434,16676,16746005,16748874,8231,4945,1774,2094,Tag0,unknown
598,1611475038167,25,69,1.51611328125e-05,0,0,69,668434,16676,16746005,16748874,8231,4945,1774,2094,Tag0,unknown
599,1611475038196,25,69,1.51611328125e-05,0,0,69,668434,16676,16746005,16748874,8231,4945,1774,2094,Tag0,unknown
600,1611475038213,25,69,1.51611328125e-05,0,0,69,668434,16676,16746005,16748874,8231,4945,1774,2094,Tag0,unknown
601,1611475038223,25,65,1.42822265625e-05,0,0,69,668434,16676,16746005,16748874,8231,4945,1774,2094,Tag0,unknown
602,1611475038234,25,-2048,-0.00045,0,0,69,668434,16676,16746005,16748874,8231,4945,1774,2094,Tag0,unknown
603,1611475038248,25,-2048,-0.00045,0,0,69,668434,16676,16746005,16748874,8231,4945,1774,2094,Tag0,unknown
604,1611475038262,25,-2048,-0.00045,0,0,69,668434,16676,16746005,16748874,8231,4945,1774,2094,Tag0,unknown
605,1611475038297,25,1234,0.000271142578125,0,0,69,668434,16676,16746005,16748874,8231,4945,1774,2094,Tag0,unknown
606,1611475038315,25,-2048,-0.00045,0,0,69,668434,16676,16746005,16748874,8231,4945,1774,2094,Tag0,unknown
607,1611475038325,51,-1797,-0.0003948486328125,0,0,69,744757,135549,34809,79633,84530,16770132,25835,15921,Tag0,unknown
608,1611475038335,51,410,9.0087890625e-05,0,0,69,744757,135549,34809,79633,84530,16770132,25835,15921,Tag0,unknown
609,1611475038357,51,615,0.0001351318359375,0,0,69,744757,135549,34809,79633,84530,16770132,25835,15921,Tag0,unknown
610,1611475038367,51,309,6.78955078125e-05,0,0,69,744757,135549,34809,79633,84530,16770132,25835,15921,Tag0,unknown
611,1611475038382,51,1791,0.0003935302734375,0,0,69,744757,135549,34809,79633,84530,16770132,25835,15921,Tag0,unknown
612,1611475038395,51,1791,0.0003935302734375,0,0,69,744757,135549,34809,79633,84530,16770132,25835,15921,Tag0,unknown
613,1611475038412,51,1791,0.0003935302734375,0,0,69,744757,135549,34809,79633,84530,16770132,25835,15921,Tag0,unknown
614,1611475038478,51,1317,0.0002893798828125,0,0,69,744757,135549,34809,79633,84530,16770132,25835,15921,Tag0,unknown
615,1611475038500,51,1291,0.00028366699218750004,0,0,69,744757,135549,34809,79633,84530,16770132,25835,15921,Tag0,unknown
616,1611475038510,51,721,0.0001584228515625,0,0,69,744757,135549,34809,79633,84530,16770132,25835,15921,Tag0,unknown
617,1611475038520,51,557,0.0001223876953125,0,0,69,744757,135549,34809,79633,84530,16770132,25835,15921,Tag0,unknown
618,1611475038532,51,321,7.053222656250001e-05,0,0,69,744757,135549,34809,79633,84530,16770132,25835,15921,Tag0,unknown
619,1611475038548,51,291,6.39404296875e-05,0,0,69,744757,135549,34809,79633,84530,16770132,25835,15921,Tag0,unknown
620,1611475038564,51,-54,-1.1865234375e-05,0,0,69,744757,135549,34809,79633,84530,16770132,25835,15921,Tag0,unknown
621,1611475038597,51,125,2.74658203125e-05,0,0,69,744757,135549,34809,79633,84530,16770132,25835,15921,Tag0,unknown
622,1611475038612,51,-115,-2.52685546875e-05,0,0,69,744757,135549,34809,79633,84530,16770132,25835,15921,Tag0,unknown
623,1611475038637,51,-299,-6.56982421875e-05,0,0,69,744757,135549,34809,79633,84530,16770132,25835,15921,Tag0,unknown
624,1611475038648,51,67,1.4721679687500003e-05,0,0,69,744757,135549,34809,79633,84530,16770132,25835,15921,Tag0,unknown
625,1611475038658,51,114,2.5048828125000006e-05,0,0,69,744757,135549,34809,79633,84530,16770132,25835,15921,Tag0,unknown
626,1611475038695,51,-295,-6.48193359375e-05,0,0,69,744757,135549,34809,79633,84530,16770132,25835,15921,Tag0,unknown
627,1611475038717,51,-278,-6.108398437500001e-05,0,0,69,744757,135549,34809,79633,84530,16770132,25835,15921,Tag0,unknown
628,1611475038727,51,125,2.74658203125e-05,0,0,69,744757,135549,34809,79633,84530,16770132,25835,15921,Tag0,unknown
629,1611475038737,51,-96,-2.109375e-05,0,0,69,744757,135549,34809,79633,84530,16770132,25835,15921,Tag0,unknown
630,1611475038748,51,12,2.63671875e-06,0,0,69,744757,135549,34809,79633,84530,16770132,25835,15921,Tag0,unknown
631,1611475038758,51,44,9.66796875e-06,0,0,69,744757,135549,34809,79633,84530,16770132,25835,15921,Tag0,unknown
632,1611475038779,51,-278,-6.108398437500001e-05,0,0,69,744757,135549,34809,79633,84530,16770132,25835,15921,Tag0,unknown
633,1611475038807,51,67,1.4721679687500003e-05,0,0,69,744757,135549,34809,79633,84530,16770132,25835,15921,Tag0,unknown
634,1611475038830,51,-181,-3.97705078125e-05,0,0,69,744757,135549,34809,79633,84530,16770132,25835,15921,Tag0,unknown
635,1611475038851,51,92,2.021484375e-05,0,0,69,744757,135549,34809,79633,84530,16770132,25835,15921,Tag0,unknown
636,1611475038865,51,69,1.51611328125e-05,0,0,69,744757,135549,34809,79633,84530,16770132,25835,15921,Tag0,unknown
637,1611475038880,51,97,2.13134765625e-05,0,0,69,744757,135549,34809,79633,84530,16770132,25835,15921,Tag0,unknown
638,1611475038897,51,-106,-2.3291015625000006e-05,0,0,69,744757,135549,34809,79633,84530,16770132,25835,15921,Tag0,unknown
639,1611475038916,51,-92,-2.021484375e-05,0,0,69,744757,135549,34809,79633,84530,16770132,25835,15921,Tag0,unknown
640,1611475038930,51,34,7.470703125e-06,0,0,69,744757,135549,34809,79633,84530,16770132,25835,15921,Tag0,unknown
641,1611475038954,51,-355,-7.80029296875e-05,0,0,69,744757,135549,34809,79633,84530,16770132,25835,15921,Tag0,unknown
642,1611475038967,51,-117,-2.57080078125e-05,0,0,69,744757,135549,34809,79633,84530,16770132,25835,15921,Tag0,unknown
643,1611475038977,51,17,3.7353515625e-06,0,0,69,744757,135549,34809,79633,84530,16770132,25835,15921,Tag0,unknown
644,1611475038987,51,-289,-6.35009765625e-05,0,0,69,744757,135549,34809,79633,84530,16770132,25835,15921,Tag0,unknown
645,1611475039002,51,-363,-7.97607421875e-05,0,0,69,744757,135549,34809,79633,84530,16770132,25835,15921,Tag0,unknown
646,1611475039023,51,-111,-2.43896484375e-05,0,0,69,744757,135549,34809,79633,84530,16770132,25835,15921,Tag0,unknown
647,1611475039033,51,-292,-6.416015625000001e-05,0,0,69,744757,135549,34809,79633,84530,16770132,25835,15921,Tag0,unknown
648,1611475039046,51,-265,-5.82275390625e-05,0,0,69,744757,135549,34809,79633,84530,16770132,25835,15921,Tag0,unknown
649,1611475039063,51,-96,-2.109375e-05,0,0,69,744757,135549,34809,79633,84530,16770132,25835,15921,Tag0,unknown
650,1611475039079,51,35,7.6904296875e-06,0,0,69,744757,135549,34809,79633,84530,16770132,25835,15921,Tag0,unknown
651,1611475039097,51,-307,-6.74560546875e-05,0,0,69,744757,135549,34809,79633,84530,16770132,25835,15921,Tag0,unknown
652,1611475039114,51,-74,-1.6259765625e-05,0,0,69,744757,135549,34809,79633,84530,16770132,25835,15921,Tag0,unknown
653,1611475039124,51,87,1.91162109375e-05,0,0,69,744757,135549,34809,79633,84530,16770132,25835,15921,Tag0,unknown
654,1611475039135,51,-294,-6.4599609375e-05,0,0,69,744757,135549,34809,79633,84530,16770132,25835,15921,Tag0,unknown
655,1611475039149,51,-276,-6.064453125e-05,0,0,69,744757,135549,34809,79633,84530,16770132,25835,15921,Tag0,unknown
656,1611475039168,51,51,1.12060546875e-05,0,0,69,744757,135549,34809,79633,84530,16770132,25835,15921,Tag0,unknown
657,1611475039184,51,-71,-1.56005859375e-05,0,0,69,744757,135549,34809,79633,84530,16770132,25835,15921,Tag0,unknown
658,1611475039194,51,-59,-1.29638671875e-05,0,0,69,744757,135549,34809,79633,84530,16770132,25835,15921,Tag0,unknown
659,1611475039208,51,-355,-7.80029296875e-05,0,0,69,744757,135549,34809,79633,84530,16770132,25835,15921,Tag0,unknown
660,1611475039218,51,89,1.95556640625e-05,0,0,69,744757,135549,34809,79633,84530,16770132,25835,15921,Tag0,unknown
661,1611475039241,51,-85,-1.86767578125e-05,0,0,69,744757,135549,34809,79633,84530,16770132,25835,15921,Tag0,unknown
662,1611475039251,51,-162,-3.5595703125e-05,0,0,69,744757,135549,34809,79633,84530,16770132,25835,15921,Tag0,unknown
663,1611475039265,51,-79,-1.7358398437500006e-05,0,0,69,744757,135549,34809,79633,84530,16770132,25835,15921,Tag0,unknown
664,1611475039283,51,-294,-6.4599609375e-05,0,0,69,2881992,34460,6784,9223,14591,14057,16745947,23024,Tag0,unknown
665,1611475039297,51,292,6.416015625000001e-05,0,0,69,2881992,34460,6784,9223,14591,14057,16745947,23024,Tag0,unknown
666,1611475039319,51,359,7.88818359375e-05,0,0,69,2881992,34460,6784,9223,14591,14057,16745947,23024,Tag0,unknown
667,1611475039331,51,323,7.09716796875e-05,0,0,69,2881992,34460,6784,9223,14591,14057,16745947,23024,Tag0,unknown
668,1611475039354,51,-342,-7.5146484375e-05,0,0,69,2881992,34460,6784,9223,14591,14057,16745947,23024,Tag0,unknown
669,1611475039370,51,-585,-0.0001285400390625,0,0,69,2881992,34460,6784,9223,14591,14057,16745947,23024,Tag0,unknown
670,1611475039380,51,-89,-1.95556640625e-05,0,0,69,2881992,34460,6784,9223,14591,14057,16745947,23024,Tag0,unknown
671,1611475039390,51,235,5.16357421875e-05,0,0,69,2881992,34460,6784,9223,14591,14057,16745947,23024,Tag0,unknown
672,1611475039405,51,371,8.151855468750001e-05,0,0,69,2881992,34460,6784,9223,14591,14057,16745947,23024,Tag0,unknown
673,1611475039426,51,-2048,-0.00045,0,0,69,2881992,34460,6784,9223,14591,14057,16745947,23024,Tag0,unknown
674,1611475039447,51,1791,0.0003935302734375,0,0,69,2881992,34460,6784,9223,14591,14057,16745947,23024,Tag0,unknown
675,1611475039465,51,1493,0.00032805175781250003,0,0,69,2881992,34460,6784,9223,14591,14057,16745947,23024,Tag0,unknown
676,1611475039482,51,1429,0.0003139892578125001,0,0,69,2881992,34460,6784,9223,14591,14057,16745947,23024,Tag0,unknown
677,1611475039504,51,-2048,-0.00045,0,0,69,2881992,34460,6784,9223,14591,14057,16745947,23024,Tag0,unknown
678,1611475039516,51,-2048,-0.00045,0,0,69,2881992,34460,6784,9223,14591,14057,16745947,23024,Tag0,unknown
679,1611475039526,51,-1931,-0.0004242919921875,0,0,69,2881992,34460,6784,9223,14591,14057,16745947,23024,Tag0,unknown
680,1611475039536,51,-1622,-0.000356396484375,0,0,69,2881992,34460,6784,9223,14591,14057,16745947,23024,Tag0,unknown
681,1611475039549,51,-1570,-0.000344970703125,0,0,69,2881992,34460,6784,9223,14591,14057,16745947,23024,Tag0,unknown
682,1611475039573,51,-1070,-0.000235107421875,0,0,69,2881992,34460,6784,9223,14591,14057,16745947,23024,Tag0,unknown
683,1611475039583,51,-1041,-0.0002287353515625,0,0,69,2881992,34460,6784,9223,14591,14057,16745947,23024,Tag0,unknown
684,1611475039593,51,-562,-0.000123486328125,0,0,69,2881992,34460,6784,9223,14591,14057,16745947,23024,Tag0,unknown
685,1611475039611,51,-535,-0.0001175537109375,0,0,69,2881992,34460,6784,9223,14591,14057,16745947,23024,Tag0,unknown
686,1611475039631,51,-522,-0.000114697265625,0,0,69,2881992,34460,6784,9223,14591,14057,16745947,23024,Tag0,unknown
687,1611475039649,51,-147,-3.22998046875e-05,0,0,69,2881992,34460,6784,9223,14591,14057,16745947,23024,Tag0,unknown
688,1611475039665,51,-379,-8.32763671875e-05,0,0,69,2881992,34460,6784,9223,14591,14057,16745947,23024,Tag0,unknown
689,1611475039675,51,-307,-6.74560546875e-05,0,0,69,2881992,34460,6784,9223,14591,14057,16745947,23024,Tag0,unknown
690,1611475039685,51,-273,-5.9985351562500014e-05,0,0,69,2881992,34460,6784,9223,14591,14057,16745947,23024,Tag0,unknown
691,1611475039700,51,-268,-5.888671875000001e-05,0,0,69,2881992,34460,6784,9223,14591,14057,16745947,23024,Tag0,unknown
692,1611475039719,51,10,2.197265625e-06,0,0,69,2881992,34460,6784,9223,14591,14057,16745947,23024,Tag0,unknown
693,1611475039735,51,17,3.7353515625e-06,0,0,69,2881992,34460,6784,9223,14591,14057,16745947,23024,Tag0,unknown
694,1611475039745,51,36,7.91015625e-06,0,0,69,2881992,34460,6784,9223,14591,14057,16745947,23024,Tag0,unknown
695,1611475039755,51,43,9.4482421875e-06,0,0,69,2881992,34460,6784,9223,14591,14057,16745947,23024,Tag0,unknown
696,1611475039766,51,43,9.4482421875e-06,0,0,69,2881992,34460,6784,9223,14591,14057,16745947,23024,Tag0,unknown
697,1611475039794,51,54,1.1865234375e-05,0,0,69,2881992,34460,6784,9223,14591,14057,16745947,23024,Tag0,unknown
698,1611475039816,51,57,1.25244140625e-05,0,0,69,2881992,34460,6784,9223,14591,14057,16745947,23024,Tag0,unknown
699,1611475039836,51,59,1.29638671875e-05,0,0,69,2881992,34460,6784,9223,14591,14057,16745947,23024,Tag0,unknown
700,1611475039854,51,59,1.29638671875e-05,0,0,69,2881992,34460,6784,9223,14591,14057,16745947,23024,Tag0,unknown
701,1611475039865,51,61,1.34033203125e-05,0,0,69,2881992,34460,6784,9223,14591,14057,16745947,23024,Tag0,unknown
702,1611475039875,51,64,1.40625e-05,0,0,69,2881992,34460,6784,9223,14591,14057,16745947,23024,Tag0,unknown
703,1611475039885,51,65,1.42822265625e-05,0,0,69,2881992,34460,6784,9223,14591,14057,16745947,23024,Tag0,unknown
704,1611475039895,51,65,1.42822265625e-05,0,0,69,2881992,34460,6784,9223,14591,14057,16745947,23024,Tag0,unknown
705,1611475039916,51,67,1.4721679687500003e-05,0,0,69,2881992,34460,6784,9223,14591,14057,16745947,23024,Tag0,unknown
706,1611475039939,51,66,1.4501953125e-05,0,0,69,2881992,34460,6784,9223,14591,14057,16745947,23024,Tag0,unknown
707,1611475039949,51,67,1.4721679687500003e-05,0,0,69,2881992,34460,6784,9223,14591,14057,16745947,23024,Tag0,unknown
708,1611475039959,51,66,1.4501953125e-05,0,0,69,2881992,34460,6784,9223,14591,14057,16745947,23024,Tag0,unknown
709,1611475039974,51,67,1.4721679687500003e-05,0,0,69,2881992,34460,6784,9223,14591,14057,16745947,23024,Tag0,unknown
710,1611475039984,51,68,1.494140625e-05,0,0,69,2881992,34460,6784,9223,14591,14057,16745947,23024,Tag0,unknown
711,1611475039998,51,67,1.4721679687500003e-05,0,0,69,2881992,34460,6784,9223,14591,14057,16745947,23024,Tag0,unknown
712,1611475040026,51,66,1.4501953125e-05,0,0,69,2881992,34460,6784,9223,14591,14057,16745947,23024,Tag0,unknown
713,1611475040038,51,67,1.4721679687500003e-05,0,0,69,2881992,34460,6784,9223,14591,14057,16745947,23024,Tag0,unknown
714,1611475040048,51,67,1.4721679687500003e-05,0,0,69,2881992,34460,6784,9223,14591,14057,16745947,23024,Tag0,unknown
715,1611475040059,51,67,1.4721679687500003e-05,0,0,69,2881992,34460,6784,9223,14591,14057,16745947,23024,Tag0,unknown
716,1611475040069,51,67,1.4721679687500003e-05,0,0,69,2881992,34460,6784,9223,14591,14057,16745947,23024,Tag0,unknown
717,1611475040084,51,67,1.4721679687500003e-05,0,0,69,2881992,34460,6784,9223,14591,14057,16745947,23024,Tag0,unknown
718,1611475040101,51,67,1.4721679687500003e-05,0,0,69,2881992,34460,6784,9223,14591,14057,16745947,23024,Tag0,unknown
719,1611475040117,51,67,1.4721679687500003e-05,0,0,69,2881992,34460,6784,9223,14591,14057,16745947,23024,Tag0,unknown
720,1611475040136,51,67,1.4721679687500003e-05,0,0,69,2881992,34460,6784,9223,14591,14057,16745947,23024,Tag0,unknown
721,1611475040151,51,67,1.4721679687500003e-05,0,0,69,2881992,34460,6784,9223,14591,14057,16745947,23024,Tag0,unknown
722,1611475040161,51,67,1.4721679687500003e-05,0,0,69,2881992,34460,6784,9223,14591,14057,16745947,23024,Tag0,unknown
723,1611475040172,51,67,1.4721679687500003e-05,0,0,69,2881992,34460,6784,9223,14591,14057,16745947,23024,Tag0,unknown
724,1611475040184,51,67,1.4721679687500003e-05,0,0,69,2881992,34460,6784,9223,14591,14057,16745947,23024,Tag0,unknown
725,1611475040213,51,66,1.4501953125e-05,0,0,69,2881992,34460,6784,9223,14591,14057,16745947,23024,Tag0,unknown
726,1611475040235,51,66,1.4501953125e-05,0,0,69,2881992,34460,6784,9223,14591,14057,16745947,23024,Tag0,unknown
727,1611475040245,51,66,1.4501953125e-05,0,0,69,2881992,34460,6784,9223,14591,14057,16745947,23024,Tag0,unknown
728,1611475040259,51,67,1.4721679687500003e-05,0,0,69,2881992,34460,6784,9223,14591,14057,16745947,23024,Tag0,unknown
729,1611475040269,51,67,1.4721679687500003e-05,0,0,69,175136,77757,105625,98432,40343,342899,97212,137626,Tag0,unknown
730,1611475040287,51,67,1.4721679687500003e-05,0,0,69,175136,77757,105625,98432,40343,342899,97212,137626,Tag0,unknown
731,1611475040299,51,67,1.4721679687500003e-05,0,0,69,175136,77757,105625,98432,40343,342899,97212,137626,Tag0,unknown
732,1611475040323,51,67,1.4721679687500003e-05,0,0,69,175136,77757,105625,98432,40343,342899,97212,137626,Tag0,unknown
733,1611475040333,51,66,1.4501953125e-05,0,0,69,175136,77757,105625,98432,40343,342899,97212,137626,Tag0,unknown
734,1611475040350,51,67,1.4721679687500003e-05,0,0,69,175136,77757,105625,98432,40343,342899,97212,137626,Tag0,unknown
735,1611475040371,51,67,1.4721679687500003e-05,0,0,69,175136,77757,105625,98432,40343,342899,97212,137626,Tag0,unknown
736,1611475040381,51,67,1.4721679687500003e-05,0,0,69,175136,77757,105625,98432,40343,342899,97212,137626,Tag0,unknown
737,1611475040399,51,68,1.494140625e-05,0,0,69,175136,77757,105625,98432,40343,342899,97212,137626,Tag0,unknown
738,1611475040418,51,67,1.4721679687500003e-05,0,0,69,175136,77757,105625,98432,40343,342899,97212,137626,Tag0,unknown
739,1611475040428,51,66,1.4501953125e-05,0,0,69,175136,77757,105625,98432,40343,342899,97212,137626,Tag0,unknown
740,1611475040443,51,67,1.4721679687500003e-05,0,0,69,175136,77757,105625,98432,40343,342899,97212,137626,Tag0,unknown
741,1611475040453,51,67,1.4721679687500003e-05,0,0,69,175136,77757,105625,98432,40343,342899,97212,137626,Tag0,unknown
742,1611475040468,51,66,1.4501953125e-05,0,0,69,175136,77757,105625,98432,40343,342899,97212,137626,Tag0,unknown
743,1611475040485,51,67,1.4721679687500003e-05,0,0,69,175136,77757,105625,98432,40343,342899,97212,137626,Tag0,unknown
744,1611475040495,51,67,1.4721679687500003e-05,0,0,69,175136,77757,105625,98432,40343,342899,97212,137626,Tag0,unknown
745,1611475040506,51,67,1.4721679687500003e-05,0,0,69,175136,77757,105625,98432,40343,342899,97212,137626,Tag0,unknown
746,1611475040517,51,67,1.4721679687500003e-05,0,0,69,175136,77757,105625,98432,40343,342899,97212,137626,Tag0,unknown
747,1611475040537,51,66,1.4501953125e-05,0,0,69,175136,77757,105625,98432,40343,342899,97212,137626,Tag0,unknown
748,1611475040549,51,67,1.4721679687500003e-05,0,0,69,175136,77757,105625,98432,40343,342899,97212,137626,Tag0,unknown
749,1611475040576,51,66,1.4501953125e-05,0,0,69,175136,77757,105625,98432,40343,342899,97212,137626,Tag0,unknown
750,1611475040586,51,67,1.4721679687500003e-05,0,0,69,175136,77757,105625,98432,40343,342899,97212,137626,Tag0,unknown
751,1611475040600,51,67,1.4721679687500003e-05,0,0,69,175136,77757,105625,98432,40343,342899,97212,137626,Tag0,unknown
752,1611475040618,51,66,1.4501953125e-05,0,0,69,175136,77757,105625,98432,40343,342899,97212,137626,Tag0,unknown
753,1611475040628,51,67,1.4721679687500003e-05,0,0,69,175136,77757,105625,98432,40343,342899,97212,137626,Tag0,unknown
754,1611475040638,51,68,1.494140625e-05,0,0,69,175136,77757,105625,98432,40343,342899,97212,137626,Tag0,unknown
755,1611475040657,51,67,1.4721679687500003e-05,0,0,69,175136,77757,105625,98432,40343,342899,97212,137626,Tag0,unknown
756,1611475040668,51,67,1.4721679687500003e-05,0,0,69,175136,77757,105625,98432,40343,342899,97212,137626,Tag0,unknown
757,1611475040678,51,67,1.4721679687500003e-05,0,0,69,175136,77757,105625,98432,40343,342899,97212,137626,Tag0,unknown
758,1611475040699,51,67,1.4721679687500003e-05,0,0,69,175136,77757,105625,98432,40343,342899,97212,137626,Tag0,unknown
759,1611475040716,51,67,1.4721679687500003e-05,0,0,69,175136,77757,105625,98432,40343,342899,97212,137626,Tag0,unknown
760,1611475040733,51,67,1.4721679687500003e-05,0,0,69,175136,77757,105625,98432,40343,342899,97212,137626,Tag0,unknown
761,1611475040751,51,67,1.4721679687500003e-05,0,0,69,175136,77757,105625,98432,40343,342899,97212,137626,Tag0,unknown
762,1611475040761,51,67,1.4721679687500003e-05,0,0,69,175136,77757,105625,98432,40343,342899,97212,137626,Tag0,unknown
763,1611475040772,51,68,1.494140625e-05,0,0,69,175136,77757,105625,98432,40343,342899,97212,137626,Tag0,unknown
764,1611475040785,51,67,1.4721679687500003e-05,0,0,69,175136,77757,105625,98432,40343,342899,97212,137626,Tag0,unknown
765,1611475040806,51,67,1.4721679687500003e-05,0,0,69,175136,77757,105625,98432,40343,342899,97212,137626,Tag0,unknown
766,1611475040819,51,67,1.4721679687500003e-05,0,0,69,175136,77757,105625,98432,40343,342899,97212,137626,Tag0,unknown
767,1611475040829,51,67,1.4721679687500003e-05,0,0,69,175136,77757,105625,98432,40343,342899,97212,137626,Tag0,unknown
768,1611475040846,51,67,1.4721679687500003e-05,0,0,69,175136,77757,105625,98432,40343,342899,97212,137626,Tag0,unknown
769,1611475040856,51,67,1.4721679687500003e-05,0,0,69,175136,77757,105625,98432,40343,342899,97212,137626,Tag0,unknown
770,1611475040869,51,67,1.4721679687500003e-05,0,0,69,175136,77757,105625,98432,40343,342899,97212,137626,Tag0,unknown
771,1611475040887,51,68,1.494140625e-05,0,0,69,175136,77757,105625,98432,40343,342899,97212,137626,Tag0,unknown
772,1611475040897,51,67,1.4721679687500003e-05,0,0,69,175136,77757,105625,98432,40343,342899,97212,137626,Tag0,unknown
773,1611475040907,51,67,1.4721679687500003e-05,0,0,69,175136,77757,105625,98432,40343,342899,97212,137626,Tag0,unknown
774,1611475040917,51,67,1.4721679687500003e-05,0,0,69,175136,77757,105625,98432,40343,342899,97212,137626,Tag0,unknown
775,1611475040934,51,68,1.494140625e-05,0,0,69,175136,77757,105625,98432,40343,342899,97212,137626,Tag0,unknown
776,1611475040950,51,67,1.4721679687500003e-05,0,0,69,175136,77757,105625,98432,40343,342899,97212,137626,Tag0,unknown
777,1611475040967,51,67,1.4721679687500003e-05,0,0,69,175136,77757,105625,98432,40343,342899,97212,137626,Tag0,unknown
778,1611475040993,51,67,1.4721679687500003e-05,0,0,69,175136,77757,105625,98432,40343,342899,97212,137626,Tag0,unknown
779,1611475041007,51,67,1.4721679687500003e-05,0,0,69,175136,77757,105625,98432,40343,342899,97212,137626,Tag0,unknown
780,1611475041017,51,67,1.4721679687500003e-05,0,0,69,175136,77757,105625,98432,40343,342899,97212,137626,Tag0,unknown
781,1611475041036,51,67,1.4721679687500003e-05,0,0,69,175136,77757,105625,98432,40343,342899,97212,137626,Tag0,unknown
782,1611475041046,51,67,1.4721679687500003e-05,0,0,69,175136,77757,105625,98432,40343,342899,97212,137626,Tag0,unknown
783,1611475041056,51,67,1.4721679687500003e-05,0,0,69,175136,77757,105625,98432,40343,342899,97212,137626,Tag0,unknown
784,1611475041069,51,66,1.4501953125e-05,0,0,69,175136,77757,105625,98432,40343,342899,97212,137626,Tag0,unknown
785,1611475041085,51,67,1.4721679687500003e-05,0,0,69,175136,77757,105625,98432,40343,342899,97212,137626,Tag0,unknown
786,1611475041095,51,67,1.4721679687500003e-05,0,0,69,175136,77757,105625,98432,40343,342899,97212,137626,Tag0,unknown
787,1611475041115,51,67,1.4721679687500003e-05,0,0,69,175136,77757,105625,98432,40343,342899,97212,137626,Tag0,unknown
788,1611475041134,51,68,1.494140625e-05,0,0,69,175136,77757,105625,98432,40343,342899,97212,137626,Tag0,unknown
789,1611475041151,51,66,1.4501953125e-05,0,0,69,175136,77757,105625,98432,40343,342899,97212,137626,Tag0,unknown
790,1611475041169,51,66,1.4501953125e-05,0,0,69,175136,77757,105625,98432,40343,342899,97212,137626,Tag0,unknown
791,1611475041179,51,67,1.4721679687500003e-05,0,0,69,175136,77757,105625,98432,40343,342899,97212,137626,Tag0,unknown
792,1611475041192,51,67,1.4721679687500003e-05,0,0,69,175136,77757,105625,98432,40343,342899,97212,137626,Tag0,unknown
793,1611475041219,51,66,1.4501953125e-05,0,0,69,175136,77757,105625,98432,40343,342899,97212,137626,Tag0,unknown
794,1611475041234,51,65,1.42822265625e-05,0,0,69,175136,77757,105625,98432,40343,342899,97212,137626,Tag0,unknown
795,1611475041254,51,66,1.4501953125e-05,0,0,69,175136,77757,105625,98432,40343,342899,97212,137626,Tag0,unknown
796,1611475041268,51,67,1.4721679687500003e-05,0,0,69,175136,77757,105625,98432,40343,342899,97212,137626,Tag0,unknown
797,1611475041293,54,68,1.494140625e-05,0,0,69,1,0,0,0,0,0,0,0,Tag0,unknown
798,1611475041306,54,67,1.4721679687500003e-05,0,0,69,1,0,0,0,0,0,0,0,Tag0,unknown
799,1611475041324,54,67,1.4721679687500003e-05,0,0,69,1,0,0,0,0,0,0,0,Tag0,unknown
800,1611475041337,54,67,1.4721679687500003e-05,0,0,69,1,0,0,0,0,0,0,0,Tag0,unknown
801,1611475041357,54,66,1.4501953125e-05,0,0,69,1,0,0,0,0,0,0,0,Tag0,unknown
802,1611475041370,54,66,1.4501953125e-05,0,0,69,1,0,0,0,0,0,0,0,Tag0,unknown
803,1611475041380,54,67,1.4721679687500003e-05,0,0,69,1,0,0,0,0,0,0,0,Tag0,unknown
804,1611475041395,54,68,1.494140625e-05,0,0,69,1,0,0,0,0,0,0,0,Tag0,unknown
805,1611475041429,54,67,1.4721679687500003e-05,0,0,69,1,0,0,0,0,0,0,0,Tag0,unknown
806,1611475041439,54,67,1.4721679687500003e-05,0,0,69,1,0,0,0,0,0,0,0,Tag0,unknown
807,1611475041452,54,67,1.4721679687500003e-05,0,0,69,1,0,0,0,0,0,0,0,Tag0,unknown
808,1611475041474,54,66,1.4501953125e-05,0,0,69,1,0,0,0,0,0,0,0,Tag0,unknown
809,1611475041487,54,67,1.4721679687500003e-05,0,0,69,1,0,0,0,0,0,0,0,Tag0,unknown
810,1611475041505,54,67,1.4721679687500003e-05,0,0,69,1,0,0,0,0,0,0,0,Tag0,unknown
811,1611475041522,54,67,1.4721679687500003e-05,0,0,69,1,0,0,0,0,0,0,0,Tag0,unknown
812,1611475041532,54,66,1.4501953125e-05,0,0,69,1,0,0,0,0,0,0,0,Tag0,unknown
813,1611475041543,54,67,1.4721679687500003e-05,0,0,69,1,0,0,0,0,0,0,0,Tag0,unknown
814,1611475041553,54,66,1.4501953125e-05,0,0,69,1,0,0,0,0,0,0,0,Tag0,unknown
815,1611475041573,54,67,1.4721679687500003e-05,0,0,69,1,0,0,0,0,0,0,0,Tag0,unknown
816,1611475041584,54,67,1.4721679687500003e-05,0,0,69,1,0,0,0,0,0,0,0,Tag0,unknown
817,1611475041614,54,67,1.4721679687500003e-05,0,0,69,1,0,0,0,0,0,0,0,Tag0,unknown
818,1611475041649,54,66,1.4501953125e-05,0,0,69,1,0,0,0,0,0,0,0,Tag0,unknown
819,1611475041659,54,66,1.4501953125e-05,0,0,69,1,0,0,0,0,0,0,0,Tag0,unknown
820,1611475041671,54,67,1.4721679687500003e-05,0,0,69,1,0,0,0,0,0,0,0,Tag0,unknown
821,1611475041681,54,66,1.4501953125e-05,0,0,69,1,0,0,0,0,0,0,0,Tag0,unknown
822,1611475041691,54,66,1.4501953125e-05,0,0,69,1,0,0,0,0,0,0,0,Tag0,unknown
823,1611475041703,54,66,1.4501953125e-05,0,0,69,1,0,0,0,0,0,0,0,Tag0,unknown
824,1611475041720,54,65,1.42822265625e-05,0,0,69,1,0,0,0,0,0,0,0,Tag0,unknown
825,1611475041737,54,66,1.4501953125e-05,0,0,69,1,0,0,0,0,0,0,0,Tag0,unknown
826,1611475041747,54,66,1.4501953125e-05,0,0,69,1,0,0,0,0,0,0,0,Tag0,unknown
827,1611475041759,54,66,1.4501953125e-05,0,0,69,1,0,0,0,0,0,0,0,Tag0,unknown
828,1611475041770,54,66,1.4501953125e-05,0,0,69,1,0,0,0,0,0,0,0,Tag0,unknown
829,1611475041794,54,65,1.42822265625e-05,0,0,69,1,0,0,0,0,0,0,0,Tag0,unknown
830,1611475041805,54,66,1.4501953125e-05,0,0,69,1,0,0,0,0,0,0,0,Tag0,unknown
831,1611475041815,54,67,1.4721679687500003e-05,0,0,69,1,0,0,0,0,0,0,0,Tag0,unknown
832,1611475041825,54,67,1.4721679687500003e-05,0,0,69,1,0,0,0,0,0,0,0,Tag0,unknown
833,1611475041838,54,67,1.4721679687500003e-05,0,0,69,1,0,0,0,0,0,0,0,Tag0,unknown
834,1611475041854,54,67,1.4721679687500003e-05,0,0,69,1,0,0,0,0,0,0,0,Tag0,unknown
835,1611475041873,54,65,1.42822265625e-05,0,0,69,1,0,0,0,0,0,0,0,Tag0,unknown
836,1611475041888,54,67,1.4721679687500003e-05,0,0,69,1,0,0,0,0,0,0,0,Tag0,unknown
837,1611475041898,54,66,1.4501953125e-05,0,0,69,1,0,0,0,0,0,0,0,Tag0,unknown
838,1611475041921,54,67,1.4721679687500003e-05,0,0,69,1,0,0,0,0,0,0,0,Tag0,unknown
839,1611475041980,54,67,1.4721679687500003e-05,0,0,69,1,0,0,0,0,0,0,0,Tag0,unknown
840,1611475041991,54,67,1.4721679687500003e-05,0,0,69,1,0,0,0,0,0,0,0,Tag0,unknown
841,1611475042001,54,67,1.4721679687500003e-05,0,0,69,1,0,0,0,0,0,0,0,Tag0,unknown
842,1611475042047,54,67,1.4721679687500003e-05,0,0,69,1,0,0,0,0,0,0,0,Tag0,unknown
843,1611475042057,54,67,1.4721679687500003e-05,0,0,69,1,0,0,0,0,0,0,0,Tag0,unknown
844,1611475042114,54,67,1.4721679687500003e-05,0,0,69,1,0,0,0,0,0,0,0,Tag0,unknown
845,1611475042147,54,67,1.4721679687500003e-05,0,0,69,1,0,0,0,0,0,0,0,Tag0,unknown
846,1611475042157,54,66,1.4501953125e-05,0,0,69,1,0,0,0,0,0,0,0,Tag0,unknown
847,1611475042167,54,67,1.4721679687500003e-05,0,0,69,1,0,0,0,0,0,0,0,Tag0,unknown
848,1611475042185,54,67,1.4721679687500003e-05,0,0,69,1,0,0,0,0,0,0,0,Tag0,unknown
849,1611475042205,54,67,1.4721679687500003e-05,0,0,69,1,0,0,0,0,0,0,0,Tag0,unknown
850,1611475042253,54,67,1.4721679687500003e-05,0,0,69,1,0,0,0,0,0,0,0,Tag0,unknown
851,1611475042284,54,66,1.4501953125e-05,0,0,69,1,0,0,0,0,0,0,0,Tag0,unknown
852,1611475042294,54,67,1.4721679687500003e-05,0,0,69,1,0,0,0,0,0,0,0,Tag0,unknown
853,1611475042396,54,67,1.4721679687500003e-05,0,0,69,1,0,0,0,0,0,0,0,Tag0,unknown
854,1611475042416,54,67,1.4721679687500003e-05,0,0,69,1,0,0,0,0,0,0,0,Tag0,unknown
855,1611475042426,54,67,1.4721679687500003e-05,0,0,69,1,0,0,0,0,0,0,0,Tag0,unknown
856,1611475042439,54,68,1.494140625e-05,0,0,69,1,0,0,0,0,0,0,0,Tag0,unknown
857,1611475042462,54,67,1.4721679687500003e-05,0,0,69,1,0,0,0,0,0,0,0,Tag0,unknown
858,1611475042472,54,66,1.4501953125e-05,0,0,69,1,0,0,0,0,0,0,0,Tag0,unknown
859,1611475042493,54,67,1.4721679687500003e-05,0,0,69,1,0,0,0,0,0,0,0,Tag0,unknown
860,1611475042505,54,67,1.4721679687500003e-05,0,0,69,1,0,0,0,0,0,0,0,Tag0,unknown
861,1611475042515,54,67,1.4721679687500003e-05,0,0,69,1,0,0,0,0,0,0,0,Tag0,unknown
862,1611475042525,54,68,1.494140625e-05,0,0,69,1,0,0,0,0,0,0,0,Tag0,unknown
863,1611475042535,54,67,1.4721679687500003e-05,0,0,69,1,0,0,0,0,0,0,0,Tag0,unknown
864,1611475042545,54,67,1.4721679687500003e-05,0,0,69,1,0,0,0,0,0,0,0,Tag0,unknown
865,1611475042555,54,67,1.4721679687500003e-05,0,0,69,1,0,0,0,0,0,0,0,Tag0,unknown
866,1611475042569,54,67,1.4721679687500003e-05,0,0,69,1,0,0,0,0,0,0,0,Tag0,unknown
867,1611475042586,54,67,1.4721679687500003e-05,0,0,69,1,0,0,0,0,0,0,0,Tag0,unknown
868,1611475042608,54,67,1.4721679687500003e-05,0,0,69,1,0,0,0,0,0,0,0,Tag0,unknown
869,1611475042621,54,67,1.4721679687500003e-05,0,0,69,1,0,0,0,0,0,0,0,Tag0,unknown
870,1611475042644,54,67,1.4721679687500003e-05,0,0,69,1,0,0,0,0,0,0,0,Tag0,unknown
871,1611475042661,54,67,1.4721679687500003e-05,0,0,69,1,0,0,0,0,0,0,0,Tag0,unknown
872,1611475042672,54,66,1.4501953125e-05,0,0,69,1,0,0,0,0,0,0,0,Tag0,unknown
873,1611475042682,54,67,1.4721679687500003e-05,0,0,69,1,0,0,0,0,0,0,0,Tag0,unknown
874,1611475042692,54,67,1.4721679687500003e-05,0,0,69,1,0,0,0,0,0,0,0,Tag0,unknown
875,1611475042702,54,67,1.4721679687500003e-05,0,0,69,1,0,0,0,0,0,0,0,Tag0,unknown
876,1611475042714,54,66,1.4501953125e-05,0,0,69,1,0,0,0,0,0,0,0,Tag0,unknown
877,1611475042724,54,68,1.494140625e-05,0,0,69,1,0,0,0,0,0,0,0,Tag0,unknown
878,1611475042735,54,66,1.4501953125e-05,0,0,69,1,0,0,0,0,0,0,0,Tag0,unknown
879,1611475042755,54,66,1.4501953125e-05,0,0,69,1,0,0,0,0,0,0,0,Tag0,unknown
880,1611475042770,54,67,1.4721679687500003e-05,0,0,69,1,0,0,0,0,0,0,0,Tag0,unknown
881,1611475042787,54,66,1.4501953125e-05,0,0,69,1,0,0,0,0,0,0,0,Tag0,unknown
882,1611475042806,54,67,1.4721679687500003e-05,0,0,69,1,0,0,0,0,0,0,0,Tag0,unknown
883,1611475042816,54,66,1.4501953125e-05,0,0,69,1,0,0,0,0,0,0,0,Tag0,unknown
884,1611475042830,54,66,1.4501953125e-05,0,0,69,1,0,0,0,0,0,0,0,Tag0,unknown
885,1611475042843,54,67,1.4721679687500003e-05,0,0,69,1,0,0,0,0,0,0,0,Tag0,unknown
886,1611475042859,54,66,1.4501953125e-05,0,0,69,1,0,0,0,0,0,0,0,Tag0,unknown
887,1611475042874,54,68,1.494140625e-05,0,0,69,1,0,0,0,0,0,0,0,Tag0,unknown
888,1611475042884,54,67,1.4721679687500003e-05,0,0,69,1,0,0,0,0,0,0,0,Tag0,unknown
889,1611475042894,54,67,1.4721679687500003e-05,0,0,69,1,0,0,0,0,0,0,0,Tag0,unknown
890,1611475042908,54,67,1.4721679687500003e-05,0,0,69,1,0,0,0,0,0,0,0,Tag0,unknown
891,1611475042924,54,67,1.4721679687500003e-05,0,0,69,1,0,0,0,0,0,0,0,Tag0,unknown
892,1611475042941,54,67,1.4721679687500003e-05,0,0,69,1,0,0,0,0,0,0,0,Tag0,unknown
893,1611475042957,54,67,1.4721679687500003e-05,0,0,69,1,0,0,0,0,0,0,0,Tag0,unknown
894,1611475042967,54,66,1.4501953125e-05,0,0,69,1,0,0,0,0,0,0,0,Tag0,unknown
895,1611475042990,54,67,1.4721679687500003e-05,0,0,69,1,0,0,0,0,0,0,0,Tag0,unknown
896,1611475043008,54,67,1.4721679687500003e-05,0,0,69,1,0,0,0,0,0,0,0,Tag0,unknown
897,1611475043023,54,68,1.494140625e-05,0,0,69,1,0,0,0,0,0,0,0,Tag0,unknown
898,1611475043033,54,66,1.4501953125e-05,0,0,69,1,0,0,0,0,0,0,0,Tag0,unknown
899,1611475043046,54,67,1.4721679687500003e-05,0,0,69,1,0,0,0,0,0,0,0,Tag0,unknown
900,1611475043056,54,67,1.4721679687500003e-05,0,0,69,1,0,0,0,0,0,0,0,Tag0,unknown
901,1611475043079,54,67,1.4721679687500003e-05,0,0,69,1,0,0,0,0,0,0,0,Tag0,unknown
902,1611475043089,54,67,1.4721679687500003e-05,0,0,69,1,0,0,0,0,0,0,0,Tag0,unknown
903,1611475043106,54,67,1.4721679687500003e-05,0,0,69,1,0,0,0,0,0,0,0,Tag0,unknown
904,1611475043124,54,67,1.4721679687500003e-05,0,0,69,1,0,0,0,0,0,0,0,Tag0,unknown
905,1611475043139,54,67,1.4721679687500003e-05,0,0,69,1,0,0,0,0,0,0,0,Tag0,unknown
906,1611475043157,54,67,1.4721679687500003e-05,0,0,69,1,0,0,0,0,0,0,0,Tag0,unknown
907,1611475043173,54,66,1.4501953125e-05,0,0,69,1,0,0,0,0,0,0,0,Tag0,unknown
908,1611475043195,54,67,1.4721679687500003e-05,0,0,69,1,0,0,0,0,0,0,0,Tag0,unknown
909,1611475043206,54,68,1.494140625e-05,0,0,69,1,0,0,0,0,0,0,0,Tag0,unknown
910,1611475043226,54,68,1.494140625e-05,0,0,69,1,0,0,0,0,0,0,0,Tag0,unknown
911,1611475043238,54,66,1.4501953125e-05,0,0,69,1,0,0,0,0,0,0,0,Tag0,unknown
912,1611475043256,54,69,1.51611328125e-05,0,0,69,1,0,0,0,0,0,0,0,Tag0,unknown
913,1611475043274,54,66,1.4501953125e-05,0,0,69,0,0,0,0,0,0,0,0,Tag0,unknown
914,1611475043289,54,70,1.5380859375e-05,0,0,69,0,0,0,0,0,0,0,0,Tag0,unknown
915,1611475043308,54,67,1.4721679687500003e-05,0,0,69,0,0,0,0,0,0,0,0,Tag0,unknown
916,1611475043324,54,67,1.4721679687500003e-05,0,0,69,0,0,0,0,0,0,0,0,Tag0,unknown
917,1611475043341,54,67,1.4721679687500003e-05,0,0,69,0,0,0,0,0,0,0,0,Tag0,unknown
918,1611475043358,54,67,1.4721679687500003e-05,0,0,69,0,0,0,0,0,0,0,0,Tag0,unknown
919,1611475043368,54,67,1.4721679687500003e-05,0,0,69,0,0,0,0,0,0,0,0,Tag0,unknown
920,1611475043379,54,68,1.494140625e-05,0,0,69,0,0,0,0,0,0,0,0,Tag0,unknown
921,1611475043391,54,67,1.4721679687500003e-05,0,0,69,0,0,0,0,0,0,0,0,Tag0,unknown
922,1611475043413,54,67,1.4721679687500003e-05,0,0,69,0,0,0,0,0,0,0,0,Tag0,unknown
923,1611475043425,54,67,1.4721679687500003e-05,0,0,69,0,0,0,0,0,0,0,0,Tag0,unknown
924,1611475043435,54,68,1.494140625e-05,0,0,69,0,0,0,0,0,0,0,0,Tag0,unknown
925,1611475043445,54,68,1.494140625e-05,0,0,69,0,0,0,0,0,0,0,0,Tag0,unknown
926,1611475043457,54,68,1.494140625e-05,0,0,69,0,0,0,0,0,0,0,0,Tag0,unknown
927,1611475043488,54,68,1.494140625e-05,0,0,69,0,0,0,0,0,0,0,0,Tag0,unknown
928,1611475043505,54,68,1.494140625e-05,0,0,69,0,0,0,0,0,0,0,0,Tag0,unknown
929,1611475043527,54,67,1.4721679687500003e-05,0,0,69,0,0,0,0,0,0,0,0,Tag0,unknown
930,1611475043541,54,68,1.494140625e-05,0,0,69,0,0,0,0,0,0,0,0,Tag0,unknown
931,1611475043551,54,68,1.494140625e-05,0,0,69,0,0,0,0,0,0,0,0,Tag0,unknown
932,1611475043561,54,69,1.51611328125e-05,0,0,69,0,0,0,0,0,0,0,0,Tag0,unknown
933,1611475043575,54,67,1.4721679687500003e-05,0,0,69,0,0,0,0,0,0,0,0,Tag0,unknown
934,1611475043585,54,69,1.51611328125e-05,0,0,69,0,0,0,0,0,0,0,0,Tag0,unknown
935,1611475043600,54,67,1.4721679687500003e-05,0,0,69,0,0,0,0,0,0,0,0,Tag0,unknown
936,1611475043610,54,68,1.494140625e-05,0,0,69,0,0,0,0,0,0,0,0,Tag0,unknown
937,1611475043624,54,67,1.4721679687500003e-05,0,0,69,0,0,0,0,0,0,0,0,Tag0,unknown
938,1611475043641,54,68,1.494140625e-05,0,0,69,0,0,0,0,0,0,0,0,Tag0,unknown
939,1611475043657,54,68,1.494140625e-05,0,0,69,0,0,0,0,0,0,0,0,Tag0,unknown
940,1611475043675,54,69,1.51611328125e-05,0,0,69,0,0,0,0,0,0,0,0,Tag0,unknown
941,1611475043690,54,70,1.5380859375e-05,0,0,69,0,0,0,0,0,0,0,0,Tag0,unknown
942,1611475043706,54,68,1.494140625e-05,0,0,69,0,0,0,0,0,0,0,0,Tag0,unknown
943,1611475043722,54,68,1.494140625e-05,0,0,69,0,0,0,0,0,0,0,0,Tag0,unknown
944,1611475043744,54,69,1.51611328125e-05,0,0,69,0,0,0,0,0,0,0,0,Tag0,unknown
945,1611475043756,54,68,1.494140625e-05,0,0,69,0,0,0,0,0,0,0,0,Tag0,unknown
946,1611475043778,54,69,1.51611328125e-05,0,0,69,0,0,0,0,0,0,0,0,Tag0,unknown
947,1611475043791,54,68,1.494140625e-05,0,0,69,0,0,0,0,0,0,0,0,Tag0,unknown
948,1611475043801,54,71,1.56005859375e-05,0,0,69,0,0,0,0,0,0,0,0,Tag0,unknown
949,1611475043814,54,74,1.6259765625e-05,0,0,69,0,0,0,0,0,0,0,0,Tag0,unknown
950,1611475043824,54,71,1.56005859375e-05,0,0,69,0,0,0,0,0,0,0,0,Tag0,unknown
951,1611475043848,54,65,1.42822265625e-05,0,0,69,0,0,0,0,0,0,0,0,Tag0,unknown
952,1611475043858,54,72,1.58203125e-05,0,0,69,0,0,0,0,0,0,0,0,Tag0,unknown
953,1611475043868,54,74,1.6259765625e-05,0,0,69,0,0,0,0,0,0,0,0,Tag0,unknown
954,1611475043878,54,71,1.56005859375e-05,0,0,69,0,0,0,0,0,0,0,0,Tag0,unknown
955,1611475043891,54,64,1.40625e-05,0,0,69,0,0,0,0,0,0,0,0,Tag0,unknown
956,1611475043908,54,72,1.58203125e-05,0,0,69,0,0,0,0,0,0,0,0,Tag0,unknown
957,1611475043925,54,73,1.6040039062500002e-05,0,0,69,0,0,0,0,0,0,0,0,Tag0,unknown
958,1611475043941,54,61,1.34033203125e-05,0,0,69,0,0,0,0,0,0,0,0,Tag0,unknown
959,1611475043951,54,78,1.7138671875e-05,0,0,69,0,0,0,0,0,0,0,0,Tag0,unknown
960,1611475043961,54,86,1.8896484375000006e-05,0,0,69,0,0,0,0,0,0,0,0,Tag0,unknown
961,1611475043973,54,75,1.64794921875e-05,0,0,69,0,0,0,0,0,0,0,0,Tag0,unknown
962,1611475043995,54,86,1.8896484375000006e-05,0,0,69,0,0,0,0,0,0,0,0,Tag0,unknown
963,1611475044006,54,71,1.56005859375e-05,0,0,69,0,0,0,0,0,0,0,0,Tag0,unknown
964,1611475044023,54,-125,-2.74658203125e-05,0,0,69,0,0,0,0,0,0,0,0,Tag0,unknown
965,1611475044040,54,92,2.021484375e-05,0,0,69,0,0,0,0,0,0,0,0,Tag0,unknown
966,1611475044050,54,91,1.99951171875e-05,0,0,69,0,0,0,0,0,0,0,0,Tag0,unknown
967,1611475044070,54,55,1.20849609375e-05,0,0,69,0,0,0,0,0,0,0,0,Tag0,unknown
968,1611475044080,54,119,2.6147460937500007e-05,0,0,69,0,0,0,0,0,0,0,0,Tag0,unknown
969,1611475044093,54,52,1.142578125e-05,0,0,69,0,0,0,0,0,0,0,0,Tag0,unknown
970,1611475044109,54,-102,-2.2412109375e-05,0,0,69,0,0,0,0,0,0,0,0,Tag0,unknown
971,1611475044126,54,-94,-2.0654296875e-05,0,0,69,0,0,0,0,0,0,0,0,Tag0,unknown
972,1611475044142,54,-74,-1.6259765625e-05,0,0,69,0,0,0,0,0,0,0,0,Tag0,unknown
973,1611475044159,54,7,1.5380859375e-06,0,0,69,0,0,0,0,0,0,0,0,Tag0,unknown
974,1611475044169,54,35,7.6904296875e-06,0,0,69,0,0,0,0,0,0,0,0,Tag0,unknown
975,1611475044179,54,-79,-1.7358398437500006e-05,0,0,69,0,0,0,0,0,0,0,0,Tag0,unknown
976,1611475044190,54,-100,-2.197265625e-05,0,0,69,0,0,0,0,0,0,0,0,Tag0,unknown
977,1611475044213,54,109,2.39501953125e-05,0,0,69,0,0,0,0,0,0,0,0,Tag0,unknown
978,1611475044224,54,-269,-5.91064453125e-05,0,0,69,0,0,0,0,0,0,0,0,Tag0,unknown
979,1611475044240,54,-103,-2.26318359375e-05,0,0,69,0,0,0,0,0,0,0,0,Tag0,unknown
980,1611475044260,54,-123,-2.70263671875e-05,0,0,69,8007,328,16777091,16777106,39,111,41,61,Tag0,unknown
981,1611475044282,54,113,2.48291015625e-05,0,0,69,8007,328,16777091,16777106,39,111,41,61,Tag0,unknown
982,1611475044292,54,-118,-2.5927734375e-05,0,0,69,8007,328,16777091,16777106,39,111,41,61,Tag0,unknown
983,1611475044305,54,-36,-7.91015625e-06,0,0,69,8007,328,16777091,16777106,39,111,41,61,Tag0,unknown
984,1611475044327,54,-102,-2.2412109375e-05,0,0,69,8007,328,16777091,16777106,39,111,41,61,Tag0,unknown
985,1611475044342,54,-123,-2.70263671875e-05,0,0,69,8007,328,16777091,16777106,39,111,41,61,Tag0,unknown
986,1611475044352,54,89,1.95556640625e-05,0,0,69,8007,328,16777091,16777106,39,111,41,61,Tag0,unknown
987,1611475044366,54,295,6.48193359375e-05,0,0,69,8007,328,16777091,16777106,39,111,41,61,Tag0,unknown
988,1611475044376,54,-89,-1.95556640625e-05,0,0,69,8007,328,16777091,16777106,39,111,41,61,Tag0,unknown
989,1611475044399,54,-311,-6.833496093750001e-05,0,0,69,8007,328,16777091,16777106,39,111,41,61,Tag0,unknown
990,1611475044409,54,-54,-1.1865234375e-05,0,0,69,8007,328,16777091,16777106,39,111,41,61,Tag0,unknown
991,1611475044425,54,288,6.328125e-05,0,0,69,8007,328,16777091,16777106,39,111,41,61,Tag0,unknown
992,1611475044452,54,-349,-7.668457031250001e-05,0,0,69,8007,328,16777091,16777106,39,111,41,61,Tag0,unknown
993,1611475044464,54,-281,-6.17431640625e-05,0,0,69,8007,328,16777091,16777106,39,111,41,61,Tag0,unknown
994,1611475044476,54,282,6.1962890625e-05,0,0,69,8007,328,16777091,16777106,39,111,41,61,Tag0,unknown
995,1611475044490,54,-105,-2.30712890625e-05,0,0,69,8007,328,16777091,16777106,39,111,41,61,Tag0,unknown
996,1611475044507,54,265,5.82275390625e-05,0,0,69,8007,328,16777091,16777106,39,111,41,61,Tag0,unknown
997,1611475044526,54,291,6.39404296875e-05,0,0,69,8007,328,16777091,16777106,39,111,41,61,Tag0,unknown
998,1611475044541,54,259,5.69091796875e-05,0,0,69,8007,328,16777091,16777106,39,111,41,61,Tag0,unknown
999,1611475044561,54,289,6.35009765625e-05,0,0,69,8007,328,16777091,16777106,39,111,41,61,Tag0,unknown
1000,1611475044577,54,308,6.767578125e-05,0,0,69,8007,328,16777091,16777106,39,111,41,61,Tag0,unknown
1001,1611475044595,54,-43,-9.4482421875e-06,0,0,69,8007,328,16777091,16777106,39,111,41,61,Tag0,unknown
1002,1611475044610,54,305,6.70166015625e-05,0,0,69,8007,328,16777091,16777106,39,111,41,61,Tag0,unknown
1003,1611475044620,54,-55,-1.20849609375e-05,0,0,69,8007,328,16777091,16777106,39,111,41,61,Tag0,unknown
1004,1611475044633,54,265,5.82275390625e-05,0,0,69,8007,328,16777091,16777106,39,111,41,61,Tag0,unknown
1005,1611475044643,54,-40,-8.7890625e-06,0,0,69,8007,328,16777091,16777106,39,111,41,61,Tag0,unknown
1006,1611475044667,54,-578,-0.000127001953125,0,0,69,8007,328,16777091,16777106,39,111,41,61,Tag0,unknown
1007,1611475044677,54,-122,-2.6806640625e-05,0,0,69,8007,328,16777091,16777106,39,111,41,61,Tag0,unknown
1008,1611475044693,54,225,4.94384765625e-05,0,0,69,8007,328,16777091,16777106,39,111,41,61,Tag0,unknown
1009,1611475044708,54,-186,-4.0869140625e-05,0,0,69,8007,328,16777091,16777106,39,111,41,61,Tag0,unknown
1010,1611475044724,54,-55,-1.20849609375e-05,0,0,69,8007,328,16777091,16777106,39,111,41,61,Tag0,unknown
1011,1611475044741,54,241,5.29541015625e-05,0,0,69,8007,328,16777091,16777106,39,111,41,61,Tag0,unknown
1012,1611475044759,54,-245,-5.38330078125e-05,0,0,69,8007,328,16777091,16777106,39,111,41,61,Tag0,unknown
1013,1611475044769,54,153,3.3618164062500004e-05,0,0,69,8007,328,16777091,16777106,39,111,41,61,Tag0,unknown
1014,1611475044779,54,155,3.40576171875e-05,0,0,69,8007,328,16777091,16777106,39,111,41,61,Tag0,unknown
1015,1611475044792,54,549,0.0001206298828125,0,0,69,8007,328,16777091,16777106,39,111,41,61,Tag0,unknown
1016,1611475044813,54,289,6.35009765625e-05,0,0,69,8007,328,16777091,16777106,39,111,41,61,Tag0,unknown
1017,1611475044826,54,4,8.7890625e-07,0,0,69,8007,328,16777091,16777106,39,111,41,61,Tag0,unknown
1018,1611475044836,54,158,3.4716796875000005e-05,0,0,69,8007,328,16777091,16777106,39,111,41,61,Tag0,unknown
1019,1611475044853,54,121,2.6586914062500006e-05,0,0,69,8007,328,16777091,16777106,39,111,41,61,Tag0,unknown
1020,1611475044863,54,-91,-1.99951171875e-05,0,0,69,8007,328,16777091,16777106,39,111,41,61,Tag0,unknown
1021,1611475044877,54,258,5.6689453125e-05,0,0,69,8007,328,16777091,16777106,39,111,41,61,Tag0,unknown
1022,1611475044894,54,200,4.39453125e-05,0,0,69,8007,328,16777091,16777106,39,111,41,61,Tag0,unknown
1023,1611475044910,54,244,5.361328125e-05,0,0,69,8007,328,16777091,16777106,39,111,41,61,Tag0,unknown
1024,1611475044925,54,73,1.6040039062500002e-05,0,0,69,8007,328,16777091,16777106,39,111,41,61,Tag0,unknown
1025,1611475044941,54,377,8.28369140625e-05,0,0,69,8007,328,16777091,16777106,39,111,41,61,Tag0,unknown
1026,1611475044959,54,356,7.822265625e-05,0,0,69,8007,328,16777091,16777106,39,111,41,61,Tag0,unknown
1027,1611475044975,54,-84,-1.8457031250000007e-05,0,0,69,8007,328,16777091,16777106,39,111,41,61,Tag0,unknown
1028,1611475044999,54,199,4.37255859375e-05,0,0,69,8007,328,16777091,16777106,39,111,41,61,Tag0,unknown
1029,1611475045011,54,363,7.97607421875e-05,0,0,69,8007,328,16777091,16777106,39,111,41,61,Tag0,unknown
1030,1611475045033,54,-611,-0.0001342529296875,0,0,69,8007,328,16777091,16777106,39,111,41,61,Tag0,unknown
1031,1611475045045,54,-133,-2.92236328125e-05,0,0,69,8007,328,16777091,16777106,39,111,41,61,Tag0,unknown
1032,1611475045055,54,-62,-1.3623046875e-05,0,0,69,8007,328,16777091,16777106,39,111,41,61,Tag0,unknown
1033,1611475045065,54,330,7.2509765625e-05,0,0,69,8007,328,16777091,16777106,39,111,41,61,Tag0,unknown
1034,1611475045094,54,16,3.515625e-06,0,0,69,8007,328,16777091,16777106,39,111,41,61,Tag0,unknown
1035,1611475045109,54,-478,-0.000105029296875,0,0,69,8007,328,16777091,16777106,39,111,41,61,Tag0,unknown
1036,1611475045119,54,341,7.492675781250003e-05,0,0,69,8007,328,16777091,16777106,39,111,41,61,Tag0,unknown
1037,1611475045131,54,-25,-5.4931640625e-06,0,0,69,8007,328,16777091,16777106,39,111,41,61,Tag0,unknown
1038,1611475045144,54,-198,-4.350585937500001e-05,0,0,69,8007,328,16777091,16777106,39,111,41,61,Tag0,unknown
1039,1611475045154,54,373,8.19580078125e-05,0,0,69,8007,328,16777091,16777106,39,111,41,61,Tag0,unknown
1040,1611475045164,54,352,7.734375e-05,0,0,69,8007,328,16777091,16777106,39,111,41,61,Tag0,unknown
1041,1611475045176,54,-82,-1.8017578125e-05,0,0,69,8007,328,16777091,16777106,39,111,41,61,Tag0,unknown
1042,1611475045193,54,44,9.66796875e-06,0,0,69,8007,328,16777091,16777106,39,111,41,61,Tag0,unknown
1043,1611475045210,54,52,1.142578125e-05,0,0,69,8007,328,16777091,16777106,39,111,41,61,Tag0,unknown
1044,1611475045225,54,22,4.833984375e-06,0,0,69,8007,328,16777091,16777106,39,111,41,61,Tag0,unknown
1045,1611475045241,54,-389,-8.54736328125e-05,0,0,69,8007,328,16777091,16777106,39,111,41,61,Tag0,unknown
1046,1611475045257,54,-106,-2.3291015625000006e-05,0,0,69,8007,328,16777091,16777106,39,111,41,61,Tag0,unknown
1047,1611475045277,200,181,3.97705078125e-05,0,0,69,460206,16758474,11766,1801,2093,16161,610,565,Tag0,unknown
1048,1611475045291,200,-71,-1.56005859375e-05,0,0,69,460206,16758474,11766,1801,2093,16161,610,565,Tag0,unknown
1049,1611475045310,200,-357,-7.844238281250001e-05,0,0,69,460206,16758474,11766,1801,2093,16161,610,565,Tag0,unknown
1050,1611475045335,200,-781,-0.0001716064453125,0,0,69,460206,16758474,11766,1801,2093,16161,610,565,Tag0,unknown
1051,1611475045348,200,137,3.01025390625e-05,0,0,69,460206,16758474,11766,1801,2093,16161,610,565,Tag0,unknown
1052,1611475045358,200,231,5.07568359375e-05,0,0,69,460206,16758474,11766,1801,2093,16161,610,565,Tag0,unknown
1053,1611475045380,200,275,6.04248046875e-05,0,0,69,460206,16758474,11766,1801,2093,16161,610,565,Tag0,unknown
1054,1611475045390,200,176,3.8671875e-05,0,0,69,460206,16758474,11766,1801,2093,16161,610,565,Tag0,unknown
1055,1611475045413,200,-87,-1.91162109375e-05,0,0,69,460206,16758474,11766,1801,2093,16161,610,565,Tag0,unknown
1056,1611475045429,200,-111,-2.43896484375e-05,0,0,69,460206,16758474,11766,1801,2093,16161,610,565,Tag0,unknown
1057,1611475045439,200,123,2.70263671875e-05,0,0,69,460206,16758474,11766,1801,2093,16161,610,565,Tag0,unknown
1058,1611475045453,200,-111,-2.43896484375e-05,0,0,69,460206,16758474,11766,1801,2093,16161,610,565,Tag0,unknown
1059,1611475045463,200,4,8.7890625e-07,0,0,69,460206,16758474,11766,1801,2093,16161,610,565,Tag0,unknown
1060,1611475045487,200,331,7.272949218750001e-05,0,0,69,460206,16758474,11766,1801,2093,16161,610,565,Tag0,unknown
1061,1611475045497,200,183,4.02099609375e-05,0,0,69,460206,16758474,11766,1801,2093,16161,610,565,Tag0,unknown
1062,1611475045507,200,-59,-1.29638671875e-05,0,0,69,460206,16758474,11766,1801,2093,16161,610,565,Tag0,unknown
1063,1611475045517,200,184,4.04296875e-05,0,0,69,460206,16758474,11766,1801,2093,16161,610,565,Tag0,unknown
1064,1611475045528,200,-309,-6.78955078125e-05,0,0,69,460206,16758474,11766,1801,2093,16161,610,565,Tag0,unknown
1065,1611475045541,200,-180,-3.955078125e-05,0,0,69,460206,16758474,11766,1801,2093,16161,610,565,Tag0,unknown
1066,1611475045560,200,315,6.92138671875e-05,0,0,69,460206,16758474,11766,1801,2093,16161,610,565,Tag0,unknown
1067,1611475045575,200,118,2.5927734375e-05,0,0,69,460206,16758474,11766,1801,2093,16161,610,565,Tag0,unknown
1068,1611475045599,200,131,2.87841796875e-05,0,0,69,460206,16758474,11766,1801,2093,16161,610,565,Tag0,unknown
1069,1611475045610,200,236,5.185546875e-05,0,0,69,460206,16758474,11766,1801,2093,16161,610,565,Tag0,unknown
1070,1611475045634,200,-189,-4.15283203125e-05,0,0,69,460206,16758474,11766,1801,2093,16161,610,565,Tag0,unknown
1071,1611475045645,200,-418,-9.1845703125e-05,0,0,69,460206,16758474,11766,1801,2093,16161,610,565,Tag0,unknown
1072,1611475045655,200,-21,-4.614257812500002e-06,0,0,69,460206,16758474,11766,1801,2093,16161,610,565,Tag0,unknown
1073,1611475045665,200,135,2.96630859375e-05,0,0,69,460206,16758474,11766,1801,2093,16161,610,565,Tag0,unknown
1074,1611475045677,200,-57,-1.25244140625e-05,0,0,69,460206,16758474,11766,1801,2093,16161,610,565,Tag0,unknown
1075,1611475045694,200,-58,-1.2744140625e-05,0,0,69,460206,16758474,11766,1801,2093,16161,610,565,Tag0,unknown
1076,1611475045712,200,-7,-1.5380859375e-06,0,0,69,460206,16758474,11766,1801,2093,16161,610,565,Tag0,unknown
1077,1611475045727,200,-244,-5.361328125e-05,0,0,69,460206,16758474,11766,1801,2093,16161,610,565,Tag0,unknown
1078,1611475045745,200,-39,-8.5693359375e-06,0,0,69,460206,16758474,11766,1801,2093,16161,610,565,Tag0,unknown
1079,1611475045760,200,330,7.2509765625e-05,0,0,69,460206,16758474,11766,1801,2093,16161,610,565,Tag0,unknown
1080,1611475045779,200,124,2.724609375e-05,0,0,69,460206,16758474,11766,1801,2093,16161,610,565,Tag0,unknown
1081,1611475045795,200,-55,-1.20849609375e-05,0,0,69,460206,16758474,11766,1801,2093,16161,610,565,Tag0,unknown
1082,1611475045805,200,321,7.053222656250001e-05,0,0,69,460206,16758474,11766,1801,2093,16161,610,565,Tag0,unknown
1083,1611475045818,200,-5,-1.0986328125e-06,0,0,69,460206,16758474,11766,1801,2093,16161,610,565,Tag0,unknown
1084,1611475045828,200,-437,-9.60205078125e-05,0,0,69,460206,16758474,11766,1801,2093,16161,610,565,Tag0,unknown
1085,1611475045851,200,-491,-0.0001078857421875,0,0,69,460206,16758474,11766,1801,2093,16161,610,565,Tag0,unknown
1086,1611475045861,200,-225,-4.94384765625e-05,0,0,69,460206,16758474,11766,1801,2093,16161,610,565,Tag0,unknown
1087,1611475045875,200,-118,-2.5927734375e-05,0,0,69,460206,16758474,11766,1801,2093,16161,610,565,Tag0,unknown
1088,1611475045894,200,-177,-3.889160156250001e-05,0,0,69,460206,16758474,11766,1801,2093,16161,610,565,Tag0,unknown
1089,1611475045910,200,269,5.91064453125e-05,0,0,69,460206,16758474,11766,1801,2093,16161,610,565,Tag0,unknown
1090,1611475045929,200,-23,-5.0537109375e-06,0,0,69,460206,16758474,11766,1801,2093,16161,610,565,Tag0,unknown
1091,1611475045946,200,-231,-5.07568359375e-05,0,0,69,460206,16758474,11766,1801,2093,16161,610,565,Tag0,unknown
1092,1611475045956,200,336,7.382812500000001e-05,0,0,69,460206,16758474,11766,1801,2093,16161,610,565,Tag0,unknown
1093,1611475045967,200,-70,-1.5380859375e-05,0,0,69,460206,16758474,11766,1801,2093,16161,610,565,Tag0,unknown
1094,1611475045979,200,-95,-2.08740234375e-05,0,0,69,460206,16758474,11766,1801,2093,16161,610,565,Tag0,unknown
1095,1611475045997,200,-74,-1.6259765625e-05,0,0,69,460206,16758474,11766,1801,2093,16161,610,565,Tag0,unknown
1096,1611475046013,200,103,2.26318359375e-05,0,0,69,460206,16758474,11766,1801,2093,16161,610,565,Tag0,unknown
1097,1611475046023,200,306,6.723632812500001e-05,0,0,69,460206,16758474,11766,1801,2093,16161,610,565,Tag0,unknown
1098,1611475046036,200,-115,-2.52685546875e-05,0,0,69,460206,16758474,11766,1801,2093,16161,610,565,Tag0,unknown
1099,1611475046046,200,-22,-4.833984375e-06,0,0,69,460206,16758474,11766,1801,2093,16161,610,565,Tag0,unknown
1100,1611475046069,200,-16,-3.515625e-06,0,0,69,460206,16758474,11766,1801,2093,16161,610,565,Tag0,unknown
