,timestampMs,poorSignal,eegRawValue,eegRawValueVolts,attention,meditation,blinkStrength,delta,theta,alphaLow,alphaHigh,betaLow,betaHigh,gammaLow,gammaMid,tagEvent,location
0,1611472871550,0,151,3.31787109375e-05,53,69,49,1227788,42188,167097,31398,28767,16775944,16753508,3108,Tag0,unknown
1,1611472871566,0,-179,-3.93310546875e-05,53,69,49,1227788,42188,167097,31398,28767,16775944,16753508,3108,Tag0,unknown
2,1611472871623,0,-147,-3.22998046875e-05,53,69,49,1227788,42188,167097,31398,28767,16775944,16753508,3108,Tag0,unknown
3,1611472871633,0,224,4.921875e-05,53,69,49,1227788,42188,167097,31398,28767,16775944,16753508,3108,Tag0,unknown
4,1611472871650,0,-106,-2.3291015625000006e-05,53,69,49,1227788,42188,167097,31398,28767,16775944,16753508,3108,Tag0,unknown
5,1611472871673,0,-24,-5.2734375e-06,53,69,49,1227788,42188,167097,31398,28767,16775944,16753508,3108,Tag0,unknown
6,1611472871683,0,-221,-4.85595703125e-05,53,69,49,1227788,42188,167097,31398,28767,16775944,16753508,3108,Tag0,unknown
7,1611472871707,0,-261,-5.73486328125e-05,53,69,49,1227788,42188,167097,31398,28767,16775944,16753508,3108,Tag0,unknown
8,1611472871717,0,-578,-0.000127001953125,53,69,49,1227788,42188,167097,31398,28767,16775944,16753508,3108,Tag0,unknown
9,1611472871748,0,588,0.00012919921875,53,69,49,1227788,42188,167097,31398,28767,16775944,16753508,3108,Tag0,unknown
10,1611472871766,0,-199,-4.37255859375e-05,53,69,49,1227788,42188,167097,31398,28767,16775944,16753508,3108,Tag0,unknown
11,1611472871788,0,133,2.92236328125e-05,53,69,49,1227788,42188,167097,31398,28767,16775944,16753508,3108,Tag0,unknown
12,1611472871800,0,156,3.427734375e-05,53,69,49,1227788,42188,167097,31398,28767,16775944,16753508,3108,Tag0,unknown
13,1611472871825,0,-612,-0.00013447265625000002,53,69,49,1227788,42188,167097,31398,28767,16775944,16753508,3108,Tag0,unknown
14,1611472871835,0,-338,-7.426757812499999e-05,53,69,49,1227788,42188,167097,31398,28767,16775944,16753508,3108,Tag0,unknown
15,1611472871863,0,368,8.0859375e-05,53,69,49,1227788,42188,167097,31398,28767,16775944,16753508,3108,Tag0,unknown
16,1611472871900,0,-153,-3.3618164062500004e-05,53,69,49,1227788,42188,167097,31398,28767,16775944,16753508,3108,Tag0,unknown
17,1611472871917,0,235,5.16357421875e-05,53,69,49,1227788,42188,167097,31398,28767,16775944,16753508,3108,Tag0,unknown
18,1611472871970,0,361,7.93212890625e-05,53,69,49,1227788,42188,167097,31398,28767,16775944,16753508,3108,Tag0,unknown
19,1611472871983,0,-108,-2.373046875e-05,53,69,49,1227788,42188,167097,31398,28767,16775944,16753508,3108,Tag0,unknown
20,1611472872037,0,289,6.35009765625e-05,53,69,49,1227788,42188,167097,31398,28767,16775944,16753508,3108,Tag0,unknown
21,1611472872050,0,-325,-7.14111328125e-05,53,69,49,1227788,42188,167097,31398,28767,16775944,16753508,3108,Tag0,unknown
22,1611472872105,0,-619,-0.0001360107421875,53,69,49,1227788,42188,167097,31398,28767,16775944,16753508,3108,Tag0,unknown
23,1611472872117,0,-101,-2.21923828125e-05,53,69,49,1227788,42188,167097,31398,28767,16775944,16753508,3108,Tag0,unknown
24,1611472872172,0,-470,-0.000103271484375,50,74,49,383318,117602,71274,138560,9258,16773521,23056,5006,Tag0,unknown
25,1611472872184,0,1,2.197265625e-07,50,74,49,383318,117602,71274,138560,9258,16773521,23056,5006,Tag0,unknown
26,1611472872240,0,-130,-2.8564453125e-05,50,74,49,383318,117602,71274,138560,9258,16773521,23056,5006,Tag0,unknown
27,1611472872251,0,336,7.382812500000001e-05,50,74,49,383318,117602,71274,138560,9258,16773521,23056,5006,Tag0,unknown
28,1611472872353,0,309,6.78955078125e-05,50,74,49,383318,117602,71274,138560,9258,16773521,23056,5006,Tag0,unknown
29,1611472872368,0,-231,-5.07568359375e-05,50,74,49,383318,117602,71274,138560,9258,16773521,23056,5006,Tag0,unknown
30,1611472872469,0,1033,0.0002269775390625,50,74,49,383318,117602,71274,138560,9258,16773521,23056,5006,Tag0,unknown
31,1611472872484,0,145,3.18603515625e-05,50,74,49,383318,117602,71274,138560,9258,16773521,23056,5006,Tag0,unknown
32,1611472872537,0,875,0.0001922607421875,50,74,49,383318,117602,71274,138560,9258,16773521,23056,5006,Tag0,unknown
33,1611472872551,0,1037,0.0002278564453125,50,74,49,383318,117602,71274,138560,9258,16773521,23056,5006,Tag0,unknown
34,1611472872588,0,40,8.7890625e-06,50,74,49,383318,117602,71274,138560,9258,16773521,23056,5006,Tag0,unknown
35,1611472872601,0,296,6.50390625e-05,50,74,49,383318,117602,71274,138560,9258,16773521,23056,5006,Tag0,unknown
36,1611472872630,0,-325,-7.14111328125e-05,50,74,49,383318,117602,71274,138560,9258,16773521,23056,5006,Tag0,unknown
37,1611472872680,0,323,7.09716796875e-05,50,74,49,383318,117602,71274,138560,9258,16773521,23056,5006,Tag0,unknown
38,1611472872702,0,380,8.349609375e-05,50,74,49,383318,117602,71274,138560,9258,16773521,23056,5006,Tag0,unknown
39,1611472872740,0,-79,-1.7358398437500006e-05,50,74,49,383318,117602,71274,138560,9258,16773521,23056,5006,Tag0,unknown
40,1611472872752,0,424,9.31640625e-05,50,74,49,383318,117602,71274,138560,9258,16773521,23056,5006,Tag0,unknown
41,1611472872769,0,1217,0.0002674072265625,50,74,49,383318,117602,71274,138560,9258,16773521,23056,5006,Tag0,unknown
42,1611472872787,0,624,0.000137109375,50,74,49,383318,117602,71274,138560,9258,16773521,23056,5006,Tag0,unknown
43,1611472872840,0,151,3.31787109375e-05,50,74,49,383318,117602,71274,138560,9258,16773521,23056,5006,Tag0,unknown
44,1611472872852,0,139,3.0541992187500004e-05,50,74,49,383318,117602,71274,138560,9258,16773521,23056,5006,Tag0,unknown
45,1611472872905,0,-107,-2.35107421875e-05,50,74,49,383318,117602,71274,138560,9258,16773521,23056,5006,Tag0,unknown
46,1611472872919,0,-104,-2.28515625e-05,50,74,49,383318,117602,71274,138560,9258,16773521,23056,5006,Tag0,unknown
47,1611472872956,0,83,1.82373046875e-05,50,74,49,383318,117602,71274,138560,9258,16773521,23056,5006,Tag0,unknown
48,1611472872969,0,49,1.07666015625e-05,50,74,49,383318,117602,71274,138560,9258,16773521,23056,5006,Tag0,unknown
49,1611472873016,26,-219,-4.81201171875e-05,50,74,49,315089,8134,7581,25615,2939,8255,14067,1323,Tag0,unknown
50,1611472873036,26,-227,-4.98779296875e-05,50,74,49,315089,8134,7581,25615,2939,8255,14067,1323,Tag0,unknown
51,1611472873075,26,-1337,-0.0002937744140625,50,74,49,315089,8134,7581,25615,2939,8255,14067,1323,Tag0,unknown
52,1611472873086,26,-775,-0.0001702880859375,50,74,49,315089,8134,7581,25615,2939,8255,14067,1323,Tag0,unknown
53,1611472873102,26,253,5.55908203125e-05,50,74,49,315089,8134,7581,25615,2939,8255,14067,1323,Tag0,unknown
54,1611472873135,26,219,4.81201171875e-05,50,74,49,315089,8134,7581,25615,2939,8255,14067,1323,Tag0,unknown
55,1611472873152,26,208,4.5703125e-05,50,74,49,315089,8134,7581,25615,2939,8255,14067,1323,Tag0,unknown
56,1611472873192,26,-31,-6.8115234375e-06,50,74,123,315089,8134,7581,25615,2939,8255,14067,1323,Tag0,unknown
57,1611472873202,26,-37,-8.1298828125e-06,50,74,123,315089,8134,7581,25615,2939,8255,14067,1323,Tag0,unknown
58,1611472873250,26,125,2.74658203125e-05,50,74,123,315089,8134,7581,25615,2939,8255,14067,1323,Tag0,unknown
59,1611472873269,26,99,2.1752929687500006e-05,50,74,123,315089,8134,7581,25615,2939,8255,14067,1323,Tag0,unknown
60,1611472873312,26,-2048,-0.00045,50,74,123,315089,8134,7581,25615,2939,8255,14067,1323,Tag0,unknown
61,1611472873343,26,-2048,-0.00045,50,74,123,315089,8134,7581,25615,2939,8255,14067,1323,Tag0,unknown
62,1611472873353,26,-2048,-0.00045,50,74,123,315089,8134,7581,25615,2939,8255,14067,1323,Tag0,unknown
63,1611472873383,26,-682,-0.00014985351562500006,50,74,123,315089,8134,7581,25615,2939,8255,14067,1323,Tag0,unknown
64,1611472873420,26,-394,-8.6572265625e-05,50,74,123,315089,8134,7581,25615,2939,8255,14067,1323,Tag0,unknown
65,1611472873436,26,-633,-0.00013908691406250002,50,74,123,315089,8134,7581,25615,2939,8255,14067,1323,Tag0,unknown
66,1611472873457,26,-371,-8.151855468750001e-05,50,74,123,315089,8134,7581,25615,2939,8255,14067,1323,Tag0,unknown
67,1611472873470,26,-364,-7.998046875e-05,50,74,123,315089,8134,7581,25615,2939,8255,14067,1323,Tag0,unknown
68,1611472873491,26,-306,-6.723632812500001e-05,50,74,123,315089,8134,7581,25615,2939,8255,14067,1323,Tag0,unknown
69,1611472873503,26,-300,-6.591796875e-05,50,74,123,315089,8134,7581,25615,2939,8255,14067,1323,Tag0,unknown
70,1611472873528,26,20,4.39453125e-06,50,74,123,315089,8134,7581,25615,2939,8255,14067,1323,Tag0,unknown
71,1611472873538,26,33,7.2509765625e-06,50,74,123,315089,8134,7581,25615,2939,8255,14067,1323,Tag0,unknown
72,1611472873562,26,37,8.1298828125e-06,50,74,123,315089,8134,7581,25615,2939,8255,14067,1323,Tag0,unknown
73,1611472873572,26,48,1.0546875e-05,50,74,123,315089,8134,7581,25615,2939,8255,14067,1323,Tag0,unknown
74,1611472873605,26,53,1.1645507812500003e-05,50,74,123,315089,8134,7581,25615,2939,8255,14067,1323,Tag0,unknown
75,1611472873620,26,54,1.1865234375e-05,50,74,123,315089,8134,7581,25615,2939,8255,14067,1323,Tag0,unknown
76,1611472873657,26,57,1.25244140625e-05,50,74,123,315089,8134,7581,25615,2939,8255,14067,1323,Tag0,unknown
77,1611472873670,26,59,1.29638671875e-05,50,74,123,315089,8134,7581,25615,2939,8255,14067,1323,Tag0,unknown
78,1611472873717,26,128,2.8125e-05,50,74,123,315089,8134,7581,25615,2939,8255,14067,1323,Tag0,unknown
79,1611472873737,26,-266,-5.8447265625e-05,50,74,123,315089,8134,7581,25615,2939,8255,14067,1323,Tag0,unknown
80,1611472873777,26,3,6.591796875e-07,50,74,123,315089,8134,7581,25615,2939,8255,14067,1323,Tag0,unknown
81,1611472873787,26,7,1.5380859375e-06,50,74,123,315089,8134,7581,25615,2939,8255,14067,1323,Tag0,unknown
82,1611472873804,26,76,1.669921875e-05,50,74,123,315089,8134,7581,25615,2939,8255,14067,1323,Tag0,unknown
83,1611472873820,26,157,3.44970703125e-05,50,74,123,315089,8134,7581,25615,2939,8255,14067,1323,Tag0,unknown
84,1611472873851,26,257,5.64697265625e-05,50,74,123,315089,8134,7581,25615,2939,8255,14067,1323,Tag0,unknown
85,1611472873871,26,403,8.854980468749999e-05,50,74,123,315089,8134,7581,25615,2939,8255,14067,1323,Tag0,unknown
86,1611472873887,26,1867,0.0004102294921875,50,74,123,315089,8134,7581,25615,2939,8255,14067,1323,Tag0,unknown
87,1611472873920,26,1789,0.0003930908203125,50,74,123,315089,8134,7581,25615,2939,8255,14067,1323,Tag0,unknown
88,1611472873937,26,1908,0.00041923828125,50,74,123,315089,8134,7581,25615,2939,8255,14067,1323,Tag0,unknown
89,1611472873954,26,1791,0.0003935302734375,50,74,123,315089,8134,7581,25615,2939,8255,14067,1323,Tag0,unknown
90,1611472873971,26,1724,0.00037880859375,50,74,123,315089,8134,7581,25615,2939,8255,14067,1323,Tag0,unknown
91,1611472873990,51,477,0.0001048095703125,50,74,123,352061,90492,2306,13283,4082,11409,7409,2137,Tag0,unknown
92,1611472874004,51,851,0.0001869873046875,50,74,123,352061,90492,2306,13283,4082,11409,7409,2137,Tag0,unknown
93,1611472874023,51,186,4.0869140625e-05,50,74,123,352061,90492,2306,13283,4082,11409,7409,2137,Tag0,unknown
94,1611472874037,51,-63,-1.38427734375e-05,50,74,123,352061,90492,2306,13283,4082,11409,7409,2137,Tag0,unknown
95,1611472874060,51,-1591,-0.00034958496093750004,50,74,123,352061,90492,2306,13283,4082,11409,7409,2137,Tag0,unknown
96,1611472874071,51,-2022,-0.000444287109375,50,74,123,352061,90492,2306,13283,4082,11409,7409,2137,Tag0,unknown
97,1611472874093,51,-907,-0.0001992919921875,50,74,123,352061,90492,2306,13283,4082,11409,7409,2137,Tag0,unknown
98,1611472874104,51,-1123,-0.00024675292968750004,50,74,123,352061,90492,2306,13283,4082,11409,7409,2137,Tag0,unknown
99,1611472874130,51,1819,0.0003996826171875001,50,74,123,352061,90492,2306,13283,4082,11409,7409,2137,Tag0,unknown
100,1611472874185,51,1143,0.0002511474609375,50,74,123,352061,90492,2306,13283,4082,11409,7409,2137,Tag0,unknown
101,1611472874204,51,636,0.00013974609375,50,74,123,352061,90492,2306,13283,4082,11409,7409,2137,Tag0,unknown
102,1611472874273,51,336,7.382812500000001e-05,50,74,123,352061,90492,2306,13283,4082,11409,7409,2137,Tag0,unknown
103,1611472874288,51,325,7.14111328125e-05,50,74,123,352061,90492,2306,13283,4082,11409,7409,2137,Tag0,unknown
104,1611472874334,51,-126,-2.7685546875e-05,50,74,123,352061,90492,2306,13283,4082,11409,7409,2137,Tag0,unknown
105,1611472874355,51,105,2.30712890625e-05,50,74,123,352061,90492,2306,13283,4082,11409,7409,2137,Tag0,unknown
106,1611472874394,51,75,1.64794921875e-05,50,74,123,352061,90492,2306,13283,4082,11409,7409,2137,Tag0,unknown
107,1611472874405,51,27,5.932617187500001e-06,50,74,123,352061,90492,2306,13283,4082,11409,7409,2137,Tag0,unknown
108,1611472874452,51,347,7.62451171875e-05,50,74,123,352061,90492,2306,13283,4082,11409,7409,2137,Tag0,unknown
109,1611472874472,51,341,7.492675781250003e-05,50,74,123,352061,90492,2306,13283,4082,11409,7409,2137,Tag0,unknown
110,1611472874495,51,-273,-5.9985351562500014e-05,50,74,123,352061,90492,2306,13283,4082,11409,7409,2137,Tag0,unknown
111,1611472874505,51,-369,-8.10791015625e-05,50,74,123,352061,90492,2306,13283,4082,11409,7409,2137,Tag0,unknown
112,1611472874534,51,-146,-3.2080078125000004e-05,50,74,123,352061,90492,2306,13283,4082,11409,7409,2137,Tag0,unknown
113,1611472874570,51,-2048,-0.00045,50,74,123,352061,90492,2306,13283,4082,11409,7409,2137,Tag0,unknown
114,1611472874589,51,-2030,-0.000446044921875,50,74,123,352061,90492,2306,13283,4082,11409,7409,2137,Tag0,unknown
115,1611472874621,51,-1638,-0.000359912109375,50,74,123,352061,90492,2306,13283,4082,11409,7409,2137,Tag0,unknown
116,1611472874644,51,-1553,-0.0003412353515625,50,74,123,352061,90492,2306,13283,4082,11409,7409,2137,Tag0,unknown
117,1611472874654,51,-1181,-0.00025949707031250004,50,74,123,352061,90492,2306,13283,4082,11409,7409,2137,Tag0,unknown
118,1611472874668,51,-1292,-0.00028388671875,50,74,123,352061,90492,2306,13283,4082,11409,7409,2137,Tag0,unknown
119,1611472874678,51,-947,-0.0002080810546875,50,74,123,352061,90492,2306,13283,4082,11409,7409,2137,Tag0,unknown
120,1611472874695,51,-680,-0.0001494140625,50,74,123,352061,90492,2306,13283,4082,11409,7409,2137,Tag0,unknown
121,1611472874725,51,-237,-5.20751953125e-05,50,74,123,352061,90492,2306,13283,4082,11409,7409,2137,Tag0,unknown
122,1611472874743,51,-612,-0.00013447265625000002,50,74,123,352061,90492,2306,13283,4082,11409,7409,2137,Tag0,unknown
123,1611472874785,51,-305,-6.70166015625e-05,50,74,123,352061,90492,2306,13283,4082,11409,7409,2137,Tag0,unknown
124,1611472874796,51,-290,-6.3720703125e-05,50,74,123,352061,90492,2306,13283,4082,11409,7409,2137,Tag0,unknown
125,1611472874810,51,-263,-5.778808593750001e-05,50,74,123,352061,90492,2306,13283,4082,11409,7409,2137,Tag0,unknown
126,1611472874834,51,12,2.63671875e-06,50,74,123,352061,90492,2306,13283,4082,11409,7409,2137,Tag0,unknown
127,1611472874844,51,22,4.833984375e-06,50,74,123,352061,90492,2306,13283,4082,11409,7409,2137,Tag0,unknown
128,1611472874885,51,29,6.3720703125e-06,50,74,123,352061,90492,2306,13283,4082,11409,7409,2137,Tag0,unknown
129,1611472874897,51,32,7.03125e-06,50,74,123,352061,90492,2306,13283,4082,11409,7409,2137,Tag0,unknown
130,1611472874907,51,42,9.228515625000003e-06,50,74,123,352061,90492,2306,13283,4082,11409,7409,2137,Tag0,unknown
131,1611472874917,51,53,1.1645507812500003e-05,50,74,123,352061,90492,2306,13283,4082,11409,7409,2137,Tag0,unknown
132,1611472874928,51,57,1.25244140625e-05,50,74,123,352061,90492,2306,13283,4082,11409,7409,2137,Tag0,unknown
133,1611472874940,51,61,1.34033203125e-05,50,74,123,352061,90492,2306,13283,4082,11409,7409,2137,Tag0,unknown
134,1611472874978,51,103,2.26318359375e-05,50,74,123,1219952,16776106,18534,23016,6411,24377,16753274,21999,Tag0,unknown
135,1611472874997,51,-114,-2.5048828125000006e-05,50,74,123,1219952,16776106,18534,23016,6411,24377,16753274,21999,Tag0,unknown
136,1611472875010,51,268,5.888671875000001e-05,50,74,123,1219952,16776106,18534,23016,6411,24377,16753274,21999,Tag0,unknown
137,1611472875032,51,185,4.06494140625e-05,50,74,123,1219952,16776106,18534,23016,6411,24377,16753274,21999,Tag0,unknown
138,1611472875046,51,497,0.0001092041015625,50,74,123,1219952,16776106,18534,23016,6411,24377,16753274,21999,Tag0,unknown
139,1611472875056,51,437,9.60205078125e-05,50,74,123,1219952,16776106,18534,23016,6411,24377,16753274,21999,Tag0,unknown
140,1611472875066,51,371,8.151855468750001e-05,50,74,123,1219952,16776106,18534,23016,6411,24377,16753274,21999,Tag0,unknown
141,1611472875077,51,389,8.54736328125e-05,50,74,123,1219952,16776106,18534,23016,6411,24377,16753274,21999,Tag0,unknown
142,1611472875103,51,356,7.822265625e-05,50,74,123,1219952,16776106,18534,23016,6411,24377,16753274,21999,Tag0,unknown
143,1611472875126,51,388,8.525390625e-05,50,74,123,1219952,16776106,18534,23016,6411,24377,16753274,21999,Tag0,unknown
144,1611472875144,51,149,3.27392578125e-05,50,74,123,1219952,16776106,18534,23016,6411,24377,16753274,21999,Tag0,unknown
145,1611472875161,51,793,0.0001742431640625,50,74,123,1219952,16776106,18534,23016,6411,24377,16753274,21999,Tag0,unknown
146,1611472875181,51,393,8.63525390625e-05,50,74,123,1219952,16776106,18534,23016,6411,24377,16753274,21999,Tag0,unknown
147,1611472875193,51,-342,-7.5146484375e-05,50,74,123,1219952,16776106,18534,23016,6411,24377,16753274,21999,Tag0,unknown
148,1611472875215,51,-212,-4.658203125000001e-05,50,74,123,1219952,16776106,18534,23016,6411,24377,16753274,21999,Tag0,unknown
149,1611472875225,51,298,6.5478515625e-05,50,74,123,1219952,16776106,18534,23016,6411,24377,16753274,21999,Tag0,unknown
150,1611472875251,51,115,2.52685546875e-05,50,74,123,1219952,16776106,18534,23016,6411,24377,16753274,21999,Tag0,unknown
151,1611472875261,51,625,0.0001373291015625,50,74,123,1219952,16776106,18534,23016,6411,24377,16753274,21999,Tag0,unknown
152,1611472875275,51,-301,-6.613769531250001e-05,50,74,123,1219952,16776106,18534,23016,6411,24377,16753274,21999,Tag0,unknown
153,1611472875295,51,592,0.000130078125,50,74,123,1219952,16776106,18534,23016,6411,24377,16753274,21999,Tag0,unknown
154,1611472875323,51,-7,-1.5380859375e-06,50,74,123,1219952,16776106,18534,23016,6411,24377,16753274,21999,Tag0,unknown
155,1611472875345,51,306,6.723632812500001e-05,50,74,123,1219952,16776106,18534,23016,6411,24377,16753274,21999,Tag0,unknown
156,1611472875355,51,-230,-5.0537109375e-05,50,74,123,1219952,16776106,18534,23016,6411,24377,16753274,21999,Tag0,unknown
157,1611472875365,51,-252,-5.537109375e-05,50,74,123,1219952,16776106,18534,23016,6411,24377,16753274,21999,Tag0,unknown
158,1611472875379,51,-547,-0.0001201904296875,50,74,123,1219952,16776106,18534,23016,6411,24377,16753274,21999,Tag0,unknown
159,1611472875401,51,-393,-8.63525390625e-05,50,74,123,1219952,16776106,18534,23016,6411,24377,16753274,21999,Tag0,unknown
160,1611472875412,51,-265,-5.82275390625e-05,50,74,123,1219952,16776106,18534,23016,6411,24377,16753274,21999,Tag0,unknown
161,1611472875422,51,220,4.833984375e-05,50,74,123,1219952,16776106,18534,23016,6411,24377,16753274,21999,Tag0,unknown
162,1611472875432,51,152,3.33984375e-05,50,74,123,1219952,16776106,18534,23016,6411,24377,16753274,21999,Tag0,unknown
163,1611472875466,51,167,3.66943359375e-05,50,74,123,1219952,16776106,18534,23016,6411,24377,16753274,21999,Tag0,unknown
164,1611472875479,51,169,3.71337890625e-05,50,74,123,1219952,16776106,18534,23016,6411,24377,16753274,21999,Tag0,unknown
165,1611472875494,51,614,0.000134912109375,50,74,123,1219952,16776106,18534,23016,6411,24377,16753274,21999,Tag0,unknown
166,1611472875510,51,828,0.00018193359375,50,74,123,1219952,16776106,18534,23016,6411,24377,16753274,21999,Tag0,unknown
167,1611472875529,51,601,0.00013205566406249998,50,74,123,1219952,16776106,18534,23016,6411,24377,16753274,21999,Tag0,unknown
168,1611472875546,51,132,2.900390625e-05,50,74,123,1219952,16776106,18534,23016,6411,24377,16753274,21999,Tag0,unknown
169,1611472875565,51,229,5.03173828125e-05,50,74,123,1219952,16776106,18534,23016,6411,24377,16753274,21999,Tag0,unknown
170,1611472875575,51,388,8.525390625e-05,50,74,123,1219952,16776106,18534,23016,6411,24377,16753274,21999,Tag0,unknown
171,1611472875595,51,1093,0.0002401611328125,50,74,123,1219952,16776106,18534,23016,6411,24377,16753274,21999,Tag0,unknown
172,1611472875613,51,1301,0.0002858642578125,50,74,123,1219952,16776106,18534,23016,6411,24377,16753274,21999,Tag0,unknown
173,1611472875626,51,1332,0.00029267578125,50,74,123,1219952,16776106,18534,23016,6411,24377,16753274,21999,Tag0,unknown
174,1611472875655,51,628,0.00013798828125,50,74,123,1219952,16776106,18534,23016,6411,24377,16753274,21999,Tag0,unknown
175,1611472875679,51,548,0.00012041015625,50,74,123,1219952,16776106,18534,23016,6411,24377,16753274,21999,Tag0,unknown
176,1611472875696,51,228,5.009765625000001e-05,50,74,123,1219952,16776106,18534,23016,6411,24377,16753274,21999,Tag0,unknown
177,1611472875706,51,334,7.338867187500001e-05,50,74,123,1219952,16776106,18534,23016,6411,24377,16753274,21999,Tag0,unknown
178,1611472875716,51,289,6.35009765625e-05,50,74,123,1219952,16776106,18534,23016,6411,24377,16753274,21999,Tag0,unknown
179,1611472875727,51,-29,-6.3720703125e-06,50,74,123,1219952,16776106,18534,23016,6411,24377,16753274,21999,Tag0,unknown
180,1611472875744,51,-29,-6.3720703125e-06,50,74,123,1219952,16776106,18534,23016,6411,24377,16753274,21999,Tag0,unknown
181,1611472875761,51,-93,-2.04345703125e-05,50,74,123,1219952,16776106,18534,23016,6411,24377,16753274,21999,Tag0,unknown
182,1611472875777,51,88,1.93359375e-05,50,74,123,1219952,16776106,18534,23016,6411,24377,16753274,21999,Tag0,unknown
183,1611472875787,51,107,2.35107421875e-05,50,74,123,1219952,16776106,18534,23016,6411,24377,16753274,21999,Tag0,unknown
184,1611472875801,51,52,1.142578125e-05,50,74,123,1219952,16776106,18534,23016,6411,24377,16753274,21999,Tag0,unknown
185,1611472875812,51,57,1.25244140625e-05,50,74,123,1219952,16776106,18534,23016,6411,24377,16753274,21999,Tag0,unknown
186,1611472875835,51,-346,-7.6025390625e-05,50,74,123,1219952,16776106,18534,23016,6411,24377,16753274,21999,Tag0,unknown
187,1611472875846,51,-315,-6.92138671875e-05,50,74,123,1219952,16776106,18534,23016,6411,24377,16753274,21999,Tag0,unknown
188,1611472875863,51,-257,-5.64697265625e-05,50,74,123,1219952,16776106,18534,23016,6411,24377,16753274,21999,Tag0,unknown
189,1611472875879,51,74,1.6259765625e-05,50,74,123,1219952,16776106,18534,23016,6411,24377,16753274,21999,Tag0,unknown
190,1611472875896,51,85,1.86767578125e-05,50,74,123,1219952,16776106,18534,23016,6411,24377,16753274,21999,Tag0,unknown
191,1611472875906,51,69,1.51611328125e-05,50,74,123,1219952,16776106,18534,23016,6411,24377,16753274,21999,Tag0,unknown
192,1611472875916,51,-259,-5.69091796875e-05,50,74,123,1219952,16776106,18534,23016,6411,24377,16753274,21999,Tag0,unknown
193,1611472875927,51,103,2.26318359375e-05,50,74,123,1219952,16776106,18534,23016,6411,24377,16753274,21999,Tag0,unknown
194,1611472875946,51,45,9.8876953125e-06,50,74,123,1219952,16776106,18534,23016,6411,24377,16753274,21999,Tag0,unknown
195,1611472875960,51,-365,-8.02001953125e-05,50,74,123,1219952,16776106,18534,23016,6411,24377,16753274,21999,Tag0,unknown
196,1611472875980,0,122,2.6806640625e-05,48,64,123,76530,28689,7337,8524,2403,13530,1652,347,Tag0,unknown
197,1611472875995,0,5,1.0986328125e-06,48,64,123,76530,28689,7337,8524,2403,13530,1652,347,Tag0,unknown
198,1611472876013,0,-91,-1.99951171875e-05,48,64,123,76530,28689,7337,8524,2403,13530,1652,347,Tag0,unknown
199,1611472876023,0,61,1.34033203125e-05,48,64,123,76530,28689,7337,8524,2403,13530,1652,347,Tag0,unknown
200,1611472876034,0,92,2.021484375e-05,48,64,123,76530,28689,7337,8524,2403,13530,1652,347,Tag0,unknown
201,1611472876046,0,72,1.58203125e-05,48,64,123,76530,28689,7337,8524,2403,13530,1652,347,Tag0,unknown
202,1611472876068,0,-310,-6.8115234375e-05,48,64,123,76530,28689,7337,8524,2403,13530,1652,347,Tag0,unknown
203,1611472876080,0,76,1.669921875e-05,48,64,123,76530,28689,7337,8524,2403,13530,1652,347,Tag0,unknown
204,1611472876095,0,-228,-5.009765625000001e-05,48,64,123,76530,28689,7337,8524,2403,13530,1652,347,Tag0,unknown
205,1611472876110,0,30,6.591796875e-06,48,64,123,76530,28689,7337,8524,2403,13530,1652,347,Tag0,unknown
206,1611472876127,0,-257,-5.64697265625e-05,48,64,123,76530,28689,7337,8524,2403,13530,1652,347,Tag0,unknown
207,1611472876144,0,-164,-3.603515625e-05,48,64,123,76530,28689,7337,8524,2403,13530,1652,347,Tag0,unknown
208,1611472876162,0,-238,-5.2294921875000014e-05,48,64,123,76530,28689,7337,8524,2403,13530,1652,347,Tag0,unknown
209,1611472876172,0,71,1.56005859375e-05,48,64,123,76530,28689,7337,8524,2403,13530,1652,347,Tag0,unknown
210,1611472876185,0,-516,-0.00011337890625,48,64,123,76530,28689,7337,8524,2403,13530,1652,347,Tag0,unknown
211,1611472876196,0,-278,-6.108398437500001e-05,48,64,123,76530,28689,7337,8524,2403,13530,1652,347,Tag0,unknown
212,1611472876218,0,-788,-0.00017314453125,48,64,123,76530,28689,7337,8524,2403,13530,1652,347,Tag0,unknown
213,1611472876228,0,-540,-0.00011865234375,48,64,123,76530,28689,7337,8524,2403,13530,1652,347,Tag0,unknown
214,1611472876255,0,-692,-0.00015205078125,48,64,123,76530,28689,7337,8524,2403,13530,1652,347,Tag0,unknown
215,1611472876265,0,-401,-8.811035156250001e-05,48,64,123,76530,28689,7337,8524,2403,13530,1652,347,Tag0,unknown
216,1611472876280,0,-649,-0.00014260253906250002,48,64,123,76530,28689,7337,8524,2403,13530,1652,347,Tag0,unknown
217,1611472876294,0,-854,-0.000187646484375,48,64,123,76530,28689,7337,8524,2403,13530,1652,347,Tag0,unknown
218,1611472876311,0,-701,-0.0001540283203125,48,64,123,76530,28689,7337,8524,2403,13530,1652,347,Tag0,unknown
219,1611472876341,0,-837,-0.0001839111328125,48,64,123,76530,28689,7337,8524,2403,13530,1652,347,Tag0,unknown
220,1611472876355,0,-486,-0.000106787109375,48,64,123,76530,28689,7337,8524,2403,13530,1652,347,Tag0,unknown
221,1611472876369,0,-348,-7.646484375e-05,48,64,123,76530,28689,7337,8524,2403,13530,1652,347,Tag0,unknown
222,1611472876380,0,-181,-3.97705078125e-05,48,64,123,76530,28689,7337,8524,2403,13530,1652,347,Tag0,unknown
223,1611472876394,0,-1029,-0.0002260986328125,48,64,123,76530,28689,7337,8524,2403,13530,1652,347,Tag0,unknown
224,1611472876411,0,-857,-0.0001883056640625,48,64,123,76530,28689,7337,8524,2403,13530,1652,347,Tag0,unknown
225,1611472876427,0,-449,-9.86572265625e-05,48,64,123,76530,28689,7337,8524,2403,13530,1652,347,Tag0,unknown
226,1611472876448,0,17,3.7353515625e-06,48,64,123,76530,28689,7337,8524,2403,13530,1652,347,Tag0,unknown
227,1611472876460,0,316,6.943359375000001e-05,48,64,123,76530,28689,7337,8524,2403,13530,1652,347,Tag0,unknown
228,1611472876486,0,588,0.00012919921875,48,64,123,76530,28689,7337,8524,2403,13530,1652,347,Tag0,unknown
229,1611472876497,0,-72,-1.58203125e-05,48,64,123,76530,28689,7337,8524,2403,13530,1652,347,Tag0,unknown
230,1611472876507,0,244,5.361328125e-05,48,64,123,76530,28689,7337,8524,2403,13530,1652,347,Tag0,unknown
231,1611472876517,0,-41,-9.0087890625e-06,48,64,123,76530,28689,7337,8524,2403,13530,1652,347,Tag0,unknown
232,1611472876530,0,285,6.26220703125e-05,48,64,123,76530,28689,7337,8524,2403,13530,1652,347,Tag0,unknown
233,1611472876546,0,249,5.47119140625e-05,48,64,123,76530,28689,7337,8524,2403,13530,1652,347,Tag0,unknown
234,1611472876566,0,-6,-1.318359375e-06,48,64,123,76530,28689,7337,8524,2403,13530,1652,347,Tag0,unknown
235,1611472876581,0,-63,-1.38427734375e-05,48,64,123,76530,28689,7337,8524,2403,13530,1652,347,Tag0,unknown
236,1611472876602,0,259,5.69091796875e-05,48,64,123,76530,28689,7337,8524,2403,13530,1652,347,Tag0,unknown
237,1611472876612,0,224,4.921875e-05,48,64,123,76530,28689,7337,8524,2403,13530,1652,347,Tag0,unknown
238,1611472876628,0,39,8.5693359375e-06,48,64,123,76530,28689,7337,8524,2403,13530,1652,347,Tag0,unknown
239,1611472876645,0,-311,-6.833496093750001e-05,48,64,123,76530,28689,7337,8524,2403,13530,1652,347,Tag0,unknown
240,1611472876663,0,54,1.1865234375e-05,48,64,123,76530,28689,7337,8524,2403,13530,1652,347,Tag0,unknown
241,1611472876681,0,-551,-0.0001210693359375,48,64,123,76530,28689,7337,8524,2403,13530,1652,347,Tag0,unknown
242,1611472876697,0,-338,-7.426757812499999e-05,48,64,123,76530,28689,7337,8524,2403,13530,1652,347,Tag0,unknown
243,1611472876707,0,-5,-1.0986328125e-06,48,64,123,76530,28689,7337,8524,2403,13530,1652,347,Tag0,unknown
244,1611472876719,0,529,0.0001162353515625,48,64,123,76530,28689,7337,8524,2403,13530,1652,347,Tag0,unknown
245,1611472876730,0,533,0.0001171142578125,48,64,123,76530,28689,7337,8524,2403,13530,1652,347,Tag0,unknown
246,1611472876750,0,-21,-4.614257812500002e-06,48,64,123,76530,28689,7337,8524,2403,13530,1652,347,Tag0,unknown
247,1611472876765,0,237,5.20751953125e-05,48,64,123,76530,28689,7337,8524,2403,13530,1652,347,Tag0,unknown
248,1611472876779,0,476,0.00010458984375,48,64,123,76530,28689,7337,8524,2403,13530,1652,347,Tag0,unknown
249,1611472876796,0,730,0.000160400390625,48,64,123,76530,28689,7337,8524,2403,13530,1652,347,Tag0,unknown
250,1611472876816,0,877,0.00019270019531250005,48,64,123,76530,28689,7337,8524,2403,13530,1652,347,Tag0,unknown
251,1611472876829,0,852,0.00018720703125,48,64,123,76530,28689,7337,8524,2403,13530,1652,347,Tag0,unknown
252,1611472876854,0,586,0.000128759765625,48,64,123,76530,28689,7337,8524,2403,13530,1652,347,Tag0,unknown
253,1611472876867,0,566,0.00012436523437500002,48,64,123,76530,28689,7337,8524,2403,13530,1652,347,Tag0,unknown
254,1611472876877,0,152,3.33984375e-05,48,64,123,76530,28689,7337,8524,2403,13530,1652,347,Tag0,unknown
255,1611472876887,0,339,7.448730468750001e-05,48,64,123,76530,28689,7337,8524,2403,13530,1652,347,Tag0,unknown
256,1611472876897,0,267,5.86669921875e-05,48,64,123,76530,28689,7337,8524,2403,13530,1652,347,Tag0,unknown
257,1611472876966,0,-69,-1.51611328125e-05,48,64,123,76530,28689,7337,8524,2403,13530,1652,347,Tag0,unknown
258,1611472876985,0,-72,-1.58203125e-05,48,64,123,76530,28689,7337,8524,2403,13530,1652,347,Tag0,unknown
259,1611472876995,0,-101,-2.21923828125e-05,48,64,123,76530,28689,7337,8524,2403,13530,1652,347,Tag0,unknown
260,1611472877030,0,-112,-2.4609375e-05,48,64,123,76530,28689,7337,8524,2403,13530,1652,347,Tag0,unknown
261,1611472877047,0,-117,-2.57080078125e-05,48,64,123,76530,28689,7337,8524,2403,13530,1652,347,Tag0,unknown
262,1611472877100,0,123,2.70263671875e-05,51,70,123,810697,226571,35676,96784,16758865,153611,16759046,11303,Tag0,unknown
263,1611472877115,0,120,2.63671875e-05,51,70,123,810697,226571,35676,96784,16758865,153611,16759046,11303,Tag0,unknown
264,1611472877239,0,100,2.197265625e-05,51,70,123,810697,226571,35676,96784,16758865,153611,16759046,11303,Tag0,unknown
265,1611472877257,0,99,2.1752929687500006e-05,51,70,123,810697,226571,35676,96784,16758865,153611,16759046,11303,Tag0,unknown
266,1611472877272,0,88,1.93359375e-05,51,70,123,810697,226571,35676,96784,16758865,153611,16759046,11303,Tag0,unknown
267,1611472877305,0,86,1.8896484375000006e-05,51,70,123,810697,226571,35676,96784,16758865,153611,16759046,11303,Tag0,unknown
268,1611472877316,0,86,1.8896484375000006e-05,51,70,123,810697,226571,35676,96784,16758865,153611,16759046,11303,Tag0,unknown
269,1611472877326,0,75,1.64794921875e-05,51,70,123,810697,226571,35676,96784,16758865,153611,16759046,11303,Tag0,unknown
270,1611472877336,0,73,1.6040039062500002e-05,51,70,123,810697,226571,35676,96784,16758865,153611,16759046,11303,Tag0,unknown
271,1611472877375,0,72,1.58203125e-05,51,70,123,810697,226571,35676,96784,16758865,153611,16759046,11303,Tag0,unknown
272,1611472877385,0,71,1.56005859375e-05,51,70,123,810697,226571,35676,96784,16758865,153611,16759046,11303,Tag0,unknown
273,1611472877443,0,70,1.5380859375e-05,51,70,123,810697,226571,35676,96784,16758865,153611,16759046,11303,Tag0,unknown
274,1611472877473,0,69,1.51611328125e-05,51,70,123,810697,226571,35676,96784,16758865,153611,16759046,11303,Tag0,unknown
275,1611472877483,0,67,1.4721679687500003e-05,51,70,123,810697,226571,35676,96784,16758865,153611,16759046,11303,Tag0,unknown
276,1611472877493,0,68,1.494140625e-05,51,70,123,810697,226571,35676,96784,16758865,153611,16759046,11303,Tag0,unknown
277,1611472877503,0,72,1.58203125e-05,51,70,123,810697,226571,35676,96784,16758865,153611,16759046,11303,Tag0,unknown
278,1611472877513,0,-562,-0.000123486328125,51,70,123,810697,226571,35676,96784,16758865,153611,16759046,11303,Tag0,unknown
279,1611472877523,0,-379,-8.32763671875e-05,51,70,123,810697,226571,35676,96784,16758865,153611,16759046,11303,Tag0,unknown
280,1611472877533,0,57,1.25244140625e-05,51,70,123,810697,226571,35676,96784,16758865,153611,16759046,11303,Tag0,unknown
281,1611472877543,0,61,1.34033203125e-05,51,70,123,810697,226571,35676,96784,16758865,153611,16759046,11303,Tag0,unknown
282,1611472877577,0,61,1.34033203125e-05,51,70,123,810697,226571,35676,96784,16758865,153611,16759046,11303,Tag0,unknown
283,1611472877598,0,62,1.3623046875e-05,51,70,123,810697,226571,35676,96784,16758865,153611,16759046,11303,Tag0,unknown
284,1611472877608,0,64,1.40625e-05,51,70,123,810697,226571,35676,96784,16758865,153611,16759046,11303,Tag0,unknown
285,1611472877620,0,64,1.40625e-05,51,70,123,810697,226571,35676,96784,16758865,153611,16759046,11303,Tag0,unknown
286,1611472877632,0,65,1.42822265625e-05,51,70,123,810697,226571,35676,96784,16758865,153611,16759046,11303,Tag0,unknown
287,1611472877642,0,65,1.42822265625e-05,51,70,123,810697,226571,35676,96784,16758865,153611,16759046,11303,Tag0,unknown
288,1611472877666,0,65,1.42822265625e-05,51,70,123,810697,226571,35676,96784,16758865,153611,16759046,11303,Tag0,unknown
289,1611472877683,0,65,1.42822265625e-05,51,70,123,810697,226571,35676,96784,16758865,153611,16759046,11303,Tag0,unknown
290,1611472877699,0,65,1.42822265625e-05,51,70,123,810697,226571,35676,96784,16758865,153611,16759046,11303,Tag0,unknown
291,1611472877716,0,66,1.4501953125e-05,51,70,123,810697,226571,35676,96784,16758865,153611,16759046,11303,Tag0,unknown
292,1611472877736,0,65,1.42822265625e-05,51,70,123,810697,226571,35676,96784,16758865,153611,16759046,11303,Tag0,unknown
293,1611472877747,0,65,1.42822265625e-05,51,70,123,810697,226571,35676,96784,16758865,153611,16759046,11303,Tag0,unknown
294,1611472877769,0,67,1.4721679687500003e-05,51,70,123,810697,226571,35676,96784,16758865,153611,16759046,11303,Tag0,unknown
295,1611472877781,0,65,1.42822265625e-05,51,70,123,810697,226571,35676,96784,16758865,153611,16759046,11303,Tag0,unknown
296,1611472877810,0,65,1.42822265625e-05,51,70,123,810697,226571,35676,96784,16758865,153611,16759046,11303,Tag0,unknown
297,1611472877820,0,65,1.42822265625e-05,51,70,123,810697,226571,35676,96784,16758865,153611,16759046,11303,Tag0,unknown
298,1611472877833,0,65,1.42822265625e-05,51,70,123,810697,226571,35676,96784,16758865,153611,16759046,11303,Tag0,unknown
299,1611472877850,0,65,1.42822265625e-05,51,70,123,810697,226571,35676,96784,16758865,153611,16759046,11303,Tag0,unknown
300,1611472877866,0,64,1.40625e-05,51,70,123,810697,226571,35676,96784,16758865,153611,16759046,11303,Tag0,unknown
301,1611472877876,0,65,1.42822265625e-05,51,70,123,810697,226571,35676,96784,16758865,153611,16759046,11303,Tag0,unknown
302,1611472877886,0,65,1.42822265625e-05,51,70,123,810697,226571,35676,96784,16758865,153611,16759046,11303,Tag0,unknown
303,1611472877899,0,65,1.42822265625e-05,51,70,123,810697,226571,35676,96784,16758865,153611,16759046,11303,Tag0,unknown
304,1611472877917,0,65,1.42822265625e-05,51,70,123,810697,226571,35676,96784,16758865,153611,16759046,11303,Tag0,unknown
305,1611472877932,0,65,1.42822265625e-05,51,70,123,810697,226571,35676,96784,16758865,153611,16759046,11303,Tag0,unknown
306,1611472877950,25,65,1.42822265625e-05,51,70,123,2041418,131578,13849,9623,13674,19751,8779,3808,Tag0,unknown
307,1611472877964,25,66,1.4501953125e-05,51,70,123,2041418,131578,13849,9623,13674,19751,8779,3808,Tag0,unknown
308,1611472877984,25,65,1.42822265625e-05,51,70,123,2041418,131578,13849,9623,13674,19751,8779,3808,Tag0,unknown
309,1611472877997,25,66,1.4501953125e-05,51,70,123,2041418,131578,13849,9623,13674,19751,8779,3808,Tag0,unknown
310,1611472878026,25,65,1.42822265625e-05,51,70,123,2041418,131578,13849,9623,13674,19751,8779,3808,Tag0,unknown
311,1611472878036,25,65,1.42822265625e-05,51,70,123,2041418,131578,13849,9623,13674,19751,8779,3808,Tag0,unknown
312,1611472878051,25,66,1.4501953125e-05,51,70,123,2041418,131578,13849,9623,13674,19751,8779,3808,Tag0,unknown
313,1611472878061,25,66,1.4501953125e-05,51,70,123,2041418,131578,13849,9623,13674,19751,8779,3808,Tag0,unknown
314,1611472878083,25,65,1.42822265625e-05,51,70,123,2041418,131578,13849,9623,13674,19751,8779,3808,Tag0,unknown
315,1611472878100,25,65,1.42822265625e-05,51,70,123,2041418,131578,13849,9623,13674,19751,8779,3808,Tag0,unknown
316,1611472878117,25,65,1.42822265625e-05,51,70,123,2041418,131578,13849,9623,13674,19751,8779,3808,Tag0,unknown
317,1611472878127,25,66,1.4501953125e-05,51,70,123,2041418,131578,13849,9623,13674,19751,8779,3808,Tag0,unknown
318,1611472878139,25,65,1.42822265625e-05,51,70,123,2041418,131578,13849,9623,13674,19751,8779,3808,Tag0,unknown
319,1611472878149,25,65,1.42822265625e-05,51,70,123,2041418,131578,13849,9623,13674,19751,8779,3808,Tag0,unknown
320,1611472878172,25,65,1.42822265625e-05,51,70,123,2041418,131578,13849,9623,13674,19751,8779,3808,Tag0,unknown
321,1611472878182,25,65,1.42822265625e-05,51,70,123,2041418,131578,13849,9623,13674,19751,8779,3808,Tag0,unknown
322,1611472878199,25,65,1.42822265625e-05,51,70,123,2041418,131578,13849,9623,13674,19751,8779,3808,Tag0,unknown
323,1611472878216,25,65,1.42822265625e-05,51,70,123,2041418,131578,13849,9623,13674,19751,8779,3808,Tag0,unknown
324,1611472878233,25,65,1.42822265625e-05,51,70,123,2041418,131578,13849,9623,13674,19751,8779,3808,Tag0,unknown
325,1611472878250,25,65,1.42822265625e-05,51,70,123,2041418,131578,13849,9623,13674,19751,8779,3808,Tag0,unknown
326,1611472878267,25,65,1.42822265625e-05,51,70,123,2041418,131578,13849,9623,13674,19751,8779,3808,Tag0,unknown
327,1611472878277,25,65,1.42822265625e-05,51,70,123,2041418,131578,13849,9623,13674,19751,8779,3808,Tag0,unknown
328,1611472878287,25,65,1.42822265625e-05,51,70,123,2041418,131578,13849,9623,13674,19751,8779,3808,Tag0,unknown
329,1611472878298,25,65,1.42822265625e-05,51,70,123,2041418,131578,13849,9623,13674,19751,8779,3808,Tag0,unknown
330,1611472878319,25,65,1.42822265625e-05,51,70,123,2041418,131578,13849,9623,13674,19751,8779,3808,Tag0,unknown
331,1611472878331,25,65,1.42822265625e-05,51,70,123,2041418,131578,13849,9623,13674,19751,8779,3808,Tag0,unknown
332,1611472878358,25,65,1.42822265625e-05,51,70,123,2041418,131578,13849,9623,13674,19751,8779,3808,Tag0,unknown
333,1611472878374,25,65,1.42822265625e-05,51,70,123,2041418,131578,13849,9623,13674,19751,8779,3808,Tag0,unknown
334,1611472878397,25,66,1.4501953125e-05,51,70,123,2041418,131578,13849,9623,13674,19751,8779,3808,Tag0,unknown
335,1611472878407,25,65,1.42822265625e-05,51,70,123,2041418,131578,13849,9623,13674,19751,8779,3808,Tag0,unknown
336,1611472878417,25,65,1.42822265625e-05,51,70,123,2041418,131578,13849,9623,13674,19751,8779,3808,Tag0,unknown
337,1611472878434,25,65,1.42822265625e-05,51,70,123,2041418,131578,13849,9623,13674,19751,8779,3808,Tag0,unknown
338,1611472878451,25,65,1.42822265625e-05,51,70,123,2041418,131578,13849,9623,13674,19751,8779,3808,Tag0,unknown
339,1611472878468,25,66,1.4501953125e-05,51,70,123,2041418,131578,13849,9623,13674,19751,8779,3808,Tag0,unknown
340,1611472878485,25,65,1.42822265625e-05,51,70,123,2041418,131578,13849,9623,13674,19751,8779,3808,Tag0,unknown
341,1611472878495,25,65,1.42822265625e-05,51,70,123,2041418,131578,13849,9623,13674,19751,8779,3808,Tag0,unknown
342,1611472878505,25,65,1.42822265625e-05,51,70,123,2041418,131578,13849,9623,13674,19751,8779,3808,Tag0,unknown
343,1611472878515,25,65,1.42822265625e-05,51,70,123,2041418,131578,13849,9623,13674,19751,8779,3808,Tag0,unknown
344,1611472878537,25,65,1.42822265625e-05,51,70,123,2041418,131578,13849,9623,13674,19751,8779,3808,Tag0,unknown
345,1611472878548,25,65,1.42822265625e-05,51,70,123,2041418,131578,13849,9623,13674,19751,8779,3808,Tag0,unknown
346,1611472878577,25,66,1.4501953125e-05,51,70,123,2041418,131578,13849,9623,13674,19751,8779,3808,Tag0,unknown
347,1611472878587,25,65,1.42822265625e-05,51,70,123,2041418,131578,13849,9623,13674,19751,8779,3808,Tag0,unknown
348,1611472878614,25,66,1.4501953125e-05,51,70,123,2041418,131578,13849,9623,13674,19751,8779,3808,Tag0,unknown
349,1611472878635,25,66,1.4501953125e-05,51,70,123,2041418,131578,13849,9623,13674,19751,8779,3808,Tag0,unknown
350,1611472878645,25,66,1.4501953125e-05,51,70,123,2041418,131578,13849,9623,13674,19751,8779,3808,Tag0,unknown
351,1611472878659,25,65,1.42822265625e-05,51,70,123,2041418,131578,13849,9623,13674,19751,8779,3808,Tag0,unknown
352,1611472878684,25,66,1.4501953125e-05,51,70,123,2041418,131578,13849,9623,13674,19751,8779,3808,Tag0,unknown
353,1611472878700,25,65,1.42822265625e-05,51,70,123,2041418,131578,13849,9623,13674,19751,8779,3808,Tag0,unknown
354,1611472878710,25,65,1.42822265625e-05,51,70,123,2041418,131578,13849,9623,13674,19751,8779,3808,Tag0,unknown
355,1611472878726,25,65,1.42822265625e-05,51,70,123,2041418,131578,13849,9623,13674,19751,8779,3808,Tag0,unknown
356,1611472878736,25,65,1.42822265625e-05,51,70,123,2041418,131578,13849,9623,13674,19751,8779,3808,Tag0,unknown
357,1611472878760,25,65,1.42822265625e-05,51,70,123,2041418,131578,13849,9623,13674,19751,8779,3808,Tag0,unknown
358,1611472878770,25,66,1.4501953125e-05,51,70,123,2041418,131578,13849,9623,13674,19751,8779,3808,Tag0,unknown
359,1611472878786,25,66,1.4501953125e-05,51,70,123,2041418,131578,13849,9623,13674,19751,8779,3808,Tag0,unknown
360,1611472878799,25,65,1.42822265625e-05,51,70,123,2041418,131578,13849,9623,13674,19751,8779,3808,Tag0,unknown
361,1611472878817,25,67,1.4721679687500003e-05,51,70,123,2041418,131578,13849,9623,13674,19751,8779,3808,Tag0,unknown
362,1611472878832,25,67,1.4721679687500003e-05,51,70,123,2041418,131578,13849,9623,13674,19751,8779,3808,Tag0,unknown
363,1611472878850,25,66,1.4501953125e-05,51,70,123,2041418,131578,13849,9623,13674,19751,8779,3808,Tag0,unknown
364,1611472878860,25,67,1.4721679687500003e-05,51,70,123,2041418,131578,13849,9623,13674,19751,8779,3808,Tag0,unknown
365,1611472878871,25,66,1.4501953125e-05,51,70,123,2041418,131578,13849,9623,13674,19751,8779,3808,Tag0,unknown
366,1611472878884,25,65,1.42822265625e-05,51,70,123,2041418,131578,13849,9623,13674,19751,8779,3808,Tag0,unknown
367,1611472878905,25,67,1.4721679687500003e-05,51,70,123,2041418,131578,13849,9623,13674,19751,8779,3808,Tag0,unknown
368,1611472878918,25,66,1.4501953125e-05,51,70,123,2041418,131578,13849,9623,13674,19751,8779,3808,Tag0,unknown
369,1611472878928,25,66,1.4501953125e-05,51,70,123,2041418,131578,13849,9623,13674,19751,8779,3808,Tag0,unknown
370,1611472878951,25,24,5.2734375e-06,51,70,123,6,0,0,0,0,0,0,0,Tag0,unknown
371,1611472878970,25,23,5.0537109375e-06,51,70,123,6,0,0,0,0,0,0,0,Tag0,unknown
372,1611472878990,25,24,5.2734375e-06,51,70,123,6,0,0,0,0,0,0,0,Tag0,unknown
373,1611472879000,25,23,5.0537109375e-06,51,70,123,6,0,0,0,0,0,0,0,Tag0,unknown
374,1611472879017,25,-1817,-0.0003992431640625,51,70,123,6,0,0,0,0,0,0,0,Tag0,unknown
375,1611472879033,25,-1505,-0.0003306884765625,51,70,123,6,0,0,0,0,0,0,0,Tag0,unknown
376,1611472879050,25,-1601,-0.0003517822265625,51,70,123,6,0,0,0,0,0,0,0,Tag0,unknown
377,1611472879069,25,-905,-0.0001988525390625,51,70,123,6,0,0,0,0,0,0,0,Tag0,unknown
378,1611472879087,25,-739,-0.0001623779296875,51,70,123,6,0,0,0,0,0,0,0,Tag0,unknown
379,1611472879097,25,-428,-9.404296875e-05,51,70,123,6,0,0,0,0,0,0,0,Tag0,unknown
380,1611472879107,25,-570,-0.000125244140625,51,70,123,6,0,0,0,0,0,0,0,Tag0,unknown
381,1611472879118,25,-518,-0.000113818359375,51,70,123,6,0,0,0,0,0,0,0,Tag0,unknown
382,1611472879139,25,-178,-3.9111328125e-05,51,70,123,6,0,0,0,0,0,0,0,Tag0,unknown
383,1611472879151,25,-168,-3.6914062500000014e-05,51,70,123,6,0,0,0,0,0,0,0,Tag0,unknown
384,1611472879161,25,-309,-6.78955078125e-05,51,70,123,6,0,0,0,0,0,0,0,Tag0,unknown
385,1611472879178,25,-283,-6.218261718750001e-05,51,70,123,6,0,0,0,0,0,0,0,Tag0,unknown
386,1611472879201,25,-261,-5.73486328125e-05,51,70,123,6,0,0,0,0,0,0,0,Tag0,unknown
387,1611472879219,25,7,1.5380859375e-06,51,70,123,6,0,0,0,0,0,0,0,Tag0,unknown
388,1611472879233,25,26,5.712890625e-06,51,70,123,6,0,0,0,0,0,0,0,Tag0,unknown
389,1611472879259,25,43,9.4482421875e-06,51,70,123,6,0,0,0,0,0,0,0,Tag0,unknown
390,1611472879269,25,43,9.4482421875e-06,51,70,123,6,0,0,0,0,0,0,0,Tag0,unknown
391,1611472879279,25,51,1.12060546875e-05,51,70,123,6,0,0,0,0,0,0,0,Tag0,unknown
392,1611472879289,25,57,1.25244140625e-05,51,70,123,6,0,0,0,0,0,0,0,Tag0,unknown
393,1611472879307,25,59,1.29638671875e-05,51,70,123,6,0,0,0,0,0,0,0,Tag0,unknown
394,1611472879319,25,56,1.23046875e-05,51,70,123,6,0,0,0,0,0,0,0,Tag0,unknown
395,1611472879329,25,61,1.34033203125e-05,51,70,123,6,0,0,0,0,0,0,0,Tag0,unknown
396,1611472879339,25,60,1.318359375e-05,51,70,123,6,0,0,0,0,0,0,0,Tag0,unknown
397,1611472879352,25,61,1.34033203125e-05,51,70,123,6,0,0,0,0,0,0,0,Tag0,unknown
398,1611472879369,25,70,1.5380859375e-05,51,70,123,6,0,0,0,0,0,0,0,Tag0,unknown
399,1611472879387,25,70,1.5380859375e-05,51,70,123,6,0,0,0,0,0,0,0,Tag0,unknown
400,1611472879403,25,73,1.6040039062500002e-05,51,70,123,6,0,0,0,0,0,0,0,Tag0,unknown
401,1611472879413,25,71,1.56005859375e-05,51,70,123,6,0,0,0,0,0,0,0,Tag0,unknown
402,1611472879435,25,75,1.64794921875e-05,51,70,123,6,0,0,0,0,0,0,0,Tag0,unknown
403,1611472879453,25,68,1.494140625e-05,51,70,123,6,0,0,0,0,0,0,0,Tag0,unknown
404,1611472879469,25,64,1.40625e-05,51,70,123,6,0,0,0,0,0,0,0,Tag0,unknown
405,1611472879479,25,60,1.318359375e-05,51,70,123,6,0,0,0,0,0,0,0,Tag0,unknown
406,1611472879492,25,74,1.6259765625e-05,51,70,123,6,0,0,0,0,0,0,0,Tag0,unknown
407,1611472879502,25,64,1.40625e-05,51,70,123,6,0,0,0,0,0,0,0,Tag0,unknown
408,1611472879528,25,67,1.4721679687500003e-05,51,70,123,6,0,0,0,0,0,0,0,Tag0,unknown
409,1611472879551,25,73,1.6040039062500002e-05,51,70,123,6,0,0,0,0,0,0,0,Tag0,unknown
410,1611472879561,25,67,1.4721679687500003e-05,51,70,123,6,0,0,0,0,0,0,0,Tag0,unknown
411,1611472879575,25,86,1.8896484375000006e-05,51,70,123,6,0,0,0,0,0,0,0,Tag0,unknown
412,1611472879590,25,67,1.4721679687500003e-05,51,70,123,6,0,0,0,0,0,0,0,Tag0,unknown
413,1611472879600,25,86,1.8896484375000006e-05,51,70,123,6,0,0,0,0,0,0,0,Tag0,unknown
414,1611472879610,25,65,1.42822265625e-05,51,70,123,6,0,0,0,0,0,0,0,Tag0,unknown
415,1611472879620,25,64,1.40625e-05,51,70,123,6,0,0,0,0,0,0,0,Tag0,unknown
416,1611472879643,25,73,1.6040039062500002e-05,51,70,123,6,0,0,0,0,0,0,0,Tag0,unknown
417,1611472879653,25,51,1.12060546875e-05,51,70,123,6,0,0,0,0,0,0,0,Tag0,unknown
418,1611472879678,25,51,1.12060546875e-05,51,70,123,6,0,0,0,0,0,0,0,Tag0,unknown
419,1611472879688,25,83,1.82373046875e-05,51,70,123,6,0,0,0,0,0,0,0,Tag0,unknown
420,1611472879699,25,108,2.373046875e-05,51,70,123,6,0,0,0,0,0,0,0,Tag0,unknown
421,1611472879709,25,59,1.29638671875e-05,51,70,123,6,0,0,0,0,0,0,0,Tag0,unknown
422,1611472879723,25,69,1.51611328125e-05,51,70,123,6,0,0,0,0,0,0,0,Tag0,unknown
423,1611472879733,25,97,2.13134765625e-05,51,70,123,6,0,0,0,0,0,0,0,Tag0,unknown
424,1611472879748,25,99,2.1752929687500006e-05,51,70,123,6,0,0,0,0,0,0,0,Tag0,unknown
425,1611472879758,25,51,1.12060546875e-05,51,70,123,6,0,0,0,0,0,0,0,Tag0,unknown
426,1611472879770,25,70,1.5380859375e-05,51,70,123,6,0,0,0,0,0,0,0,Tag0,unknown
427,1611472879780,25,103,2.26318359375e-05,51,70,123,6,0,0,0,0,0,0,0,Tag0,unknown
428,1611472879802,25,-111,-2.43896484375e-05,51,70,123,6,0,0,0,0,0,0,0,Tag0,unknown
429,1611472879824,25,81,1.77978515625e-05,51,70,123,6,0,0,0,0,0,0,0,Tag0,unknown
430,1611472879835,25,122,2.6806640625e-05,51,70,123,6,0,0,0,0,0,0,0,Tag0,unknown
431,1611472879845,25,-125,-2.74658203125e-05,51,70,123,6,0,0,0,0,0,0,0,Tag0,unknown
432,1611472879859,25,36,7.91015625e-06,51,70,123,6,0,0,0,0,0,0,0,Tag0,unknown
433,1611472879869,25,89,1.95556640625e-05,51,70,123,6,0,0,0,0,0,0,0,Tag0,unknown
434,1611472879894,25,-118,-2.5927734375e-05,51,70,123,6,0,0,0,0,0,0,0,Tag0,unknown
435,1611472879918,25,86,1.8896484375000006e-05,51,70,123,6,0,0,0,0,0,0,0,Tag0,unknown
436,1611472879934,25,107,2.35107421875e-05,51,70,123,6,0,0,0,0,0,0,0,Tag0,unknown
437,1611472879952,0,115,2.52685546875e-05,48,47,123,1316347,435153,28124,59508,151863,74034,9547,6795,Tag0,unknown
438,1611472879987,0,-84,-1.8457031250000007e-05,48,47,123,1316347,435153,28124,59508,151863,74034,9547,6795,Tag0,unknown
439,1611472880007,0,-95,-2.08740234375e-05,48,47,123,1316347,435153,28124,59508,151863,74034,9547,6795,Tag0,unknown
440,1611472880017,0,59,1.29638671875e-05,48,47,123,1316347,435153,28124,59508,151863,74034,9547,6795,Tag0,unknown
441,1611472880029,0,52,1.142578125e-05,48,47,123,1316347,435153,28124,59508,151863,74034,9547,6795,Tag0,unknown
442,1611472880039,0,103,2.26318359375e-05,48,47,123,1316347,435153,28124,59508,151863,74034,9547,6795,Tag0,unknown
443,1611472880056,0,77,1.69189453125e-05,48,47,123,1316347,435153,28124,59508,151863,74034,9547,6795,Tag0,unknown
444,1611472880068,0,23,5.0537109375e-06,48,47,123,1316347,435153,28124,59508,151863,74034,9547,6795,Tag0,unknown
445,1611472880092,0,-107,-2.35107421875e-05,48,47,123,1316347,435153,28124,59508,151863,74034,9547,6795,Tag0,unknown
446,1611472880102,0,103,2.26318359375e-05,48,47,123,1316347,435153,28124,59508,151863,74034,9547,6795,Tag0,unknown
447,1611472880126,0,-108,-2.373046875e-05,48,47,123,1316347,435153,28124,59508,151863,74034,9547,6795,Tag0,unknown
448,1611472880137,0,41,9.0087890625e-06,48,47,123,1316347,435153,28124,59508,151863,74034,9547,6795,Tag0,unknown
449,1611472880147,0,-124,-2.724609375e-05,48,47,123,1316347,435153,28124,59508,151863,74034,9547,6795,Tag0,unknown
450,1611472880157,0,42,9.228515625000003e-06,48,47,34,1316347,435153,28124,59508,151863,74034,9547,6795,Tag0,unknown
451,1611472880172,0,-12,-2.63671875e-06,48,47,34,1316347,435153,28124,59508,151863,74034,9547,6795,Tag0,unknown
452,1611472880197,0,58,1.2744140625e-05,48,47,34,1316347,435153,28124,59508,151863,74034,9547,6795,Tag0,unknown
453,1611472880207,0,-103,-2.26318359375e-05,48,47,34,1316347,435153,28124,59508,151863,74034,9547,6795,Tag0,unknown
454,1611472880221,0,17,3.7353515625e-06,48,47,34,1316347,435153,28124,59508,151863,74034,9547,6795,Tag0,unknown
455,1611472880237,0,-95,-2.08740234375e-05,48,47,34,1316347,435153,28124,59508,151863,74034,9547,6795,Tag0,unknown
456,1611472880252,0,-269,-5.91064453125e-05,48,47,34,1316347,435153,28124,59508,151863,74034,9547,6795,Tag0,unknown
457,1611472880271,0,3,6.591796875e-07,48,47,34,1316347,435153,28124,59508,151863,74034,9547,6795,Tag0,unknown
458,1611472880287,0,39,8.5693359375e-06,48,47,34,1316347,435153,28124,59508,151863,74034,9547,6795,Tag0,unknown
459,1611472880297,0,53,1.1645507812500003e-05,48,47,34,1316347,435153,28124,59508,151863,74034,9547,6795,Tag0,unknown
460,1611472880310,0,-105,-2.30712890625e-05,48,47,34,1316347,435153,28124,59508,151863,74034,9547,6795,Tag0,unknown
461,1611472880323,0,-267,-5.86669921875e-05,48,47,34,1316347,435153,28124,59508,151863,74034,9547,6795,Tag0,unknown
462,1611472880349,0,113,2.48291015625e-05,48,47,34,1316347,435153,28124,59508,151863,74034,9547,6795,Tag0,unknown
463,1611472880359,0,-265,-5.82275390625e-05,48,47,34,1316347,435153,28124,59508,151863,74034,9547,6795,Tag0,unknown
464,1611472880372,0,117,2.57080078125e-05,48,47,34,1316347,435153,28124,59508,151863,74034,9547,6795,Tag0,unknown
465,1611472880382,0,66,1.4501953125e-05,48,47,34,1316347,435153,28124,59508,151863,74034,9547,6795,Tag0,unknown
466,1611472880393,0,-293,-6.43798828125e-05,48,47,34,1316347,435153,28124,59508,151863,74034,9547,6795,Tag0,unknown
467,1611472880406,0,-107,-2.35107421875e-05,48,47,34,1316347,435153,28124,59508,151863,74034,9547,6795,Tag0,unknown
468,1611472880419,0,-263,-5.778808593750001e-05,48,47,34,1316347,435153,28124,59508,151863,74034,9547,6795,Tag0,unknown
469,1611472880436,0,58,1.2744140625e-05,48,47,34,1316347,435153,28124,59508,151863,74034,9547,6795,Tag0,unknown
470,1611472880452,0,-63,-1.38427734375e-05,48,47,34,1316347,435153,28124,59508,151863,74034,9547,6795,Tag0,unknown
471,1611472880469,0,-277,-6.086425781250001e-05,48,47,34,1316347,435153,28124,59508,151863,74034,9547,6795,Tag0,unknown
472,1611472880488,0,264,5.80078125e-05,48,47,34,1316347,435153,28124,59508,151863,74034,9547,6795,Tag0,unknown
473,1611472880498,0,-127,-2.79052734375e-05,48,47,34,1316347,435153,28124,59508,151863,74034,9547,6795,Tag0,unknown
474,1611472880508,0,-306,-6.723632812500001e-05,48,47,34,1316347,435153,28124,59508,151863,74034,9547,6795,Tag0,unknown
475,1611472880523,0,68,1.494140625e-05,48,47,34,1316347,435153,28124,59508,151863,74034,9547,6795,Tag0,unknown
476,1611472880540,0,83,1.82373046875e-05,48,47,34,1316347,435153,28124,59508,151863,74034,9547,6795,Tag0,unknown
477,1611472880557,0,11,2.4169921875e-06,48,47,34,1316347,435153,28124,59508,151863,74034,9547,6795,Tag0,unknown
478,1611472880567,0,13,2.8564453125e-06,48,47,34,1316347,435153,28124,59508,151863,74034,9547,6795,Tag0,unknown
479,1611472880590,0,-277,-6.086425781250001e-05,48,47,34,1316347,435153,28124,59508,151863,74034,9547,6795,Tag0,unknown
480,1611472880605,0,-43,-9.4482421875e-06,48,47,34,1316347,435153,28124,59508,151863,74034,9547,6795,Tag0,unknown
481,1611472880629,0,36,7.91015625e-06,48,47,34,1316347,435153,28124,59508,151863,74034,9547,6795,Tag0,unknown
482,1611472880639,0,-102,-2.2412109375e-05,48,47,34,1316347,435153,28124,59508,151863,74034,9547,6795,Tag0,unknown
483,1611472880664,0,73,1.6040039062500002e-05,48,47,34,1316347,435153,28124,59508,151863,74034,9547,6795,Tag0,unknown
484,1611472880674,0,-111,-2.43896484375e-05,48,47,34,1316347,435153,28124,59508,151863,74034,9547,6795,Tag0,unknown
485,1611472880687,0,43,9.4482421875e-06,48,47,34,1316347,435153,28124,59508,151863,74034,9547,6795,Tag0,unknown
486,1611472880703,0,81,1.77978515625e-05,48,47,34,1316347,435153,28124,59508,151863,74034,9547,6795,Tag0,unknown
487,1611472880719,0,-297,-6.525878906250001e-05,48,47,34,1316347,435153,28124,59508,151863,74034,9547,6795,Tag0,unknown
488,1611472880736,0,-273,-5.9985351562500014e-05,48,47,34,1316347,435153,28124,59508,151863,74034,9547,6795,Tag0,unknown
489,1611472880754,0,-850,-0.000186767578125,48,47,34,1316347,435153,28124,59508,151863,74034,9547,6795,Tag0,unknown
490,1611472880774,0,-234,-5.1416015625e-05,48,47,34,1316347,435153,28124,59508,151863,74034,9547,6795,Tag0,unknown
491,1611472880789,0,-223,-4.89990234375e-05,48,47,34,1316347,435153,28124,59508,151863,74034,9547,6795,Tag0,unknown
492,1611472880809,0,-381,-8.371582031250001e-05,48,47,34,1316347,435153,28124,59508,151863,74034,9547,6795,Tag0,unknown
493,1611472880823,0,-375,-8.23974609375e-05,48,47,34,1316347,435153,28124,59508,151863,74034,9547,6795,Tag0,unknown
494,1611472880833,0,-309,-6.78955078125e-05,48,47,34,1316347,435153,28124,59508,151863,74034,9547,6795,Tag0,unknown
495,1611472880843,0,-284,-6.240234375e-05,48,47,34,1316347,435153,28124,59508,151863,74034,9547,6795,Tag0,unknown
496,1611472880855,0,-265,-5.82275390625e-05,48,47,34,1316347,435153,28124,59508,151863,74034,9547,6795,Tag0,unknown
497,1611472880879,0,18,3.955078125e-06,48,47,34,1316347,435153,28124,59508,151863,74034,9547,6795,Tag0,unknown
498,1611472880889,0,33,7.2509765625e-06,48,47,34,1316347,435153,28124,59508,151863,74034,9547,6795,Tag0,unknown
499,1611472880903,0,39,8.5693359375e-06,48,47,34,1316347,435153,28124,59508,151863,74034,9547,6795,Tag0,unknown
500,1611472880921,0,45,9.8876953125e-06,48,47,34,1316347,435153,28124,59508,151863,74034,9547,6795,Tag0,unknown
501,1611472880940,0,51,1.12060546875e-05,44,35,34,916912,148449,16764478,10967,16750376,26733,29576,1977,Tag0,unknown
502,1611472880962,0,55,1.20849609375e-05,44,35,34,916912,148449,16764478,10967,16750376,26733,29576,1977,Tag0,unknown
503,1611472880972,0,55,1.20849609375e-05,44,35,34,916912,148449,16764478,10967,16750376,26733,29576,1977,Tag0,unknown
504,1611472880998,0,58,1.2744140625e-05,44,35,34,916912,148449,16764478,10967,16750376,26733,29576,1977,Tag0,unknown
505,1611472881008,0,59,1.29638671875e-05,44,35,34,916912,148449,16764478,10967,16750376,26733,29576,1977,Tag0,unknown
506,1611472881022,0,60,1.318359375e-05,44,35,34,916912,148449,16764478,10967,16750376,26733,29576,1977,Tag0,unknown
507,1611472881039,0,61,1.34033203125e-05,44,35,34,916912,148449,16764478,10967,16750376,26733,29576,1977,Tag0,unknown
508,1611472881055,0,65,1.42822265625e-05,44,35,34,916912,148449,16764478,10967,16750376,26733,29576,1977,Tag0,unknown
509,1611472881072,0,64,1.40625e-05,44,35,34,916912,148449,16764478,10967,16750376,26733,29576,1977,Tag0,unknown
510,1611472881088,0,65,1.42822265625e-05,44,35,34,916912,148449,16764478,10967,16750376,26733,29576,1977,Tag0,unknown
511,1611472881105,0,65,1.42822265625e-05,44,35,34,916912,148449,16764478,10967,16750376,26733,29576,1977,Tag0,unknown
512,1611472881121,0,64,1.40625e-05,44,35,34,916912,148449,16764478,10967,16750376,26733,29576,1977,Tag0,unknown
513,1611472881139,0,66,1.4501953125e-05,44,35,34,916912,148449,16764478,10967,16750376,26733,29576,1977,Tag0,unknown
514,1611472881154,0,65,1.42822265625e-05,44,35,34,916912,148449,16764478,10967,16750376,26733,29576,1977,Tag0,unknown
515,1611472881178,0,65,1.42822265625e-05,44,35,34,916912,148449,16764478,10967,16750376,26733,29576,1977,Tag0,unknown
516,1611472881189,0,66,1.4501953125e-05,44,35,34,916912,148449,16764478,10967,16750376,26733,29576,1977,Tag0,unknown
517,1611472881212,0,66,1.4501953125e-05,44,35,34,916912,148449,16764478,10967,16750376,26733,29576,1977,Tag0,unknown
518,1611472881223,0,66,1.4501953125e-05,44,35,34,916912,148449,16764478,10967,16750376,26733,29576,1977,Tag0,unknown
519,1611472881239,0,65,1.42822265625e-05,44,35,34,916912,148449,16764478,10967,16750376,26733,29576,1977,Tag0,unknown
520,1611472881256,0,66,1.4501953125e-05,44,35,34,916912,148449,16764478,10967,16750376,26733,29576,1977,Tag0,unknown
521,1611472881272,0,65,1.42822265625e-05,44,35,34,916912,148449,16764478,10967,16750376,26733,29576,1977,Tag0,unknown
522,1611472881289,0,66,1.4501953125e-05,44,35,34,916912,148449,16764478,10967,16750376,26733,29576,1977,Tag0,unknown
523,1611472881305,0,65,1.42822265625e-05,44,35,34,916912,148449,16764478,10967,16750376,26733,29576,1977,Tag0,unknown
524,1611472881324,0,66,1.4501953125e-05,44,35,34,916912,148449,16764478,10967,16750376,26733,29576,1977,Tag0,unknown
525,1611472881338,0,65,1.42822265625e-05,44,35,34,916912,148449,16764478,10967,16750376,26733,29576,1977,Tag0,unknown
526,1611472881357,0,65,1.42822265625e-05,44,35,34,916912,148449,16764478,10967,16750376,26733,29576,1977,Tag0,unknown
527,1611472881372,0,65,1.42822265625e-05,44,35,34,916912,148449,16764478,10967,16750376,26733,29576,1977,Tag0,unknown
528,1611472881382,0,65,1.42822265625e-05,44,35,34,916912,148449,16764478,10967,16750376,26733,29576,1977,Tag0,unknown
529,1611472881397,0,65,1.42822265625e-05,44,35,34,916912,148449,16764478,10967,16750376,26733,29576,1977,Tag0,unknown
530,1611472881407,0,66,1.4501953125e-05,44,35,34,916912,148449,16764478,10967,16750376,26733,29576,1977,Tag0,unknown
531,1611472881431,0,75,1.64794921875e-05,44,35,34,916912,148449,16764478,10967,16750376,26733,29576,1977,Tag0,unknown
532,1611472881441,0,-88,-1.93359375e-05,44,35,34,916912,148449,16764478,10967,16750376,26733,29576,1977,Tag0,unknown
533,1611472881456,0,1791,0.0003935302734375,44,35,34,916912,148449,16764478,10967,16750376,26733,29576,1977,Tag0,unknown
534,1611472881471,0,1791,0.0003935302734375,44,35,34,916912,148449,16764478,10967,16750376,26733,29576,1977,Tag0,unknown
535,1611472881488,0,1791,0.0003935302734375,44,35,34,916912,148449,16764478,10967,16750376,26733,29576,1977,Tag0,unknown
536,1611472881505,0,1791,0.0003935302734375,44,35,34,916912,148449,16764478,10967,16750376,26733,29576,1977,Tag0,unknown
537,1611472881521,0,1521,0.0003342041015625,44,35,34,916912,148449,16764478,10967,16750376,26733,29576,1977,Tag0,unknown
538,1611472881546,0,683,0.0001500732421875,44,35,34,916912,148449,16764478,10967,16750376,26733,29576,1977,Tag0,unknown
539,1611472881559,0,433,9.51416015625e-05,44,35,34,916912,148449,16764478,10967,16750376,26733,29576,1977,Tag0,unknown
540,1611472881573,0,602,0.000132275390625,44,35,34,916912,148449,16764478,10967,16750376,26733,29576,1977,Tag0,unknown
541,1611472881593,0,222,4.8779296875e-05,44,35,34,916912,148449,16764478,10967,16750376,26733,29576,1977,Tag0,unknown
542,1611472881606,0,153,3.3618164062500004e-05,44,35,34,916912,148449,16764478,10967,16750376,26733,29576,1977,Tag0,unknown
543,1611472881623,0,348,7.646484375e-05,44,35,34,916912,148449,16764478,10967,16750376,26733,29576,1977,Tag0,unknown
544,1611472881639,0,-57,-1.25244140625e-05,44,35,34,916912,148449,16764478,10967,16750376,26733,29576,1977,Tag0,unknown
545,1611472881654,0,-61,-1.34033203125e-05,44,35,34,916912,148449,16764478,10967,16750376,26733,29576,1977,Tag0,unknown
546,1611472881678,0,-109,-2.39501953125e-05,44,35,34,916912,148449,16764478,10967,16750376,26733,29576,1977,Tag0,unknown
547,1611472881689,0,-111,-2.43896484375e-05,44,35,34,916912,148449,16764478,10967,16750376,26733,29576,1977,Tag0,unknown
548,1611472881699,0,123,2.70263671875e-05,44,35,34,916912,148449,16764478,10967,16750376,26733,29576,1977,Tag0,unknown
549,1611472881711,0,117,2.57080078125e-05,44,35,34,916912,148449,16764478,10967,16750376,26733,29576,1977,Tag0,unknown
550,1611472881721,0,100,2.197265625e-05,44,35,34,916912,148449,16764478,10967,16750376,26733,29576,1977,Tag0,unknown
551,1611472881741,0,84,1.8457031250000007e-05,44,35,34,916912,148449,16764478,10967,16750376,26733,29576,1977,Tag0,unknown
552,1611472881758,0,84,1.8457031250000007e-05,44,35,34,916912,148449,16764478,10967,16750376,26733,29576,1977,Tag0,unknown
553,1611472881780,0,75,1.64794921875e-05,44,35,34,916912,148449,16764478,10967,16750376,26733,29576,1977,Tag0,unknown
554,1611472881791,0,75,1.64794921875e-05,44,35,34,916912,148449,16764478,10967,16750376,26733,29576,1977,Tag0,unknown
555,1611472881801,0,71,1.56005859375e-05,44,35,34,916912,148449,16764478,10967,16750376,26733,29576,1977,Tag0,unknown
556,1611472881811,0,69,1.51611328125e-05,44,35,34,916912,148449,16764478,10967,16750376,26733,29576,1977,Tag0,unknown
557,1611472881821,0,67,1.4721679687500003e-05,44,35,34,916912,148449,16764478,10967,16750376,26733,29576,1977,Tag0,unknown
558,1611472881838,0,68,1.494140625e-05,44,35,34,916912,148449,16764478,10967,16750376,26733,29576,1977,Tag0,unknown
559,1611472881855,0,67,1.4721679687500003e-05,44,35,34,916912,148449,16764478,10967,16750376,26733,29576,1977,Tag0,unknown
560,1611472881872,0,67,1.4721679687500003e-05,44,35,34,916912,148449,16764478,10967,16750376,26733,29576,1977,Tag0,unknown
561,1611472881891,0,65,1.42822265625e-05,44,35,34,916912,148449,16764478,10967,16750376,26733,29576,1977,Tag0,unknown
562,1611472881949,0,65,1.42822265625e-05,44,35,34,916912,148449,16764478,10967,16750376,26733,29576,1977,Tag0,unknown
563,1611472881964,0,65,1.42822265625e-05,44,35,34,916912,148449,16764478,10967,16750376,26733,29576,1977,Tag0,unknown
564,1611472881975,0,65,1.42822265625e-05,44,35,34,916912,148449,16764478,10967,16750376,26733,29576,1977,Tag0,unknown
565,1611472882047,25,65,1.42822265625e-05,44,35,34,327765,18465,5189,4290,12484,10222,1576,16777198,Tag0,unknown
566,1611472882057,25,65,1.42822265625e-05,44,35,34,327765,18465,5189,4290,12484,10222,1576,16777198,Tag0,unknown
567,1611472882164,25,65,1.42822265625e-05,44,35,34,327765,18465,5189,4290,12484,10222,1576,16777198,Tag0,unknown
568,1611472882185,25,65,1.42822265625e-05,44,35,34,327765,18465,5189,4290,12484,10222,1576,16777198,Tag0,unknown
569,1611472882230,25,64,1.40625e-05,44,35,34,327765,18465,5189,4290,12484,10222,1576,16777198,Tag0,unknown
570,1611472882242,25,65,1.42822265625e-05,44,35,34,327765,18465,5189,4290,12484,10222,1576,16777198,Tag0,unknown
571,1611472882252,25,66,1.4501953125e-05,44,35,34,327765,18465,5189,4290,12484,10222,1576,16777198,Tag0,unknown
572,1611472882264,25,64,1.40625e-05,44,35,34,327765,18465,5189,4290,12484,10222,1576,16777198,Tag0,unknown
573,1611472882300,25,65,1.42822265625e-05,44,35,34,327765,18465,5189,4290,12484,10222,1576,16777198,Tag0,unknown
574,1611472882310,25,64,1.40625e-05,44,35,34,327765,18465,5189,4290,12484,10222,1576,16777198,Tag0,unknown
575,1611472882371,25,64,1.40625e-05,44,35,34,327765,18465,5189,4290,12484,10222,1576,16777198,Tag0,unknown
576,1611472882403,25,65,1.42822265625e-05,44,35,34,327765,18465,5189,4290,12484,10222,1576,16777198,Tag0,unknown
577,1611472882413,25,64,1.40625e-05,44,35,34,327765,18465,5189,4290,12484,10222,1576,16777198,Tag0,unknown
578,1611472882438,25,64,1.40625e-05,44,35,34,327765,18465,5189,4290,12484,10222,1576,16777198,Tag0,unknown
579,1611472882458,25,64,1.40625e-05,44,35,34,327765,18465,5189,4290,12484,10222,1576,16777198,Tag0,unknown
580,1611472882476,25,65,1.42822265625e-05,44,35,34,327765,18465,5189,4290,12484,10222,1576,16777198,Tag0,unknown
581,1611472882486,25,64,1.40625e-05,44,35,34,327765,18465,5189,4290,12484,10222,1576,16777198,Tag0,unknown
582,1611472882496,25,64,1.40625e-05,44,35,34,327765,18465,5189,4290,12484,10222,1576,16777198,Tag0,unknown
583,1611472882506,25,64,1.40625e-05,44,35,34,327765,18465,5189,4290,12484,10222,1576,16777198,Tag0,unknown
584,1611472882516,25,64,1.40625e-05,44,35,34,327765,18465,5189,4290,12484,10222,1576,16777198,Tag0,unknown
585,1611472882526,25,64,1.40625e-05,44,35,34,327765,18465,5189,4290,12484,10222,1576,16777198,Tag0,unknown
586,1611472882547,25,64,1.40625e-05,44,35,34,327765,18465,5189,4290,12484,10222,1576,16777198,Tag0,unknown
587,1611472882557,25,65,1.42822265625e-05,44,35,34,327765,18465,5189,4290,12484,10222,1576,16777198,Tag0,unknown
588,1611472882585,25,65,1.42822265625e-05,44,35,34,327765,18465,5189,4290,12484,10222,1576,16777198,Tag0,unknown
589,1611472882599,25,64,1.40625e-05,44,35,34,327765,18465,5189,4290,12484,10222,1576,16777198,Tag0,unknown
590,1611472882609,25,65,1.42822265625e-05,44,35,34,327765,18465,5189,4290,12484,10222,1576,16777198,Tag0,unknown
591,1611472882619,25,64,1.40625e-05,44,35,34,327765,18465,5189,4290,12484,10222,1576,16777198,Tag0,unknown
592,1611472882629,25,65,1.42822265625e-05,44,35,34,327765,18465,5189,4290,12484,10222,1576,16777198,Tag0,unknown
593,1611472882645,25,65,1.42822265625e-05,44,35,34,327765,18465,5189,4290,12484,10222,1576,16777198,Tag0,unknown
594,1611472882655,25,65,1.42822265625e-05,44,35,34,327765,18465,5189,4290,12484,10222,1576,16777198,Tag0,unknown
595,1611472882666,25,65,1.42822265625e-05,44,35,34,327765,18465,5189,4290,12484,10222,1576,16777198,Tag0,unknown
596,1611472882676,25,64,1.40625e-05,44,35,34,327765,18465,5189,4290,12484,10222,1576,16777198,Tag0,unknown
597,1611472882695,25,66,1.4501953125e-05,44,35,34,327765,18465,5189,4290,12484,10222,1576,16777198,Tag0,unknown
598,1611472882710,25,65,1.42822265625e-05,44,35,34,327765,18465,5189,4290,12484,10222,1576,16777198,Tag0,unknown
599,1611472882727,25,65,1.42822265625e-05,44,35,34,327765,18465,5189,4290,12484,10222,1576,16777198,Tag0,unknown
600,1611472882741,25,65,1.42822265625e-05,44,35,34,327765,18465,5189,4290,12484,10222,1576,16777198,Tag0,unknown
601,1611472882757,25,65,1.42822265625e-05,44,35,34,327765,18465,5189,4290,12484,10222,1576,16777198,Tag0,unknown
602,1611472882776,25,66,1.4501953125e-05,44,35,34,327765,18465,5189,4290,12484,10222,1576,16777198,Tag0,unknown
603,1611472882791,25,65,1.42822265625e-05,44,35,34,327765,18465,5189,4290,12484,10222,1576,16777198,Tag0,unknown
604,1611472882811,25,65,1.42822265625e-05,44,35,34,327765,18465,5189,4290,12484,10222,1576,16777198,Tag0,unknown
605,1611472882825,25,65,1.42822265625e-05,44,35,34,327765,18465,5189,4290,12484,10222,1576,16777198,Tag0,unknown
606,1611472882840,25,64,1.40625e-05,44,35,34,327765,18465,5189,4290,12484,10222,1576,16777198,Tag0,unknown
607,1611472882858,25,65,1.42822265625e-05,44,35,34,327765,18465,5189,4290,12484,10222,1576,16777198,Tag0,unknown
608,1611472882875,25,65,1.42822265625e-05,44,35,34,327765,18465,5189,4290,12484,10222,1576,16777198,Tag0,unknown
609,1611472882896,25,64,1.40625e-05,44,35,34,327765,18465,5189,4290,12484,10222,1576,16777198,Tag0,unknown
610,1611472882912,25,65,1.42822265625e-05,44,35,34,327765,18465,5189,4290,12484,10222,1576,16777198,Tag0,unknown
611,1611472882922,25,65,1.42822265625e-05,44,35,34,327765,18465,5189,4290,12484,10222,1576,16777198,Tag0,unknown
612,1611472882935,25,65,1.42822265625e-05,44,35,34,327765,18465,5189,4290,12484,10222,1576,16777198,Tag0,unknown
613,1611472882978,25,23,5.0537109375e-06,44,35,34,7,0,0,0,0,0,0,0,Tag0,unknown
614,1611472882994,25,23,5.0537109375e-06,44,35,34,7,0,0,0,0,0,0,0,Tag0,unknown
615,1611472883004,25,23,5.0537109375e-06,44,35,34,7,0,0,0,0,0,0,0,Tag0,unknown
616,1611472883017,25,-1924,-0.00042275390625,44,35,34,7,0,0,0,0,0,0,0,Tag0,unknown
617,1611472883037,25,-1618,-0.000355517578125,44,35,34,7,0,0,0,0,0,0,0,Tag0,unknown
618,1611472883047,25,-1370,-0.000301025390625,44,35,34,7,0,0,0,0,0,0,0,Tag0,unknown
619,1611472883060,25,-994,-0.000218408203125,44,35,34,7,0,0,0,0,0,0,0,Tag0,unknown
620,1611472883095,25,-497,-0.0001092041015625,44,35,34,7,0,0,0,0,0,0,0,Tag0,unknown
621,1611472883108,25,-474,-0.000104150390625,44,35,34,7,0,0,0,0,0,0,0,Tag0,unknown
622,1611472883118,25,-337,-7.40478515625e-05,44,35,34,7,0,0,0,0,0,0,0,Tag0,unknown
623,1611472883146,25,-330,-7.2509765625e-05,44,35,34,7,0,0,0,0,0,0,0,Tag0,unknown
624,1611472883159,25,-325,-7.14111328125e-05,44,35,34,7,0,0,0,0,0,0,0,Tag0,unknown
625,1611472883196,25,-277,-6.086425781250001e-05,44,35,34,7,0,0,0,0,0,0,0,Tag0,unknown
626,1611472883213,25,-274,-6.0205078125e-05,44,35,34,7,0,0,0,0,0,0,0,Tag0,unknown
627,1611472883223,25,8,1.7578125e-06,44,35,34,7,0,0,0,0,0,0,0,Tag0,unknown
628,1611472883236,25,37,8.1298828125e-06,44,35,34,7,0,0,0,0,0,0,0,Tag0,unknown
629,1611472883249,25,45,9.8876953125e-06,44,35,34,7,0,0,0,0,0,0,0,Tag0,unknown
630,1611472883270,25,52,1.142578125e-05,44,35,34,7,0,0,0,0,0,0,0,Tag0,unknown
631,1611472883294,25,57,1.25244140625e-05,44,35,34,7,0,0,0,0,0,0,0,Tag0,unknown
632,1611472883310,25,60,1.318359375e-05,44,35,34,7,0,0,0,0,0,0,0,Tag0,unknown
633,1611472883327,25,59,1.29638671875e-05,44,35,34,7,0,0,0,0,0,0,0,Tag0,unknown
634,1611472883344,25,61,1.34033203125e-05,44,35,34,7,0,0,0,0,0,0,0,Tag0,unknown
635,1611472883367,25,65,1.42822265625e-05,44,35,34,7,0,0,0,0,0,0,0,Tag0,unknown
636,1611472883378,25,66,1.4501953125e-05,44,35,34,7,0,0,0,0,0,0,0,Tag0,unknown
637,1611472883404,25,65,1.42822265625e-05,44,35,34,7,0,0,0,0,0,0,0,Tag0,unknown
638,1611472883414,25,68,1.494140625e-05,44,35,34,7,0,0,0,0,0,0,0,Tag0,unknown
639,1611472883426,25,66,1.4501953125e-05,44,35,34,7,0,0,0,0,0,0,0,Tag0,unknown
640,1611472883444,25,66,1.4501953125e-05,44,35,34,7,0,0,0,0,0,0,0,Tag0,unknown
641,1611472883460,25,69,1.51611328125e-05,44,35,34,7,0,0,0,0,0,0,0,Tag0,unknown
642,1611472883481,25,66,1.4501953125e-05,44,35,34,7,0,0,0,0,0,0,0,Tag0,unknown
643,1611472883498,25,67,1.4721679687500003e-05,44,35,34,7,0,0,0,0,0,0,0,Tag0,unknown
644,1611472883516,25,67,1.4721679687500003e-05,44,35,34,7,0,0,0,0,0,0,0,Tag0,unknown
645,1611472883529,25,66,1.4501953125e-05,44,35,34,7,0,0,0,0,0,0,0,Tag0,unknown
646,1611472883539,25,64,1.40625e-05,44,35,34,7,0,0,0,0,0,0,0,Tag0,unknown
647,1611472883551,25,65,1.42822265625e-05,44,35,34,7,0,0,0,0,0,0,0,Tag0,unknown
648,1611472883561,25,68,1.494140625e-05,44,35,34,7,0,0,0,0,0,0,0,Tag0,unknown
649,1611472883590,25,67,1.4721679687500003e-05,44,35,34,7,0,0,0,0,0,0,0,Tag0,unknown
650,1611472883610,25,65,1.42822265625e-05,44,35,34,7,0,0,0,0,0,0,0,Tag0,unknown
651,1611472883620,25,338,7.426757812499999e-05,44,35,34,7,0,0,0,0,0,0,0,Tag0,unknown
652,1611472883631,25,553,0.0001215087890625,44,35,34,7,0,0,0,0,0,0,0,Tag0,unknown
653,1611472883644,25,1791,0.0003935302734375,44,35,34,7,0,0,0,0,0,0,0,Tag0,unknown
654,1611472883661,25,1791,0.0003935302734375,44,35,34,7,0,0,0,0,0,0,0,Tag0,unknown
655,1611472883676,25,1791,0.0003935302734375,44,35,34,7,0,0,0,0,0,0,0,Tag0,unknown
656,1611472883686,25,1851,0.0004067138671875,44,35,34,7,0,0,0,0,0,0,0,Tag0,unknown
657,1611472883699,25,1410,0.000309814453125,44,35,34,7,0,0,0,0,0,0,0,Tag0,unknown
658,1611472883713,25,1607,0.0003531005859375,44,35,34,7,0,0,0,0,0,0,0,Tag0,unknown
659,1611472883723,25,758,0.000166552734375,44,35,34,7,0,0,0,0,0,0,0,Tag0,unknown
660,1611472883733,25,853,0.0001874267578125,44,35,34,7,0,0,0,0,0,0,0,Tag0,unknown
661,1611472883745,25,440,9.66796875e-05,44,35,34,7,0,0,0,0,0,0,0,Tag0,unknown
662,1611472883770,25,211,4.63623046875e-05,44,35,34,7,0,0,0,0,0,0,0,Tag0,unknown
663,1611472883804,25,312,6.85546875e-05,44,35,34,7,0,0,0,0,0,0,0,Tag0,unknown
664,1611472883827,25,-27,-5.932617187500001e-06,44,35,34,7,0,0,0,0,0,0,0,Tag0,unknown
665,1611472883845,25,-92,-2.021484375e-05,44,35,34,7,0,0,0,0,0,0,0,Tag0,unknown
666,1611472883862,25,-99,-2.1752929687500006e-05,44,35,34,7,0,0,0,0,0,0,0,Tag0,unknown
667,1611472883879,25,28,6.15234375e-06,44,35,34,7,0,0,0,0,0,0,0,Tag0,unknown
668,1611472883895,25,66,1.4501953125e-05,44,35,34,7,0,0,0,0,0,0,0,Tag0,unknown
669,1611472883905,25,103,2.26318359375e-05,44,35,34,7,0,0,0,0,0,0,0,Tag0,unknown
670,1611472883915,25,-119,-2.6147460937500007e-05,44,35,34,7,0,0,0,0,0,0,0,Tag0,unknown
671,1611472883930,25,-125,-2.74658203125e-05,44,35,34,7,0,0,0,0,0,0,0,Tag0,unknown
672,1611472883940,51,108,2.373046875e-05,44,35,34,1191595,16774914,29170,18302,21805,13674,4350,1025,Tag0,unknown
673,1611472883954,51,98,2.1533203125e-05,44,35,34,1191595,16774914,29170,18302,21805,13674,4350,1025,Tag0,unknown
674,1611472883964,51,90,1.9775390625e-05,44,35,34,1191595,16774914,29170,18302,21805,13674,4350,1025,Tag0,unknown
675,1611472883989,51,85,1.86767578125e-05,44,35,34,1191595,16774914,29170,18302,21805,13674,4350,1025,Tag0,unknown
676,1611472884010,51,80,1.7578125e-05,44,35,34,1191595,16774914,29170,18302,21805,13674,4350,1025,Tag0,unknown
677,1611472884032,51,71,1.56005859375e-05,44,35,34,1191595,16774914,29170,18302,21805,13674,4350,1025,Tag0,unknown
678,1611472884046,51,70,1.5380859375e-05,44,35,34,1191595,16774914,29170,18302,21805,13674,4350,1025,Tag0,unknown
679,1611472884065,51,-2048,-0.00045,44,35,34,1191595,16774914,29170,18302,21805,13674,4350,1025,Tag0,unknown
680,1611472884087,51,243,5.33935546875e-05,44,35,34,1191595,16774914,29170,18302,21805,13674,4350,1025,Tag0,unknown
681,1611472884097,51,-2048,-0.00045,44,35,34,1191595,16774914,29170,18302,21805,13674,4350,1025,Tag0,unknown
682,1611472884148,51,-2048,-0.00045,44,35,34,1191595,16774914,29170,18302,21805,13674,4350,1025,Tag0,unknown
683,1611472884163,51,-2048,-0.00045,44,35,34,1191595,16774914,29170,18302,21805,13674,4350,1025,Tag0,unknown
684,1611472884173,51,-1518,-0.000333544921875,44,35,34,1191595,16774914,29170,18302,21805,13674,4350,1025,Tag0,unknown
685,1611472884188,51,-1064,-0.0002337890625,44,35,34,1191595,16774914,29170,18302,21805,13674,4350,1025,Tag0,unknown
686,1611472884208,51,-861,-0.0001891845703125,44,35,34,1191595,16774914,29170,18302,21805,13674,4350,1025,Tag0,unknown
687,1611472884229,51,-838,-0.000184130859375,44,35,34,1191595,16774914,29170,18302,21805,13674,4350,1025,Tag0,unknown
688,1611472884239,51,-573,-0.0001259033203125,44,35,34,1191595,16774914,29170,18302,21805,13674,4350,1025,Tag0,unknown
689,1611472884249,51,-373,-8.19580078125e-05,44,35,34,1191595,16774914,29170,18302,21805,13674,4350,1025,Tag0,unknown
690,1611472884268,51,-354,-7.778320312500001e-05,44,35,34,1191595,16774914,29170,18302,21805,13674,4350,1025,Tag0,unknown
691,1611472884279,51,-346,-7.6025390625e-05,44,35,34,1191595,16774914,29170,18302,21805,13674,4350,1025,Tag0,unknown
692,1611472884289,51,-297,-6.525878906250001e-05,44,35,34,1191595,16774914,29170,18302,21805,13674,4350,1025,Tag0,unknown
693,1611472884309,51,1,2.197265625e-07,44,35,34,1191595,16774914,29170,18302,21805,13674,4350,1025,Tag0,unknown
694,1611472884327,51,3,6.591796875e-07,44,35,34,1191595,16774914,29170,18302,21805,13674,4350,1025,Tag0,unknown
695,1611472884337,51,36,7.91015625e-06,44,35,34,1191595,16774914,29170,18302,21805,13674,4350,1025,Tag0,unknown
696,1611472884348,51,39,8.5693359375e-06,44,35,34,1191595,16774914,29170,18302,21805,13674,4350,1025,Tag0,unknown
697,1611472884361,51,40,8.7890625e-06,44,35,34,1191595,16774914,29170,18302,21805,13674,4350,1025,Tag0,unknown
698,1611472884383,51,49,1.07666015625e-05,44,35,34,1191595,16774914,29170,18302,21805,13674,4350,1025,Tag0,unknown
699,1611472884402,51,49,1.07666015625e-05,44,35,34,1191595,16774914,29170,18302,21805,13674,4350,1025,Tag0,unknown
700,1611472884412,51,55,1.20849609375e-05,44,35,34,1191595,16774914,29170,18302,21805,13674,4350,1025,Tag0,unknown
701,1611472884422,51,56,1.23046875e-05,44,35,34,1191595,16774914,29170,18302,21805,13674,4350,1025,Tag0,unknown
702,1611472884462,51,57,1.25244140625e-05,44,35,34,1191595,16774914,29170,18302,21805,13674,4350,1025,Tag0,unknown
703,1611472884478,51,57,1.25244140625e-05,44,35,34,1191595,16774914,29170,18302,21805,13674,4350,1025,Tag0,unknown
704,1611472884488,51,60,1.318359375e-05,44,35,34,1191595,16774914,29170,18302,21805,13674,4350,1025,Tag0,unknown
705,1611472884498,51,62,1.3623046875e-05,44,35,34,1191595,16774914,29170,18302,21805,13674,4350,1025,Tag0,unknown
706,1611472884522,51,61,1.34033203125e-05,44,35,34,1191595,16774914,29170,18302,21805,13674,4350,1025,Tag0,unknown
707,1611472884532,51,64,1.40625e-05,44,35,34,1191595,16774914,29170,18302,21805,13674,4350,1025,Tag0,unknown
708,1611472884545,51,65,1.42822265625e-05,44,35,34,1191595,16774914,29170,18302,21805,13674,4350,1025,Tag0,unknown
709,1611472884582,51,65,1.42822265625e-05,44,35,34,1191595,16774914,29170,18302,21805,13674,4350,1025,Tag0,unknown
710,1611472884595,51,64,1.40625e-05,44,35,34,1191595,16774914,29170,18302,21805,13674,4350,1025,Tag0,unknown
711,1611472884633,51,65,1.42822265625e-05,44,35,34,1191595,16774914,29170,18302,21805,13674,4350,1025,Tag0,unknown
712,1611472884647,51,65,1.42822265625e-05,44,35,34,1191595,16774914,29170,18302,21805,13674,4350,1025,Tag0,unknown
713,1611472884657,51,65,1.42822265625e-05,44,35,34,1191595,16774914,29170,18302,21805,13674,4350,1025,Tag0,unknown
714,1611472884671,51,65,1.42822265625e-05,44,35,34,1191595,16774914,29170,18302,21805,13674,4350,1025,Tag0,unknown
715,1611472884685,51,65,1.42822265625e-05,44,35,34,1191595,16774914,29170,18302,21805,13674,4350,1025,Tag0,unknown
716,1611472884695,51,65,1.42822265625e-05,44,35,34,1191595,16774914,29170,18302,21805,13674,4350,1025,Tag0,unknown
717,1611472884705,51,66,1.4501953125e-05,44,35,34,1191595,16774914,29170,18302,21805,13674,4350,1025,Tag0,unknown
718,1611472884715,51,65,1.42822265625e-05,44,35,34,1191595,16774914,29170,18302,21805,13674,4350,1025,Tag0,unknown
719,1611472884730,51,65,1.42822265625e-05,44,35,34,1191595,16774914,29170,18302,21805,13674,4350,1025,Tag0,unknown
720,1611472884747,51,65,1.42822265625e-05,44,35,34,1191595,16774914,29170,18302,21805,13674,4350,1025,Tag0,unknown
721,1611472884764,51,65,1.42822265625e-05,44,35,34,1191595,16774914,29170,18302,21805,13674,4350,1025,Tag0,unknown
722,1611472884774,51,65,1.42822265625e-05,44,35,34,1191595,16774914,29170,18302,21805,13674,4350,1025,Tag0,unknown
723,1611472884788,51,65,1.42822265625e-05,44,35,34,1191595,16774914,29170,18302,21805,13674,4350,1025,Tag0,unknown
724,1611472884799,51,65,1.42822265625e-05,44,35,34,1191595,16774914,29170,18302,21805,13674,4350,1025,Tag0,unknown
725,1611472884811,51,65,1.42822265625e-05,44,35,34,1191595,16774914,29170,18302,21805,13674,4350,1025,Tag0,unknown
726,1611472884822,51,65,1.42822265625e-05,44,35,34,1191595,16774914,29170,18302,21805,13674,4350,1025,Tag0,unknown
727,1611472884833,51,65,1.42822265625e-05,44,35,34,1191595,16774914,29170,18302,21805,13674,4350,1025,Tag0,unknown
728,1611472884855,51,65,1.42822265625e-05,44,35,34,1191595,16774914,29170,18302,21805,13674,4350,1025,Tag0,unknown
729,1611472884878,51,66,1.4501953125e-05,44,35,34,1191595,16774914,29170,18302,21805,13674,4350,1025,Tag0,unknown
730,1611472884905,51,65,1.42822265625e-05,44,35,34,1191595,16774914,29170,18302,21805,13674,4350,1025,Tag0,unknown
731,1611472884916,51,64,1.40625e-05,44,35,34,1191595,16774914,29170,18302,21805,13674,4350,1025,Tag0,unknown
732,1611472884938,25,65,1.42822265625e-05,44,35,34,428459,13301,28815,27481,4278,5659,5089,4369,Tag0,unknown
733,1611472884948,25,64,1.40625e-05,44,35,34,428459,13301,28815,27481,4278,5659,5089,4369,Tag0,unknown
734,1611472884958,25,65,1.42822265625e-05,44,35,34,428459,13301,28815,27481,4278,5659,5089,4369,Tag0,unknown
735,1611472884977,25,68,1.494140625e-05,44,35,34,428459,13301,28815,27481,4278,5659,5089,4369,Tag0,unknown
736,1611472884997,25,65,1.42822265625e-05,44,35,34,428459,13301,28815,27481,4278,5659,5089,4369,Tag0,unknown
737,1611472885007,25,65,1.42822265625e-05,44,35,34,428459,13301,28815,27481,4278,5659,5089,4369,Tag0,unknown
738,1611472885019,25,66,1.4501953125e-05,44,35,34,428459,13301,28815,27481,4278,5659,5089,4369,Tag0,unknown
739,1611472885031,25,65,1.42822265625e-05,44,35,34,428459,13301,28815,27481,4278,5659,5089,4369,Tag0,unknown
740,1611472885052,25,65,1.42822265625e-05,44,35,34,428459,13301,28815,27481,4278,5659,5089,4369,Tag0,unknown
741,1611472885064,25,65,1.42822265625e-05,44,35,34,428459,13301,28815,27481,4278,5659,5089,4369,Tag0,unknown
742,1611472885074,25,65,1.42822265625e-05,44,35,34,428459,13301,28815,27481,4278,5659,5089,4369,Tag0,unknown
743,1611472885084,25,65,1.42822265625e-05,44,35,34,428459,13301,28815,27481,4278,5659,5089,4369,Tag0,unknown
744,1611472885097,25,65,1.42822265625e-05,44,35,34,428459,13301,28815,27481,4278,5659,5089,4369,Tag0,unknown
745,1611472885112,25,65,1.42822265625e-05,44,35,34,428459,13301,28815,27481,4278,5659,5089,4369,Tag0,unknown
746,1611472885129,25,65,1.42822265625e-05,44,35,34,428459,13301,28815,27481,4278,5659,5089,4369,Tag0,unknown
747,1611472885150,25,65,1.42822265625e-05,44,35,34,428459,13301,28815,27481,4278,5659,5089,4369,Tag0,unknown
748,1611472885160,25,65,1.42822265625e-05,44,35,34,428459,13301,28815,27481,4278,5659,5089,4369,Tag0,unknown
749,1611472885174,25,67,1.4721679687500003e-05,44,35,34,428459,13301,28815,27481,4278,5659,5089,4369,Tag0,unknown
750,1611472885184,25,64,1.40625e-05,44,35,34,428459,13301,28815,27481,4278,5659,5089,4369,Tag0,unknown
751,1611472885199,25,65,1.42822265625e-05,44,35,34,428459,13301,28815,27481,4278,5659,5089,4369,Tag0,unknown
752,1611472885214,25,66,1.4501953125e-05,44,35,34,428459,13301,28815,27481,4278,5659,5089,4369,Tag0,unknown
753,1611472885224,25,66,1.4501953125e-05,44,35,34,428459,13301,28815,27481,4278,5659,5089,4369,Tag0,unknown
754,1611472885237,25,65,1.42822265625e-05,44,35,34,428459,13301,28815,27481,4278,5659,5089,4369,Tag0,unknown
755,1611472885248,25,65,1.42822265625e-05,44,35,34,428459,13301,28815,27481,4278,5659,5089,4369,Tag0,unknown
756,1611472885272,25,65,1.42822265625e-05,44,35,34,428459,13301,28815,27481,4278,5659,5089,4369,Tag0,unknown
757,1611472885282,25,65,1.42822265625e-05,44,35,34,428459,13301,28815,27481,4278,5659,5089,4369,Tag0,unknown
758,1611472885292,25,65,1.42822265625e-05,44,35,34,428459,13301,28815,27481,4278,5659,5089,4369,Tag0,unknown
759,1611472885302,25,66,1.4501953125e-05,44,35,34,428459,13301,28815,27481,4278,5659,5089,4369,Tag0,unknown
760,1611472885316,25,67,1.4721679687500003e-05,44,35,34,428459,13301,28815,27481,4278,5659,5089,4369,Tag0,unknown
761,1611472885331,25,65,1.42822265625e-05,44,35,34,428459,13301,28815,27481,4278,5659,5089,4369,Tag0,unknown
762,1611472885351,25,66,1.4501953125e-05,44,35,34,428459,13301,28815,27481,4278,5659,5089,4369,Tag0,unknown
763,1611472885362,25,66,1.4501953125e-05,44,35,34,428459,13301,28815,27481,4278,5659,5089,4369,Tag0,unknown
764,1611472885372,25,66,1.4501953125e-05,44,35,34,428459,13301,28815,27481,4278,5659,5089,4369,Tag0,unknown
765,1611472885396,25,67,1.4721679687500003e-05,44,35,34,428459,13301,28815,27481,4278,5659,5089,4369,Tag0,unknown
766,1611472885415,25,66,1.4501953125e-05,44,35,34,428459,13301,28815,27481,4278,5659,5089,4369,Tag0,unknown
767,1611472885432,25,66,1.4501953125e-05,44,35,34,428459,13301,28815,27481,4278,5659,5089,4369,Tag0,unknown
768,1611472885442,25,66,1.4501953125e-05,44,35,34,428459,13301,28815,27481,4278,5659,5089,4369,Tag0,unknown
769,1611472885454,25,66,1.4501953125e-05,44,35,34,428459,13301,28815,27481,4278,5659,5089,4369,Tag0,unknown
770,1611472885467,25,66,1.4501953125e-05,44,35,34,428459,13301,28815,27481,4278,5659,5089,4369,Tag0,unknown
771,1611472885491,25,69,1.51611328125e-05,44,35,34,428459,13301,28815,27481,4278,5659,5089,4369,Tag0,unknown
772,1611472885501,25,66,1.4501953125e-05,44,35,34,428459,13301,28815,27481,4278,5659,5089,4369,Tag0,unknown
773,1611472885514,25,73,1.6040039062500002e-05,44,35,34,428459,13301,28815,27481,4278,5659,5089,4369,Tag0,unknown
774,1611472885529,25,67,1.4721679687500003e-05,44,35,34,428459,13301,28815,27481,4278,5659,5089,4369,Tag0,unknown
775,1611472885546,25,77,1.69189453125e-05,44,35,34,428459,13301,28815,27481,4278,5659,5089,4369,Tag0,unknown
776,1611472885563,25,86,1.8896484375000006e-05,44,35,34,428459,13301,28815,27481,4278,5659,5089,4369,Tag0,unknown
777,1611472885580,25,84,1.8457031250000007e-05,44,35,34,428459,13301,28815,27481,4278,5659,5089,4369,Tag0,unknown
778,1611472885590,25,77,1.69189453125e-05,44,35,34,428459,13301,28815,27481,4278,5659,5089,4369,Tag0,unknown
779,1611472885603,25,68,1.494140625e-05,44,35,34,428459,13301,28815,27481,4278,5659,5089,4369,Tag0,unknown
780,1611472885615,25,64,1.40625e-05,44,35,34,428459,13301,28815,27481,4278,5659,5089,4369,Tag0,unknown
781,1611472885633,25,59,1.29638671875e-05,44,35,34,428459,13301,28815,27481,4278,5659,5089,4369,Tag0,unknown
782,1611472885649,25,56,1.23046875e-05,44,35,34,428459,13301,28815,27481,4278,5659,5089,4369,Tag0,unknown
783,1611472885659,25,72,1.58203125e-05,44,35,34,428459,13301,28815,27481,4278,5659,5089,4369,Tag0,unknown
784,1611472885673,25,108,2.373046875e-05,44,35,34,428459,13301,28815,27481,4278,5659,5089,4369,Tag0,unknown
785,1611472885683,25,-119,-2.6147460937500007e-05,44,35,34,428459,13301,28815,27481,4278,5659,5089,4369,Tag0,unknown
786,1611472885706,25,107,2.35107421875e-05,44,35,34,428459,13301,28815,27481,4278,5659,5089,4369,Tag0,unknown
787,1611472885716,25,-119,-2.6147460937500007e-05,44,35,34,428459,13301,28815,27481,4278,5659,5089,4369,Tag0,unknown
788,1611472885730,25,-119,-2.6147460937500007e-05,44,35,34,428459,13301,28815,27481,4278,5659,5089,4369,Tag0,unknown
789,1611472885747,25,-83,-1.82373046875e-05,44,35,34,428459,13301,28815,27481,4278,5659,5089,4369,Tag0,unknown
790,1611472885767,25,-111,-2.43896484375e-05,44,35,34,428459,13301,28815,27481,4278,5659,5089,4369,Tag0,unknown
791,1611472885784,25,25,5.4931640625e-06,44,35,34,428459,13301,28815,27481,4278,5659,5089,4369,Tag0,unknown
792,1611472885799,25,109,2.39501953125e-05,44,35,34,428459,13301,28815,27481,4278,5659,5089,4369,Tag0,unknown
793,1611472885809,25,-127,-2.79052734375e-05,44,35,34,428459,13301,28815,27481,4278,5659,5089,4369,Tag0,unknown
794,1611472885820,25,99,2.1752929687500006e-05,44,35,34,428459,13301,28815,27481,4278,5659,5089,4369,Tag0,unknown
795,1611472885831,25,-86,-1.8896484375000006e-05,44,35,34,428459,13301,28815,27481,4278,5659,5089,4369,Tag0,unknown
796,1611472885853,25,90,1.9775390625e-05,44,35,34,428459,13301,28815,27481,4278,5659,5089,4369,Tag0,unknown
797,1611472885868,25,-74,-1.6259765625e-05,44,35,34,428459,13301,28815,27481,4278,5659,5089,4369,Tag0,unknown
798,1611472885878,25,-125,-2.74658203125e-05,44,35,34,428459,13301,28815,27481,4278,5659,5089,4369,Tag0,unknown
799,1611472885900,25,101,2.21923828125e-05,44,35,34,428459,13301,28815,27481,4278,5659,5089,4369,Tag0,unknown
800,1611472885914,25,33,7.2509765625e-06,44,35,34,428459,13301,28815,27481,4278,5659,5089,4369,Tag0,unknown
801,1611472885936,25,23,5.0537109375e-06,44,35,34,34637,15612,1034,1223,512,633,805,16777109,Tag0,unknown
802,1611472885947,25,23,5.0537109375e-06,44,35,34,34637,15612,1034,1223,512,633,805,16777109,Tag0,unknown
803,1611472885970,25,23,5.0537109375e-06,44,35,34,34637,15612,1034,1223,512,633,805,16777109,Tag0,unknown
804,1611472885983,25,23,5.0537109375e-06,44,35,34,34637,15612,1034,1223,512,633,805,16777109,Tag0,unknown
805,1611472885993,25,1791,0.0003935302734375,44,35,34,34637,15612,1034,1223,512,633,805,16777109,Tag0,unknown
806,1611472886004,25,1610,0.000353759765625,44,35,34,34637,15612,1034,1223,512,633,805,16777109,Tag0,unknown
807,1611472886015,25,1242,0.000272900390625,44,35,34,34637,15612,1034,1223,512,633,805,16777109,Tag0,unknown
808,1611472886039,25,693,0.0001522705078125,44,35,34,34637,15612,1034,1223,512,633,805,16777109,Tag0,unknown
809,1611472886049,25,885,0.0001944580078125,44,35,34,34637,15612,1034,1223,512,633,805,16777109,Tag0,unknown
810,1611472886063,25,197,4.32861328125e-05,44,35,34,34637,15612,1034,1223,512,633,805,16777109,Tag0,unknown
811,1611472886080,25,154,3.3837890625e-05,44,35,34,34637,15612,1034,1223,512,633,805,16777109,Tag0,unknown
812,1611472886098,25,341,7.492675781250003e-05,44,35,34,34637,15612,1034,1223,512,633,805,16777109,Tag0,unknown
813,1611472886114,25,285,6.26220703125e-05,44,35,34,34637,15612,1034,1223,512,633,805,16777109,Tag0,unknown
814,1611472886132,25,256,5.625e-05,44,35,34,34637,15612,1034,1223,512,633,805,16777109,Tag0,unknown
815,1611472886142,25,-75,-1.64794921875e-05,44,35,34,34637,15612,1034,1223,512,633,805,16777109,Tag0,unknown
816,1611472886155,25,-105,-2.30712890625e-05,44,35,34,34637,15612,1034,1223,512,633,805,16777109,Tag0,unknown
817,1611472886166,25,-109,-2.39501953125e-05,44,35,34,34637,15612,1034,1223,512,633,805,16777109,Tag0,unknown
818,1611472886188,25,117,2.57080078125e-05,44,35,34,34637,15612,1034,1223,512,633,805,16777109,Tag0,unknown
819,1611472886199,25,115,2.52685546875e-05,44,35,34,34637,15612,1034,1223,512,633,805,16777109,Tag0,unknown
820,1611472886209,25,91,1.99951171875e-05,44,35,34,34637,15612,1034,1223,512,633,805,16777109,Tag0,unknown
821,1611472886224,25,85,1.86767578125e-05,44,35,34,34637,15612,1034,1223,512,633,805,16777109,Tag0,unknown
822,1611472886234,25,76,1.669921875e-05,44,35,34,34637,15612,1034,1223,512,633,805,16777109,Tag0,unknown
823,1611472886257,25,77,1.69189453125e-05,44,35,34,34637,15612,1034,1223,512,633,805,16777109,Tag0,unknown
824,1611472886267,25,74,1.6259765625e-05,44,35,34,34637,15612,1034,1223,512,633,805,16777109,Tag0,unknown
825,1611472886283,25,71,1.56005859375e-05,44,35,34,34637,15612,1034,1223,512,633,805,16777109,Tag0,unknown
826,1611472886302,25,70,1.5380859375e-05,44,35,34,34637,15612,1034,1223,512,633,805,16777109,Tag0,unknown
827,1611472886317,25,71,1.56005859375e-05,44,35,34,34637,15612,1034,1223,512,633,805,16777109,Tag0,unknown
828,1611472886334,25,69,1.51611328125e-05,44,35,34,34637,15612,1034,1223,512,633,805,16777109,Tag0,unknown
829,1611472886352,25,69,1.51611328125e-05,44,35,34,34637,15612,1034,1223,512,633,805,16777109,Tag0,unknown
830,1611472886362,25,10,2.197265625e-06,44,35,34,34637,15612,1034,1223,512,633,805,16777109,Tag0,unknown
831,1611472886373,25,-322,-7.0751953125e-05,44,35,34,34637,15612,1034,1223,512,633,805,16777109,Tag0,unknown
832,1611472886402,25,-291,-6.39404296875e-05,44,35,34,34637,15612,1034,1223,512,633,805,16777109,Tag0,unknown
833,1611472886414,25,42,9.228515625000003e-06,44,35,34,34637,15612,1034,1223,512,633,805,16777109,Tag0,unknown
834,1611472886436,25,-340,-7.470703125e-05,44,35,34,34637,15612,1034,1223,512,633,805,16777109,Tag0,unknown
835,1611472886449,25,-555,-0.0001219482421875,44,35,34,34637,15612,1034,1223,512,633,805,16777109,Tag0,unknown
836,1611472886459,25,-737,-0.00016193847656250005,44,35,34,34637,15612,1034,1223,512,633,805,16777109,Tag0,unknown
837,1611472886473,25,-940,-0.00020654296875,44,35,34,34637,15612,1034,1223,512,633,805,16777109,Tag0,unknown
838,1611472886485,25,-1225,-0.0002691650390625,44,35,34,34637,15612,1034,1223,512,633,805,16777109,Tag0,unknown
839,1611472886507,25,33,7.2509765625e-06,44,35,34,34637,15612,1034,1223,512,633,805,16777109,Tag0,unknown
840,1611472886518,25,-289,-6.35009765625e-05,44,35,34,34637,15612,1034,1223,512,633,805,16777109,Tag0,unknown
841,1611472886528,25,832,0.0001828125,44,35,34,34637,15612,1034,1223,512,633,805,16777109,Tag0,unknown
842,1611472886538,25,421,9.25048828125e-05,44,35,34,34637,15612,1034,1223,512,633,805,16777109,Tag0,unknown
843,1611472886548,25,571,0.0001254638671875,44,35,34,34637,15612,1034,1223,512,633,805,16777109,Tag0,unknown
844,1611472886564,25,145,3.18603515625e-05,44,35,34,34637,15612,1034,1223,512,633,805,16777109,Tag0,unknown
845,1611472886581,25,376,8.261718750000001e-05,44,35,34,34637,15612,1034,1223,512,633,805,16777109,Tag0,unknown
846,1611472886598,25,-10,-2.197265625e-06,44,35,34,34637,15612,1034,1223,512,633,805,16777109,Tag0,unknown
847,1611472886615,25,35,7.6904296875e-06,44,35,34,34637,15612,1034,1223,512,633,805,16777109,Tag0,unknown
848,1611472886633,25,-197,-4.32861328125e-05,44,35,34,34637,15612,1034,1223,512,633,805,16777109,Tag0,unknown
849,1611472886651,25,-1480,-0.0003251953125,44,35,34,34637,15612,1034,1223,512,633,805,16777109,Tag0,unknown
850,1611472886667,25,-1964,-0.00043154296875,44,35,34,34637,15612,1034,1223,512,633,805,16777109,Tag0,unknown
851,1611472886677,25,-2011,-0.0004418701171875,44,35,34,34637,15612,1034,1223,512,633,805,16777109,Tag0,unknown
852,1611472886687,25,-1738,-0.000381884765625,44,35,34,34637,15612,1034,1223,512,633,805,16777109,Tag0,unknown
853,1611472886702,25,-1222,-0.000268505859375,44,35,34,34637,15612,1034,1223,512,633,805,16777109,Tag0,unknown
854,1611472886721,25,-127,-2.79052734375e-05,44,35,34,34637,15612,1034,1223,512,633,805,16777109,Tag0,unknown
855,1611472886735,25,532,0.00011689453125,44,35,34,34637,15612,1034,1223,512,633,805,16777109,Tag0,unknown
856,1611472886745,25,1237,0.0002718017578125,44,35,34,34637,15612,1034,1223,512,633,805,16777109,Tag0,unknown
857,1611472886756,25,1094,0.000240380859375,44,35,34,34637,15612,1034,1223,512,633,805,16777109,Tag0,unknown
858,1611472886768,25,868,0.00019072265625,44,35,34,34637,15612,1034,1223,512,633,805,16777109,Tag0,unknown
859,1611472886792,25,439,9.64599609375e-05,44,35,34,34637,15612,1034,1223,512,633,805,16777109,Tag0,unknown
860,1611472886802,25,854,0.000187646484375,44,35,34,34637,15612,1034,1223,512,633,805,16777109,Tag0,unknown
861,1611472886815,25,773,0.00016984863281250002,44,35,34,34637,15612,1034,1223,512,633,805,16777109,Tag0,unknown
862,1611472886832,25,600,0.0001318359375,44,35,34,34637,15612,1034,1223,512,633,805,16777109,Tag0,unknown
863,1611472886849,25,588,0.00012919921875,44,35,34,34637,15612,1034,1223,512,633,805,16777109,Tag0,unknown
864,1611472886869,25,145,3.18603515625e-05,44,35,34,34637,15612,1034,1223,512,633,805,16777109,Tag0,unknown
865,1611472886885,25,353,7.75634765625e-05,44,35,34,34637,15612,1034,1223,512,633,805,16777109,Tag0,unknown
866,1611472886895,25,-79,-1.7358398437500006e-05,44,35,34,34637,15612,1034,1223,512,633,805,16777109,Tag0,unknown
867,1611472886947,25,-94,-2.0654296875e-05,44,35,34,34637,15612,1034,1223,512,633,805,16777109,Tag0,unknown
868,1611472886972,25,-92,-2.021484375e-05,44,35,34,34637,15612,1034,1223,512,633,805,16777109,Tag0,unknown
869,1611472886983,51,-75,-1.64794921875e-05,44,35,34,674930,16764961,16744557,31095,16750765,16755714,10012,723,Tag0,unknown
870,1611472887015,51,105,2.30712890625e-05,44,35,34,674930,16764961,16744557,31095,16750765,16755714,10012,723,Tag0,unknown
871,1611472887034,51,-103,-2.26318359375e-05,44,35,34,674930,16764961,16744557,31095,16750765,16755714,10012,723,Tag0,unknown
872,1611472887081,51,121,2.6586914062500006e-05,44,35,34,674930,16764961,16744557,31095,16750765,16755714,10012,723,Tag0,unknown
873,1611472887101,51,115,2.52685546875e-05,44,35,34,674930,16764961,16744557,31095,16750765,16755714,10012,723,Tag0,unknown
874,1611472887149,51,13,2.8564453125e-06,44,35,34,674930,16764961,16744557,31095,16750765,16755714,10012,723,Tag0,unknown
875,1611472887171,51,29,6.3720703125e-06,44,35,34,674930,16764961,16744557,31095,16750765,16755714,10012,723,Tag0,unknown
876,1611472887182,51,-375,-8.23974609375e-05,44,35,34,674930,16764961,16744557,31095,16750765,16755714,10012,723,Tag0,unknown
877,1611472887216,51,-153,-3.3618164062500004e-05,44,35,34,674930,16764961,16744557,31095,16750765,16755714,10012,723,Tag0,unknown
878,1611472887235,51,-283,-6.218261718750001e-05,44,35,34,674930,16764961,16744557,31095,16750765,16755714,10012,723,Tag0,unknown
879,1611472887283,51,-213,-4.68017578125e-05,44,35,34,674930,16764961,16744557,31095,16750765,16755714,10012,723,Tag0,unknown
880,1611472887307,51,-858,-0.000188525390625,44,35,34,674930,16764961,16744557,31095,16750765,16755714,10012,723,Tag0,unknown
881,1611472887317,51,-499,-0.0001096435546875,44,35,34,674930,16764961,16744557,31095,16750765,16755714,10012,723,Tag0,unknown
882,1611472887350,51,-749,-0.0001645751953125,44,35,34,674930,16764961,16744557,31095,16750765,16755714,10012,723,Tag0,unknown
883,1611472887368,51,-1036,-0.00022763671875,44,35,34,674930,16764961,16744557,31095,16750765,16755714,10012,723,Tag0,unknown
884,1611472887418,51,-209,-4.59228515625e-05,44,35,34,674930,16764961,16744557,31095,16750765,16755714,10012,723,Tag0,unknown
885,1611472887435,51,-563,-0.0001237060546875,44,35,34,674930,16764961,16744557,31095,16750765,16755714,10012,723,Tag0,unknown
886,1611472887482,51,-189,-4.15283203125e-05,44,35,34,674930,16764961,16744557,31095,16750765,16755714,10012,723,Tag0,unknown
887,1611472887503,51,-492,-0.00010810546875,44,35,34,674930,16764961,16744557,31095,16750765,16755714,10012,723,Tag0,unknown
888,1611472887513,51,-649,-0.00014260253906250002,44,35,34,674930,16764961,16744557,31095,16750765,16755714,10012,723,Tag0,unknown
889,1611472887523,51,-1202,-0.000264111328125,44,35,34,674930,16764961,16744557,31095,16750765,16755714,10012,723,Tag0,unknown
890,1611472887533,51,-2117,-0.0004651611328125,44,35,34,674930,16764961,16744557,31095,16750765,16755714,10012,723,Tag0,unknown
891,1611472887543,51,3,6.591796875e-07,44,35,34,674930,16764961,16744557,31095,16750765,16755714,10012,723,Tag0,unknown
892,1611472887553,51,266,5.8447265625e-05,44,35,34,674930,16764961,16744557,31095,16750765,16755714,10012,723,Tag0,unknown
893,1611472887563,51,67,1.4721679687500003e-05,44,35,34,674930,16764961,16744557,31095,16750765,16755714,10012,723,Tag0,unknown
894,1611472887583,51,-357,-7.844238281250001e-05,44,35,34,674930,16764961,16744557,31095,16750765,16755714,10012,723,Tag0,unknown
895,1611472887600,51,-275,-6.04248046875e-05,44,35,34,674930,16764961,16744557,31095,16750765,16755714,10012,723,Tag0,unknown
896,1611472887616,51,-261,-5.73486328125e-05,44,35,34,674930,16764961,16744557,31095,16750765,16755714,10012,723,Tag0,unknown
897,1611472887634,51,3,6.591796875e-07,44,35,34,674930,16764961,16744557,31095,16750765,16755714,10012,723,Tag0,unknown
898,1611472887652,51,23,5.0537109375e-06,44,35,34,674930,16764961,16744557,31095,16750765,16755714,10012,723,Tag0,unknown
899,1611472887669,51,39,8.5693359375e-06,44,35,34,674930,16764961,16744557,31095,16750765,16755714,10012,723,Tag0,unknown
900,1611472887686,51,42,9.228515625000003e-06,44,35,34,674930,16764961,16744557,31095,16750765,16755714,10012,723,Tag0,unknown
901,1611472887696,51,259,5.69091796875e-05,44,35,34,674930,16764961,16744557,31095,16750765,16755714,10012,723,Tag0,unknown
902,1611472887719,51,-23,-5.0537109375e-06,44,35,34,674930,16764961,16744557,31095,16750765,16755714,10012,723,Tag0,unknown
903,1611472887739,51,165,3.62548828125e-05,44,35,34,674930,16764961,16744557,31095,16750765,16755714,10012,723,Tag0,unknown
904,1611472887752,51,261,5.73486328125e-05,44,35,34,674930,16764961,16744557,31095,16750765,16755714,10012,723,Tag0,unknown
905,1611472887762,51,507,0.0001114013671875,44,35,34,674930,16764961,16744557,31095,16750765,16755714,10012,723,Tag0,unknown
906,1611472887772,51,582,0.000127880859375,44,35,34,674930,16764961,16744557,31095,16750765,16755714,10012,723,Tag0,unknown
907,1611472887788,51,866,0.000190283203125,44,35,34,674930,16764961,16744557,31095,16750765,16755714,10012,723,Tag0,unknown
908,1611472887812,51,685,0.0001505126953125,44,35,34,674930,16764961,16744557,31095,16750765,16755714,10012,723,Tag0,unknown
909,1611472887834,51,800,0.00017578125,44,35,34,674930,16764961,16744557,31095,16750765,16755714,10012,723,Tag0,unknown
910,1611472887852,51,642,0.00014106445312500002,44,35,34,674930,16764961,16744557,31095,16750765,16755714,10012,723,Tag0,unknown
911,1611472887868,51,599,0.0001316162109375,44,35,34,674930,16764961,16744557,31095,16750765,16755714,10012,723,Tag0,unknown
912,1611472887887,51,212,4.658203125000001e-05,44,35,34,674930,16764961,16744557,31095,16750765,16755714,10012,723,Tag0,unknown
913,1611472887903,51,635,0.0001395263671875,44,35,34,674930,16764961,16744557,31095,16750765,16755714,10012,723,Tag0,unknown
914,1611472887914,51,477,0.0001048095703125,44,35,34,422541,19995,215,2891,4328,2145,825,16777153,Tag0,unknown
915,1611472887929,51,700,0.00015380859375,44,35,34,422541,19995,215,2891,4328,2145,825,16777153,Tag0,unknown
916,1611472887941,51,1077,0.0002366455078125,44,35,34,422541,19995,215,2891,4328,2145,825,16777153,Tag0,unknown
917,1611472887981,51,1067,0.0002344482421875,44,35,34,422541,19995,215,2891,4328,2145,825,16777153,Tag0,unknown
918,1611472888002,51,1181,0.00025949707031250004,44,35,34,422541,19995,215,2891,4328,2145,825,16777153,Tag0,unknown
919,1611472888012,51,1147,0.0002520263671875,44,35,34,422541,19995,215,2891,4328,2145,825,16777153,Tag0,unknown
920,1611472888022,51,797,0.0001751220703125,44,35,34,422541,19995,215,2891,4328,2145,825,16777153,Tag0,unknown
921,1611472888040,51,419,9.20654296875e-05,44,35,34,422541,19995,215,2891,4328,2145,825,16777153,Tag0,unknown
922,1611472888053,51,227,4.98779296875e-05,44,35,34,422541,19995,215,2891,4328,2145,825,16777153,Tag0,unknown
923,1611472888063,51,281,6.17431640625e-05,44,35,34,422541,19995,215,2891,4328,2145,825,16777153,Tag0,unknown
924,1611472888074,51,-188,-4.130859375e-05,44,35,34,422541,19995,215,2891,4328,2145,825,16777153,Tag0,unknown
925,1611472888096,51,-327,-7.18505859375e-05,44,35,34,422541,19995,215,2891,4328,2145,825,16777153,Tag0,unknown
926,1611472888108,51,-587,-0.00012897949218750005,44,35,34,422541,19995,215,2891,4328,2145,825,16777153,Tag0,unknown
927,1611472888118,51,71,1.56005859375e-05,44,35,34,422541,19995,215,2891,4328,2145,825,16777153,Tag0,unknown
928,1611472888128,51,-7,-1.5380859375e-06,44,35,34,422541,19995,215,2891,4328,2145,825,16777153,Tag0,unknown
929,1611472888141,51,-105,-2.30712890625e-05,44,35,34,422541,19995,215,2891,4328,2145,825,16777153,Tag0,unknown
930,1611472888172,51,-632,-0.00013886718750000002,44,35,34,422541,19995,215,2891,4328,2145,825,16777153,Tag0,unknown
931,1611472888187,51,-314,-6.8994140625e-05,44,35,34,422541,19995,215,2891,4328,2145,825,16777153,Tag0,unknown
932,1611472888201,51,-137,-3.01025390625e-05,44,35,34,422541,19995,215,2891,4328,2145,825,16777153,Tag0,unknown
933,1611472888220,51,35,7.6904296875e-06,44,35,34,422541,19995,215,2891,4328,2145,825,16777153,Tag0,unknown
934,1611472888242,51,20,4.39453125e-06,44,35,34,422541,19995,215,2891,4328,2145,825,16777153,Tag0,unknown
935,1611472888257,51,316,6.943359375000001e-05,44,35,34,422541,19995,215,2891,4328,2145,825,16777153,Tag0,unknown
936,1611472888267,51,-75,-1.64794921875e-05,44,35,34,422541,19995,215,2891,4328,2145,825,16777153,Tag0,unknown
937,1611472888277,51,152,3.33984375e-05,44,35,34,422541,19995,215,2891,4328,2145,825,16777153,Tag0,unknown
938,1611472888290,51,305,6.70166015625e-05,44,35,34,422541,19995,215,2891,4328,2145,825,16777153,Tag0,unknown
939,1611472888303,51,-376,-8.261718750000001e-05,44,35,34,422541,19995,215,2891,4328,2145,825,16777153,Tag0,unknown
940,1611472888318,51,50,1.0986328125e-05,44,35,34,422541,19995,215,2891,4328,2145,825,16777153,Tag0,unknown
941,1611472888337,51,11,2.4169921875e-06,44,35,34,422541,19995,215,2891,4328,2145,825,16777153,Tag0,unknown
942,1611472888351,51,-550,-0.000120849609375,44,35,34,422541,19995,215,2891,4328,2145,825,16777153,Tag0,unknown
943,1611472888379,51,-328,-7.207031249999999e-05,44,35,34,422541,19995,215,2891,4328,2145,825,16777153,Tag0,unknown
944,1611472888395,51,-107,-2.35107421875e-05,44,35,34,422541,19995,215,2891,4328,2145,825,16777153,Tag0,unknown
945,1611472888405,51,-344,-7.558593750000001e-05,44,35,34,422541,19995,215,2891,4328,2145,825,16777153,Tag0,unknown
946,1611472888424,51,-389,-8.54736328125e-05,44,35,34,422541,19995,215,2891,4328,2145,825,16777153,Tag0,unknown
947,1611472888437,51,-295,-6.48193359375e-05,44,35,34,422541,19995,215,2891,4328,2145,825,16777153,Tag0,unknown
948,1611472888453,51,-39,-8.5693359375e-06,44,35,34,422541,19995,215,2891,4328,2145,825,16777153,Tag0,unknown
949,1611472888468,51,-27,-5.932617187500001e-06,44,35,34,422541,19995,215,2891,4328,2145,825,16777153,Tag0,unknown
950,1611472888486,51,-312,-6.85546875e-05,44,35,34,422541,19995,215,2891,4328,2145,825,16777153,Tag0,unknown
951,1611472888503,51,-181,-3.97705078125e-05,44,35,34,422541,19995,215,2891,4328,2145,825,16777153,Tag0,unknown
952,1611472888513,51,177,3.889160156250001e-05,44,35,34,422541,19995,215,2891,4328,2145,825,16777153,Tag0,unknown
953,1611472888525,51,561,0.0001232666015625,44,35,34,422541,19995,215,2891,4328,2145,825,16777153,Tag0,unknown
954,1611472888537,51,296,6.50390625e-05,44,35,34,422541,19995,215,2891,4328,2145,825,16777153,Tag0,unknown
955,1611472888559,51,103,2.26318359375e-05,44,35,34,422541,19995,215,2891,4328,2145,825,16777153,Tag0,unknown
956,1611472888574,51,233,5.119628906250001e-05,44,35,34,422541,19995,215,2891,4328,2145,825,16777153,Tag0,unknown
957,1611472888584,51,-269,-5.91064453125e-05,44,35,34,422541,19995,215,2891,4328,2145,825,16777153,Tag0,unknown
958,1611472888596,51,179,3.93310546875e-05,44,35,34,422541,19995,215,2891,4328,2145,825,16777153,Tag0,unknown
959,1611472888608,51,120,2.63671875e-05,44,35,34,422541,19995,215,2891,4328,2145,825,16777153,Tag0,unknown
960,1611472888619,51,11,2.4169921875e-06,44,35,34,422541,19995,215,2891,4328,2145,825,16777153,Tag0,unknown
961,1611472888636,51,-302,-6.6357421875e-05,44,35,34,422541,19995,215,2891,4328,2145,825,16777153,Tag0,unknown
962,1611472888653,51,34,7.470703125e-06,44,35,34,422541,19995,215,2891,4328,2145,825,16777153,Tag0,unknown
963,1611472888671,51,236,5.185546875e-05,44,35,34,422541,19995,215,2891,4328,2145,825,16777153,Tag0,unknown
964,1611472888687,51,199,4.37255859375e-05,44,35,34,422541,19995,215,2891,4328,2145,825,16777153,Tag0,unknown
965,1611472888707,51,157,3.44970703125e-05,44,35,34,422541,19995,215,2891,4328,2145,825,16777153,Tag0,unknown
966,1611472888723,51,211,4.63623046875e-05,44,35,34,422541,19995,215,2891,4328,2145,825,16777153,Tag0,unknown
967,1611472888733,51,-214,-4.7021484375e-05,44,35,34,422541,19995,215,2891,4328,2145,825,16777153,Tag0,unknown
968,1611472888743,51,-393,-8.63525390625e-05,44,35,34,422541,19995,215,2891,4328,2145,825,16777153,Tag0,unknown
969,1611472888755,51,-769,-0.0001689697265625,44,35,34,422541,19995,215,2891,4328,2145,825,16777153,Tag0,unknown
970,1611472888771,51,-354,-7.778320312500001e-05,44,35,34,422541,19995,215,2891,4328,2145,825,16777153,Tag0,unknown
971,1611472888796,51,-628,-0.00013798828125,44,35,34,422541,19995,215,2891,4328,2145,825,16777153,Tag0,unknown
972,1611472888806,51,-236,-5.185546875e-05,44,35,34,422541,19995,215,2891,4328,2145,825,16777153,Tag0,unknown
973,1611472888819,51,-330,-7.2509765625e-05,44,35,34,422541,19995,215,2891,4328,2145,825,16777153,Tag0,unknown
974,1611472888838,51,-51,-1.12060546875e-05,44,35,34,422541,19995,215,2891,4328,2145,825,16777153,Tag0,unknown
975,1611472888865,51,23,5.0537109375e-06,44,35,34,422541,19995,215,2891,4328,2145,825,16777153,Tag0,unknown
976,1611472888875,51,-28,-6.15234375e-06,44,35,34,422541,19995,215,2891,4328,2145,825,16777153,Tag0,unknown
977,1611472888899,51,361,7.93212890625e-05,44,35,34,422541,19995,215,2891,4328,2145,825,16777153,Tag0,unknown
978,1611472888909,51,119,2.6147460937500007e-05,44,35,34,422541,19995,215,2891,4328,2145,825,16777153,Tag0,unknown
979,1611472888927,26,-51,-1.12060546875e-05,44,35,34,16772113,16748835,758,4837,1052,4240,729,16777215,Tag0,unknown
980,1611472888939,26,130,2.8564453125e-05,44,35,34,16772113,16748835,758,4837,1052,4240,729,16777215,Tag0,unknown
981,1611472888953,26,548,0.00012041015625,44,35,34,16772113,16748835,758,4837,1052,4240,729,16777215,Tag0,unknown
982,1611472888973,26,320,7.03125e-05,44,35,34,16772113,16748835,758,4837,1052,4240,729,16777215,Tag0,unknown
983,1611472888988,26,352,7.734375e-05,44,35,34,16772113,16748835,758,4837,1052,4240,729,16777215,Tag0,unknown
984,1611472889006,26,-55,-1.20849609375e-05,44,35,34,16772113,16748835,758,4837,1052,4240,729,16777215,Tag0,unknown
985,1611472889022,26,-259,-5.69091796875e-05,44,35,34,16772113,16748835,758,4837,1052,4240,729,16777215,Tag0,unknown
986,1611472889041,26,37,8.1298828125e-06,44,35,34,16772113,16748835,758,4837,1052,4240,729,16777215,Tag0,unknown
987,1611472889058,26,65,1.42822265625e-05,44,35,34,16772113,16748835,758,4837,1052,4240,729,16777215,Tag0,unknown
988,1611472889068,26,73,1.6040039062500002e-05,44,35,34,16772113,16748835,758,4837,1052,4240,729,16777215,Tag0,unknown
989,1611472889080,26,-51,-1.12060546875e-05,44,35,34,16772113,16748835,758,4837,1052,4240,729,16777215,Tag0,unknown
990,1611472889093,26,-80,-1.7578125e-05,44,35,34,16772113,16748835,758,4837,1052,4240,729,16777215,Tag0,unknown
991,1611472889109,26,260,5.712890625e-05,44,35,34,16772113,16748835,758,4837,1052,4240,729,16777215,Tag0,unknown
992,1611472889125,26,280,6.15234375e-05,44,35,34,16772113,16748835,758,4837,1052,4240,729,16777215,Tag0,unknown
993,1611472889136,26,119,2.6147460937500007e-05,44,35,34,16772113,16748835,758,4837,1052,4240,729,16777215,Tag0,unknown
994,1611472889147,26,17,3.7353515625e-06,44,35,34,16772113,16748835,758,4837,1052,4240,729,16777215,Tag0,unknown
995,1611472889157,26,-75,-1.64794921875e-05,44,35,34,16772113,16748835,758,4837,1052,4240,729,16777215,Tag0,unknown
996,1611472889179,26,-341,-7.492675781250003e-05,44,35,34,16772113,16748835,758,4837,1052,4240,729,16777215,Tag0,unknown
997,1611472889189,26,17,3.7353515625e-06,44,35,34,16772113,16748835,758,4837,1052,4240,729,16777215,Tag0,unknown
998,1611472889204,26,-161,-3.53759765625e-05,44,35,34,16772113,16748835,758,4837,1052,4240,729,16777215,Tag0,unknown
999,1611472889223,26,-312,-6.85546875e-05,44,35,34,16772113,16748835,758,4837,1052,4240,729,16777215,Tag0,unknown
1000,1611472889239,26,88,1.93359375e-05,44,35,34,16772113,16748835,758,4837,1052,4240,729,16777215,Tag0,unknown
1001,1611472889258,26,52,1.142578125e-05,44,35,34,16772113,16748835,758,4837,1052,4240,729,16777215,Tag0,unknown
1002,1611472889274,26,-48,-1.0546875e-05,44,35,34,16772113,16748835,758,4837,1052,4240,729,16777215,Tag0,unknown
1003,1611472889284,26,-56,-1.23046875e-05,44,35,34,16772113,16748835,758,4837,1052,4240,729,16777215,Tag0,unknown
1004,1611472889294,26,-88,-1.93359375e-05,44,35,34,16772113,16748835,758,4837,1052,4240,729,16777215,Tag0,unknown
1005,1611472889306,26,269,5.91064453125e-05,44,35,34,16772113,16748835,758,4837,1052,4240,729,16777215,Tag0,unknown
1006,1611472889326,26,-59,-1.29638671875e-05,44,35,34,16772113,16748835,758,4837,1052,4240,729,16777215,Tag0,unknown
1007,1611472889339,26,35,7.6904296875e-06,44,35,34,16772113,16748835,758,4837,1052,4240,729,16777215,Tag0,unknown
1008,1611472889356,26,-91,-1.99951171875e-05,44,35,34,16772113,16748835,758,4837,1052,4240,729,16777215,Tag0,unknown
1009,1611472889372,26,122,2.6806640625e-05,44,35,34,16772113,16748835,758,4837,1052,4240,729,16777215,Tag0,unknown
1010,1611472889387,26,-112,-2.4609375e-05,44,35,34,16772113,16748835,758,4837,1052,4240,729,16777215,Tag0,unknown
1011,1611472889405,26,43,9.4482421875e-06,44,35,34,16772113,16748835,758,4837,1052,4240,729,16777215,Tag0,unknown
1012,1611472889423,26,118,2.5927734375e-05,44,35,34,16772113,16748835,758,4837,1052,4240,729,16777215,Tag0,unknown
1013,1611472889439,26,36,7.91015625e-06,44,35,34,16772113,16748835,758,4837,1052,4240,729,16777215,Tag0,unknown
1014,1611472889455,26,-348,-7.646484375e-05,44,35,34,16772113,16748835,758,4837,1052,4240,729,16777215,Tag0,unknown
1015,1611472889472,26,-378,-8.3056640625e-05,44,35,34,16772113,16748835,758,4837,1052,4240,729,16777215,Tag0,unknown
1016,1611472889490,26,-324,-7.119140625e-05,44,35,34,16772113,16748835,758,4837,1052,4240,729,16777215,Tag0,unknown
1017,1611472889500,26,-73,-1.6040039062500002e-05,44,35,34,16772113,16748835,758,4837,1052,4240,729,16777215,Tag0,unknown
1018,1611472889515,26,261,5.73486328125e-05,44,35,34,16772113,16748835,758,4837,1052,4240,729,16777215,Tag0,unknown
1019,1611472889525,26,-11,-2.4169921875e-06,44,35,34,16772113,16748835,758,4837,1052,4240,729,16777215,Tag0,unknown
1020,1611472889546,26,-109,-2.39501953125e-05,44,35,34,16772113,16748835,758,4837,1052,4240,729,16777215,Tag0,unknown
1021,1611472889556,26,-77,-1.69189453125e-05,44,35,34,16772113,16748835,758,4837,1052,4240,729,16777215,Tag0,unknown
1022,1611472889570,26,-95,-2.08740234375e-05,44,35,34,16772113,16748835,758,4837,1052,4240,729,16777215,Tag0,unknown
1023,1611472889595,26,-110,-2.4169921875e-05,44,35,34,16772113,16748835,758,4837,1052,4240,729,16777215,Tag0,unknown
1024,1611472889605,26,125,2.74658203125e-05,44,35,34,16772113,16748835,758,4837,1052,4240,729,16777215,Tag0,unknown
1025,1611472889628,26,113,2.48291015625e-05,44,35,34,16772113,16748835,758,4837,1052,4240,729,16777215,Tag0,unknown
1026,1611472889638,26,97,2.13134765625e-05,44,35,34,16772113,16748835,758,4837,1052,4240,729,16777215,Tag0,unknown
1027,1611472889648,26,90,1.9775390625e-05,44,35,34,16772113,16748835,758,4837,1052,4240,729,16777215,Tag0,unknown
1028,1611472889660,26,83,1.82373046875e-05,44,35,34,16772113,16748835,758,4837,1052,4240,729,16777215,Tag0,unknown
1029,1611472889670,26,81,1.77978515625e-05,44,35,34,16772113,16748835,758,4837,1052,4240,729,16777215,Tag0,unknown
1030,1611472889692,26,75,1.64794921875e-05,44,35,34,16772113,16748835,758,4837,1052,4240,729,16777215,Tag0,unknown
1031,1611472889704,26,77,1.69189453125e-05,44,35,34,16772113,16748835,758,4837,1052,4240,729,16777215,Tag0,unknown
1032,1611472889740,26,70,1.5380859375e-05,44,35,34,16772113,16748835,758,4837,1052,4240,729,16777215,Tag0,unknown
1033,1611472889758,26,69,1.51611328125e-05,44,35,34,16772113,16748835,758,4837,1052,4240,729,16777215,Tag0,unknown
1034,1611472889768,26,70,1.5380859375e-05,44,35,34,16772113,16748835,758,4837,1052,4240,729,16777215,Tag0,unknown
1035,1611472889780,26,68,1.494140625e-05,44,35,34,16772113,16748835,758,4837,1052,4240,729,16777215,Tag0,unknown
1036,1611472889790,26,65,1.42822265625e-05,44,35,34,16772113,16748835,758,4837,1052,4240,729,16777215,Tag0,unknown
1037,1611472889813,26,-307,-6.74560546875e-05,44,35,34,16772113,16748835,758,4837,1052,4240,729,16777215,Tag0,unknown
1038,1611472889824,26,-267,-5.86669921875e-05,44,35,34,16772113,16748835,758,4837,1052,4240,729,16777215,Tag0,unknown
1039,1611472889840,26,-1027,-0.00022565917968750006,44,35,34,16772113,16748835,758,4837,1052,4240,729,16777215,Tag0,unknown
1040,1611472889856,26,-641,-0.0001408447265625,44,35,34,16772113,16748835,758,4837,1052,4240,729,16777215,Tag0,unknown
1041,1611472889871,26,-195,-4.28466796875e-05,44,35,34,16772113,16748835,758,4837,1052,4240,729,16777215,Tag0,unknown
1042,1611472889889,26,259,5.69091796875e-05,44,35,34,16772113,16748835,758,4837,1052,4240,729,16777215,Tag0,unknown
1043,1611472889907,26,308,6.767578125e-05,44,35,34,16772113,16748835,758,4837,1052,4240,729,16777215,Tag0,unknown
1044,1611472889932,0,324,7.119140625e-05,34,24,34,1095336,223309,13471,16746312,16747155,27527,14742,3507,Tag0,unknown
1045,1611472889945,0,256,5.625e-05,34,24,34,1095336,223309,13471,16746312,16747155,27527,14742,3507,Tag0,unknown
1046,1611472889956,0,-59,-1.29638671875e-05,34,24,34,1095336,223309,13471,16746312,16747155,27527,14742,3507,Tag0,unknown
1047,1611472889971,0,-91,-1.99951171875e-05,34,24,34,1095336,223309,13471,16746312,16747155,27527,14742,3507,Tag0,unknown
1048,1611472889989,0,-127,-2.79052734375e-05,34,24,34,1095336,223309,13471,16746312,16747155,27527,14742,3507,Tag0,unknown
1049,1611472890007,0,125,2.74658203125e-05,34,24,34,1095336,223309,13471,16746312,16747155,27527,14742,3507,Tag0,unknown
1050,1611472890023,0,109,2.39501953125e-05,34,24,34,1095336,223309,13471,16746312,16747155,27527,14742,3507,Tag0,unknown
1051,1611472890033,0,90,1.9775390625e-05,34,24,34,1095336,223309,13471,16746312,16747155,27527,14742,3507,Tag0,unknown
1052,1611472890043,0,89,1.95556640625e-05,34,24,34,1095336,223309,13471,16746312,16747155,27527,14742,3507,Tag0,unknown
1053,1611472890057,0,87,1.91162109375e-05,34,24,34,1095336,223309,13471,16746312,16747155,27527,14742,3507,Tag0,unknown
1054,1611472890075,0,-353,-7.75634765625e-05,34,24,34,1095336,223309,13471,16746312,16747155,27527,14742,3507,Tag0,unknown
1055,1611472890093,0,-2048,-0.00045,34,24,34,1095336,223309,13471,16746312,16747155,27527,14742,3507,Tag0,unknown
1056,1611472890114,0,-2048,-0.00045,34,24,34,1095336,223309,13471,16746312,16747155,27527,14742,3507,Tag0,unknown
1057,1611472890124,0,-2048,-0.00045,34,24,34,1095336,223309,13471,16746312,16747155,27527,14742,3507,Tag0,unknown
1058,1611472890148,0,-1722,-0.000378369140625,34,24,34,1095336,223309,13471,16746312,16747155,27527,14742,3507,Tag0,unknown
1059,1611472890160,0,-1913,-0.0004203369140625,34,24,34,1095336,223309,13471,16746312,16747155,27527,14742,3507,Tag0,unknown
1060,1611472890170,0,-996,-0.00021884765625,34,24,34,1095336,223309,13471,16746312,16747155,27527,14742,3507,Tag0,unknown
1061,1611472890180,0,-1041,-0.0002287353515625,34,24,34,1095336,223309,13471,16746312,16747155,27527,14742,3507,Tag0,unknown
1062,1611472890190,0,-893,-0.0001962158203125,34,24,34,1095336,223309,13471,16746312,16747155,27527,14742,3507,Tag0,unknown
1063,1611472890205,0,-429,-9.42626953125e-05,34,24,34,1095336,223309,13471,16746312,16747155,27527,14742,3507,Tag0,unknown
1064,1611472890222,0,-635,-0.0001395263671875,34,24,34,1095336,223309,13471,16746312,16747155,27527,14742,3507,Tag0,unknown
1065,1611472890238,0,-581,-0.0001276611328125,34,24,34,1095336,223309,13471,16746312,16747155,27527,14742,3507,Tag0,unknown
1066,1611472890257,0,-374,-8.2177734375e-05,34,24,34,1095336,223309,13471,16746312,16747155,27527,14742,3507,Tag0,unknown
1067,1611472890273,0,-365,-8.02001953125e-05,34,24,34,1095336,223309,13471,16746312,16747155,27527,14742,3507,Tag0,unknown
1068,1611472890293,0,-301,-6.613769531250001e-05,34,24,34,1095336,223309,13471,16746312,16747155,27527,14742,3507,Tag0,unknown
1069,1611472890309,0,-291,-6.39404296875e-05,34,24,34,1095336,223309,13471,16746312,16747155,27527,14742,3507,Tag0,unknown
1070,1611472890319,0,9,1.9775390625e-06,34,24,34,1095336,223309,13471,16746312,16747155,27527,14742,3507,Tag0,unknown
1071,1611472890330,0,21,4.614257812500002e-06,34,24,34,1095336,223309,13471,16746312,16747155,27527,14742,3507,Tag0,unknown
1072,1611472890340,0,32,7.03125e-06,34,24,34,1095336,223309,13471,16746312,16747155,27527,14742,3507,Tag0,unknown
1073,1611472890363,0,49,1.07666015625e-05,34,24,34,1095336,223309,13471,16746312,16747155,27527,14742,3507,Tag0,unknown
1074,1611472890375,0,48,1.0546875e-05,34,24,34,1095336,223309,13471,16746312,16747155,27527,14742,3507,Tag0,unknown
1075,1611472890390,0,49,1.07666015625e-05,34,24,34,1095336,223309,13471,16746312,16747155,27527,14742,3507,Tag0,unknown
1076,1611472890409,0,52,1.142578125e-05,34,24,34,1095336,223309,13471,16746312,16747155,27527,14742,3507,Tag0,unknown
1077,1611472890424,0,55,1.20849609375e-05,34,24,34,1095336,223309,13471,16746312,16747155,27527,14742,3507,Tag0,unknown
1078,1611472890442,0,57,1.25244140625e-05,34,24,34,1095336,223309,13471,16746312,16747155,27527,14742,3507,Tag0,unknown
1079,1611472890458,0,57,1.25244140625e-05,34,24,34,1095336,223309,13471,16746312,16747155,27527,14742,3507,Tag0,unknown
1080,1611472890468,0,60,1.318359375e-05,34,24,34,1095336,223309,13471,16746312,16747155,27527,14742,3507,Tag0,unknown
1081,1611472890491,0,60,1.318359375e-05,34,24,34,1095336,223309,13471,16746312,16747155,27527,14742,3507,Tag0,unknown
1082,1611472890510,0,65,1.42822265625e-05,34,24,34,1095336,223309,13471,16746312,16747155,27527,14742,3507,Tag0,unknown
