,timestampMs,poorSignal,eegRawValue,eegRawValueVolts,attention,meditation,blinkStrength,delta,theta,alphaLow,alphaHigh,betaLow,betaHigh,gammaLow,gammaMid,tagEvent,location
0,1611472160453,26,-775,-0.0001702880859375,0,0,70,485125,91363,16755240,16774965,16752347,96025,10091,2533,Tag0,unknown
1,1611472160479,26,771,0.0001694091796875,0,0,70,485125,91363,16755240,16774965,16752347,96025,10091,2533,Tag0,unknown
2,1611472160503,26,-341,-7.492675781250003e-05,0,0,70,485125,91363,16755240,16774965,16752347,96025,10091,2533,Tag0,unknown
3,1611472160521,26,579,0.0001272216796875,0,0,70,485125,91363,16755240,16774965,16752347,96025,10091,2533,Tag0,unknown
4,1611472160537,26,561,0.0001232666015625,0,0,70,485125,91363,16755240,16774965,16752347,96025,10091,2533,Tag0,unknown
5,1611472160556,26,307,6.74560546875e-05,0,0,70,485125,91363,16755240,16774965,16752347,96025,10091,2533,Tag0,unknown
6,1611472160572,26,305,6.70166015625e-05,0,0,70,485125,91363,16755240,16774965,16752347,96025,10091,2533,Tag0,unknown
7,1611472160594,26,-183,-4.02099609375e-05,0,0,70,1713778,98275,57517,479640,266045,270774,16768849,16774888,Tag0,unknown
8,1611472160604,26,-788,-0.00017314453125,0,0,70,1713778,98275,57517,479640,266045,270774,16768849,16774888,Tag0,unknown
9,1611472160631,26,233,5.119628906250001e-05,0,0,70,1713778,98275,57517,479640,266045,270774,16768849,16774888,Tag0,unknown
10,1611472160665,26,-141,-3.09814453125e-05,0,0,70,1713778,98275,57517,479640,266045,270774,16768849,16774888,Tag0,unknown
11,1611472160675,26,-387,-8.50341796875e-05,0,0,70,1713778,98275,57517,479640,266045,270774,16768849,16774888,Tag0,unknown
12,1611472160688,26,-491,-0.0001078857421875,0,0,70,1713778,98275,57517,479640,266045,270774,16768849,16774888,Tag0,unknown
13,1611472160707,26,500,0.00010986328125,0,0,70,1713778,98275,57517,479640,266045,270774,16768849,16774888,Tag0,unknown
14,1611472160723,26,-770,-0.000169189453125,0,0,70,1713778,98275,57517,479640,266045,270774,16768849,16774888,Tag0,unknown
15,1611472160741,26,-520,-0.0001142578125,0,0,70,1713778,98275,57517,479640,266045,270774,16768849,16774888,Tag0,unknown
16,1611472160755,26,396,8.701171875000001e-05,0,0,70,1713778,98275,57517,479640,266045,270774,16768849,16774888,Tag0,unknown
17,1611472160779,26,-637,-0.0001399658203125,0,0,70,1713778,98275,57517,479640,266045,270774,16768849,16774888,Tag0,unknown
18,1611472160789,26,-418,-9.1845703125e-05,0,0,70,1713778,98275,57517,479640,266045,270774,16768849,16774888,Tag0,unknown
19,1611472160814,26,-211,-4.63623046875e-05,0,0,70,1713778,98275,57517,479640,266045,270774,16768849,16774888,Tag0,unknown
20,1611472160824,26,-499,-0.0001096435546875,0,0,70,1713778,98275,57517,479640,266045,270774,16768849,16774888,Tag0,unknown
21,1611472160837,26,636,0.00013974609375,0,0,70,1713778,98275,57517,479640,266045,270774,16768849,16774888,Tag0,unknown
22,1611472160856,26,-146,-3.2080078125000004e-05,0,0,70,1713778,98275,57517,479640,266045,270774,16768849,16774888,Tag0,unknown
23,1611472160872,26,277,6.086425781250001e-05,0,0,70,1713778,98275,57517,479640,266045,270774,16768849,16774888,Tag0,unknown
24,1611472160889,26,-27,-5.932617187500001e-06,0,0,70,1713778,98275,57517,479640,266045,270774,16768849,16774888,Tag0,unknown
25,1611472160906,26,794,0.000174462890625,0,0,70,1713778,98275,57517,479640,266045,270774,16768849,16774888,Tag0,unknown
26,1611472160924,26,-504,-0.0001107421875,0,0,70,1713778,98275,57517,479640,266045,270774,16768849,16774888,Tag0,unknown
27,1611472160940,26,329,7.229003906250001e-05,0,0,70,1713778,98275,57517,479640,266045,270774,16768849,16774888,Tag0,unknown
28,1611472160958,26,203,4.4604492187500014e-05,0,0,70,1713778,98275,57517,479640,266045,270774,16768849,16774888,Tag0,unknown
29,1611472160975,26,-27,-5.932617187500001e-06,0,0,70,1713778,98275,57517,479640,266045,270774,16768849,16774888,Tag0,unknown
30,1611472160985,26,-450,-9.8876953125e-05,0,0,70,1713778,98275,57517,479640,266045,270774,16768849,16774888,Tag0,unknown
31,1611472160998,26,-533,-0.0001171142578125,0,0,70,1713778,98275,57517,479640,266045,270774,16768849,16774888,Tag0,unknown
32,1611472161008,26,421,9.25048828125e-05,0,0,70,1713778,98275,57517,479640,266045,270774,16768849,16774888,Tag0,unknown
33,1611472161031,26,557,0.0001223876953125,0,0,70,1713778,98275,57517,479640,266045,270774,16768849,16774888,Tag0,unknown
34,1611472161041,26,-132,-2.900390625e-05,0,0,70,1713778,98275,57517,479640,266045,270774,16768849,16774888,Tag0,unknown
35,1611472161054,26,266,5.8447265625e-05,0,0,70,1713778,98275,57517,479640,266045,270774,16768849,16774888,Tag0,unknown
36,1611472161072,26,471,0.0001034912109375,0,0,70,1713778,98275,57517,479640,266045,270774,16768849,16774888,Tag0,unknown
37,1611472161089,26,-210,-4.6142578125e-05,0,0,70,1713778,98275,57517,479640,266045,270774,16768849,16774888,Tag0,unknown
38,1611472161114,26,264,5.80078125e-05,0,0,70,1713778,98275,57517,479640,266045,270774,16768849,16774888,Tag0,unknown
39,1611472161125,26,-325,-7.14111328125e-05,0,0,70,1713778,98275,57517,479640,266045,270774,16768849,16774888,Tag0,unknown
40,1611472161136,26,-436,-9.580078125e-05,0,0,70,1713778,98275,57517,479640,266045,270774,16768849,16774888,Tag0,unknown
41,1611472161149,26,-265,-5.82275390625e-05,0,0,70,1713778,98275,57517,479640,266045,270774,16768849,16774888,Tag0,unknown
42,1611472161164,26,33,7.2509765625e-06,0,0,70,1713778,98275,57517,479640,266045,270774,16768849,16774888,Tag0,unknown
43,1611472161178,26,-243,-5.33935546875e-05,0,0,70,1713778,98275,57517,479640,266045,270774,16768849,16774888,Tag0,unknown
44,1611472161190,26,133,2.92236328125e-05,0,0,70,1713778,98275,57517,479640,266045,270774,16768849,16774888,Tag0,unknown
45,1611472161200,26,268,5.888671875000001e-05,0,0,70,1713778,98275,57517,479640,266045,270774,16768849,16774888,Tag0,unknown
46,1611472161215,26,146,3.2080078125000004e-05,0,0,70,1713778,98275,57517,479640,266045,270774,16768849,16774888,Tag0,unknown
47,1611472161248,26,-595,-0.0001307373046875,0,0,70,1713778,98275,57517,479640,266045,270774,16768849,16774888,Tag0,unknown
48,1611472161258,26,387,8.50341796875e-05,0,0,70,1713778,98275,57517,479640,266045,270774,16768849,16774888,Tag0,unknown
49,1611472161272,26,35,7.6904296875e-06,0,0,70,1713778,98275,57517,479640,266045,270774,16768849,16774888,Tag0,unknown
50,1611472161290,26,452,9.931640625e-05,0,0,70,1713778,98275,57517,479640,266045,270774,16768849,16774888,Tag0,unknown
51,1611472161309,26,-55,-1.20849609375e-05,0,0,70,1713778,98275,57517,479640,266045,270774,16768849,16774888,Tag0,unknown
52,1611472161325,26,-337,-7.40478515625e-05,0,0,70,1713778,98275,57517,479640,266045,270774,16768849,16774888,Tag0,unknown
53,1611472161340,26,-373,-8.19580078125e-05,0,0,70,1713778,98275,57517,479640,266045,270774,16768849,16774888,Tag0,unknown
54,1611472161350,26,827,0.0001817138671875,0,0,70,1713778,98275,57517,479640,266045,270774,16768849,16774888,Tag0,unknown
55,1611472161361,26,-417,-9.16259765625e-05,0,0,70,1713778,98275,57517,479640,266045,270774,16768849,16774888,Tag0,unknown
56,1611472161373,26,-46,-1.0107421875e-05,0,0,70,1713778,98275,57517,479640,266045,270774,16768849,16774888,Tag0,unknown
57,1611472161395,26,-173,-3.80126953125e-05,0,0,70,1713778,98275,57517,479640,266045,270774,16768849,16774888,Tag0,unknown
58,1611472161409,26,506,0.000111181640625,0,0,70,1713778,98275,57517,479640,266045,270774,16768849,16774888,Tag0,unknown
59,1611472161419,26,-467,-0.0001026123046875,0,0,70,1713778,98275,57517,479640,266045,270774,16768849,16774888,Tag0,unknown
60,1611472161429,26,499,0.0001096435546875,0,0,70,1713778,98275,57517,479640,266045,270774,16768849,16774888,Tag0,unknown
61,1611472161444,26,-517,-0.0001135986328125,0,0,70,1713778,98275,57517,479640,266045,270774,16768849,16774888,Tag0,unknown
62,1611472161458,26,469,0.0001030517578125,0,0,70,1713778,98275,57517,479640,266045,270774,16768849,16774888,Tag0,unknown
63,1611472161475,26,-11,-2.4169921875e-06,0,0,70,1713778,98275,57517,479640,266045,270774,16768849,16774888,Tag0,unknown
64,1611472161488,26,-404,-8.876953125000001e-05,0,0,70,1713778,98275,57517,479640,266045,270774,16768849,16774888,Tag0,unknown
65,1611472161506,26,-471,-0.0001034912109375,0,0,70,1713778,98275,57517,479640,266045,270774,16768849,16774888,Tag0,unknown
66,1611472161521,26,-15,-3.2958984375e-06,0,0,70,1713778,98275,57517,479640,266045,270774,16768849,16774888,Tag0,unknown
67,1611472161540,26,514,0.000112939453125,0,0,70,1713778,98275,57517,479640,266045,270774,16768849,16774888,Tag0,unknown
68,1611472161556,26,59,1.29638671875e-05,0,0,70,1713778,98275,57517,479640,266045,270774,16768849,16774888,Tag0,unknown
69,1611472161567,26,520,0.0001142578125,0,0,70,1244130,698686,96972,36198,74342,159403,39378,10487,Tag0,unknown
70,1611472161579,26,262,5.7568359375e-05,0,0,70,1244130,698686,96972,36198,74342,159403,39378,10487,Tag0,unknown
71,1611472161590,26,-809,-0.0001777587890625,0,0,70,1244130,698686,96972,36198,74342,159403,39378,10487,Tag0,unknown
72,1611472161607,26,525,0.0001153564453125,0,0,70,1244130,698686,96972,36198,74342,159403,39378,10487,Tag0,unknown
73,1611472161626,26,828,0.00018193359375,0,0,70,1244130,698686,96972,36198,74342,159403,39378,10487,Tag0,unknown
74,1611472161639,26,-228,-5.009765625000001e-05,0,0,70,1244130,698686,96972,36198,74342,159403,39378,10487,Tag0,unknown
75,1611472161659,26,85,1.86767578125e-05,0,0,70,1244130,698686,96972,36198,74342,159403,39378,10487,Tag0,unknown
76,1611472161671,26,-440,-9.66796875e-05,0,0,70,1244130,698686,96972,36198,74342,159403,39378,10487,Tag0,unknown
77,1611472161700,26,-41,-9.0087890625e-06,0,0,70,1244130,698686,96972,36198,74342,159403,39378,10487,Tag0,unknown
78,1611472161710,26,-55,-1.20849609375e-05,0,0,70,1244130,698686,96972,36198,74342,159403,39378,10487,Tag0,unknown
79,1611472161722,26,317,6.96533203125e-05,0,0,70,1244130,698686,96972,36198,74342,159403,39378,10487,Tag0,unknown
80,1611472161741,26,-599,-0.0001316162109375,0,0,70,1244130,698686,96972,36198,74342,159403,39378,10487,Tag0,unknown
81,1611472161756,26,310,6.8115234375e-05,0,0,70,1244130,698686,96972,36198,74342,159403,39378,10487,Tag0,unknown
82,1611472161775,26,121,2.6586914062500006e-05,0,0,70,1244130,698686,96972,36198,74342,159403,39378,10487,Tag0,unknown
83,1611472161792,26,-370,-8.1298828125e-05,0,0,70,1244130,698686,96972,36198,74342,159403,39378,10487,Tag0,unknown
84,1611472161802,26,-461,-0.0001012939453125,0,0,70,1244130,698686,96972,36198,74342,159403,39378,10487,Tag0,unknown
85,1611472161816,26,400,8.7890625e-05,0,0,70,1244130,698686,96972,36198,74342,159403,39378,10487,Tag0,unknown
86,1611472161827,26,-193,-4.240722656250001e-05,0,0,70,1244130,698686,96972,36198,74342,159403,39378,10487,Tag0,unknown
87,1611472161849,26,146,3.2080078125000004e-05,0,0,70,1244130,698686,96972,36198,74342,159403,39378,10487,Tag0,unknown
88,1611472161859,26,-31,-6.8115234375e-06,0,0,70,1244130,698686,96972,36198,74342,159403,39378,10487,Tag0,unknown
89,1611472161877,26,337,7.40478515625e-05,0,0,70,1244130,698686,96972,36198,74342,159403,39378,10487,Tag0,unknown
90,1611472161892,26,794,0.000174462890625,0,0,70,1244130,698686,96972,36198,74342,159403,39378,10487,Tag0,unknown
91,1611472161906,26,-563,-0.0001237060546875,0,0,70,1244130,698686,96972,36198,74342,159403,39378,10487,Tag0,unknown
92,1611472161960,26,-498,-0.000109423828125,0,0,70,1244130,698686,96972,36198,74342,159403,39378,10487,Tag0,unknown
93,1611472161979,26,214,4.7021484375e-05,0,0,70,1244130,698686,96972,36198,74342,159403,39378,10487,Tag0,unknown
94,1611472161989,26,-28,-6.15234375e-06,0,0,70,1244130,698686,96972,36198,74342,159403,39378,10487,Tag0,unknown
95,1611472162027,26,-75,-1.64794921875e-05,0,0,70,1244130,698686,96972,36198,74342,159403,39378,10487,Tag0,unknown
96,1611472162041,26,509,0.0001118408203125,0,0,70,1244130,698686,96972,36198,74342,159403,39378,10487,Tag0,unknown
97,1611472162094,26,-347,-7.62451171875e-05,0,0,70,1244130,698686,96972,36198,74342,159403,39378,10487,Tag0,unknown
98,1611472162111,26,-235,-5.16357421875e-05,0,0,70,1244130,698686,96972,36198,74342,159403,39378,10487,Tag0,unknown
99,1611472162121,26,-13,-2.8564453125e-06,0,0,70,1244130,698686,96972,36198,74342,159403,39378,10487,Tag0,unknown
100,1611472162239,26,-536,-0.0001177734375,0,0,70,1244130,698686,96972,36198,74342,159403,39378,10487,Tag0,unknown
101,1611472162259,26,236,5.185546875e-05,0,0,70,1244130,698686,96972,36198,74342,159403,39378,10487,Tag0,unknown
102,1611472162302,26,276,6.064453125e-05,0,0,70,1244130,698686,96972,36198,74342,159403,39378,10487,Tag0,unknown
103,1611472162325,26,-584,-0.00012832031250000002,0,0,70,1244130,698686,96972,36198,74342,159403,39378,10487,Tag0,unknown
104,1611472162372,26,-25,-5.4931640625e-06,0,0,70,1244130,698686,96972,36198,74342,159403,39378,10487,Tag0,unknown
105,1611472162396,26,-145,-3.18603515625e-05,0,0,70,1244130,698686,96972,36198,74342,159403,39378,10487,Tag0,unknown
106,1611472162406,26,-282,-6.1962890625e-05,0,0,70,1244130,698686,96972,36198,74342,159403,39378,10487,Tag0,unknown
107,1611472162441,26,786,0.000172705078125,0,0,70,1244130,698686,96972,36198,74342,159403,39378,10487,Tag0,unknown
108,1611472162458,26,34,7.470703125e-06,0,0,70,1244130,698686,96972,36198,74342,159403,39378,10487,Tag0,unknown
109,1611472162468,26,517,0.0001135986328125,0,0,70,1244130,698686,96972,36198,74342,159403,39378,10487,Tag0,unknown
110,1611472162478,26,-281,-6.17431640625e-05,0,0,70,1244130,698686,96972,36198,74342,159403,39378,10487,Tag0,unknown
111,1611472162494,26,-691,-0.0001518310546875,0,0,70,1244130,698686,96972,36198,74342,159403,39378,10487,Tag0,unknown
112,1611472162509,26,-1253,-0.00027531738281250004,0,0,70,1244130,698686,96972,36198,74342,159403,39378,10487,Tag0,unknown
113,1611472162519,26,-2048,-0.00045,0,0,70,1244130,698686,96972,36198,74342,159403,39378,10487,Tag0,unknown
114,1611472162529,26,-2048,-0.00045,0,0,70,1244130,698686,96972,36198,74342,159403,39378,10487,Tag0,unknown
115,1611472162541,26,1065,0.0002340087890625,0,0,70,1244130,698686,96972,36198,74342,159403,39378,10487,Tag0,unknown
116,1611472162551,26,-882,-0.000193798828125,0,0,70,1244130,698686,96972,36198,74342,159403,39378,10487,Tag0,unknown
117,1611472162561,26,-2048,-0.00045,0,0,70,1244130,698686,96972,36198,74342,159403,39378,10487,Tag0,unknown
118,1611472162572,26,-2048,-0.00045,0,0,70,1244130,698686,96972,36198,74342,159403,39378,10487,Tag0,unknown
119,1611472162598,51,-963,-0.0002115966796875,0,0,70,160560,37641,16755981,38090,16749606,16770610,9260,7658,Tag0,unknown
120,1611472162611,51,-923,-0.0002028076171875,0,0,70,160560,37641,16755981,38090,16749606,16770610,9260,7658,Tag0,unknown
121,1611472162643,51,-595,-0.0001307373046875,0,0,70,160560,37641,16755981,38090,16749606,16770610,9260,7658,Tag0,unknown
122,1611472162663,51,-581,-0.0001276611328125,0,0,70,160560,37641,16755981,38090,16749606,16770610,9260,7658,Tag0,unknown
123,1611472162674,51,-233,-5.119628906250001e-05,0,0,70,160560,37641,16755981,38090,16749606,16770610,9260,7658,Tag0,unknown
124,1611472162689,51,-182,-3.9990234375e-05,0,0,70,160560,37641,16755981,38090,16749606,16770610,9260,7658,Tag0,unknown
125,1611472162709,51,-355,-7.80029296875e-05,0,0,70,160560,37641,16755981,38090,16749606,16770610,9260,7658,Tag0,unknown
126,1611472162719,51,-292,-6.416015625000001e-05,0,0,70,160560,37641,16755981,38090,16749606,16770610,9260,7658,Tag0,unknown
127,1611472162743,51,-281,-6.17431640625e-05,0,0,70,160560,37641,16755981,38090,16749606,16770610,9260,7658,Tag0,unknown
128,1611472162753,51,21,4.614257812500002e-06,0,0,70,160560,37641,16755981,38090,16749606,16770610,9260,7658,Tag0,unknown
129,1611472162773,51,27,5.932617187500001e-06,0,0,70,160560,37641,16755981,38090,16749606,16770610,9260,7658,Tag0,unknown
130,1611472162794,51,39,8.5693359375e-06,0,0,70,160560,37641,16755981,38090,16749606,16770610,9260,7658,Tag0,unknown
131,1611472162807,51,41,9.0087890625e-06,0,0,70,160560,37641,16755981,38090,16749606,16770610,9260,7658,Tag0,unknown
132,1611472162834,51,55,1.20849609375e-05,0,0,70,160560,37641,16755981,38090,16749606,16770610,9260,7658,Tag0,unknown
133,1611472162844,51,56,1.23046875e-05,0,0,70,160560,37641,16755981,38090,16749606,16770610,9260,7658,Tag0,unknown
134,1611472162868,51,58,1.2744140625e-05,0,0,70,160560,37641,16755981,38090,16749606,16770610,9260,7658,Tag0,unknown
135,1611472162878,51,59,1.29638671875e-05,0,0,70,160560,37641,16755981,38090,16749606,16770610,9260,7658,Tag0,unknown
136,1611472162896,51,64,1.40625e-05,0,0,70,160560,37641,16755981,38090,16749606,16770610,9260,7658,Tag0,unknown
137,1611472162909,51,61,1.34033203125e-05,0,0,70,160560,37641,16755981,38090,16749606,16770610,9260,7658,Tag0,unknown
138,1611472162927,51,70,1.5380859375e-05,0,0,70,160560,37641,16755981,38090,16749606,16770610,9260,7658,Tag0,unknown
139,1611472162943,51,69,1.51611328125e-05,0,0,70,160560,37641,16755981,38090,16749606,16770610,9260,7658,Tag0,unknown
140,1611472162958,51,-7,-1.5380859375e-06,0,0,70,160560,37641,16755981,38090,16749606,16770610,9260,7658,Tag0,unknown
141,1611472162968,51,312,6.85546875e-05,0,0,70,160560,37641,16755981,38090,16749606,16770610,9260,7658,Tag0,unknown
142,1611472162983,51,-86,-1.8896484375000006e-05,0,0,70,160560,37641,16755981,38090,16749606,16770610,9260,7658,Tag0,unknown
143,1611472162993,51,317,6.96533203125e-05,0,0,70,160560,37641,16755981,38090,16749606,16770610,9260,7658,Tag0,unknown
144,1611472163017,51,589,0.0001294189453125,0,0,70,160560,37641,16755981,38090,16749606,16770610,9260,7658,Tag0,unknown
145,1611472163027,51,-260,-5.712890625e-05,0,0,70,160560,37641,16755981,38090,16749606,16770610,9260,7658,Tag0,unknown
146,1611472163048,51,297,6.525878906250001e-05,0,0,70,160560,37641,16755981,38090,16749606,16770610,9260,7658,Tag0,unknown
147,1611472163058,51,-385,-8.45947265625e-05,0,0,70,160560,37641,16755981,38090,16749606,16770610,9260,7658,Tag0,unknown
148,1611472163068,51,-228,-5.009765625000001e-05,0,0,70,160560,37641,16755981,38090,16749606,16770610,9260,7658,Tag0,unknown
149,1611472163078,51,-231,-5.07568359375e-05,0,0,70,160560,37641,16755981,38090,16749606,16770610,9260,7658,Tag0,unknown
150,1611472163101,51,-379,-8.32763671875e-05,0,0,70,160560,37641,16755981,38090,16749606,16770610,9260,7658,Tag0,unknown
151,1611472163111,51,-364,-7.998046875e-05,0,0,70,160560,37641,16755981,38090,16749606,16770610,9260,7658,Tag0,unknown
152,1611472163135,51,-385,-8.45947265625e-05,0,0,70,160560,37641,16755981,38090,16749606,16770610,9260,7658,Tag0,unknown
153,1611472163146,51,-599,-0.0001316162109375,0,0,70,160560,37641,16755981,38090,16749606,16770610,9260,7658,Tag0,unknown
154,1611472163156,51,-633,-0.00013908691406250002,0,0,70,160560,37641,16755981,38090,16749606,16770610,9260,7658,Tag0,unknown
155,1611472163166,51,-467,-0.0001026123046875,0,0,70,160560,37641,16755981,38090,16749606,16770610,9260,7658,Tag0,unknown
156,1611472163178,51,1852,0.00040693359375,0,0,70,160560,37641,16755981,38090,16749606,16770610,9260,7658,Tag0,unknown
157,1611472163195,51,1076,0.00023642578125,0,0,70,160560,37641,16755981,38090,16749606,16770610,9260,7658,Tag0,unknown
158,1611472163209,51,874,0.000192041015625,0,0,70,160560,37641,16755981,38090,16749606,16770610,9260,7658,Tag0,unknown
159,1611472163226,51,1362,0.000299267578125,0,0,70,160560,37641,16755981,38090,16749606,16770610,9260,7658,Tag0,unknown
160,1611472163247,51,-1193,-0.0002621337890625,0,0,70,160560,37641,16755981,38090,16749606,16770610,9260,7658,Tag0,unknown
161,1611472163258,51,-1404,-0.00030849609375,0,0,70,160560,37641,16755981,38090,16749606,16770610,9260,7658,Tag0,unknown
162,1611472163281,51,-871,-0.0001913818359375,0,0,70,160560,37641,16755981,38090,16749606,16770610,9260,7658,Tag0,unknown
163,1611472163295,51,-217,-4.76806640625e-05,0,0,70,160560,37641,16755981,38090,16749606,16770610,9260,7658,Tag0,unknown
164,1611472163305,51,1415,0.0003109130859375,0,0,70,160560,37641,16755981,38090,16749606,16770610,9260,7658,Tag0,unknown
165,1611472163317,51,1600,0.0003515625,0,0,70,160560,37641,16755981,38090,16749606,16770610,9260,7658,Tag0,unknown
166,1611472163329,51,1791,0.0003935302734375,0,0,70,160560,37641,16755981,38090,16749606,16770610,9260,7658,Tag0,unknown
167,1611472163343,51,1791,0.0003935302734375,0,0,70,160560,37641,16755981,38090,16749606,16770610,9260,7658,Tag0,unknown
168,1611472163359,51,1601,0.0003517822265625,0,0,70,160560,37641,16755981,38090,16749606,16770610,9260,7658,Tag0,unknown
169,1611472163375,51,1791,0.0003935302734375,0,0,70,160560,37641,16755981,38090,16749606,16770610,9260,7658,Tag0,unknown
170,1611472163394,51,1027,0.00022565917968750006,0,0,70,160560,37641,16755981,38090,16749606,16770610,9260,7658,Tag0,unknown
171,1611472163409,51,1148,0.00025224609375000003,0,0,70,160560,37641,16755981,38090,16749606,16770610,9260,7658,Tag0,unknown
172,1611472163428,51,-1269,-0.00027883300781250003,0,0,70,160560,37641,16755981,38090,16749606,16770610,9260,7658,Tag0,unknown
173,1611472163444,51,-1034,-0.000227197265625,0,0,70,160560,37641,16755981,38090,16749606,16770610,9260,7658,Tag0,unknown
174,1611472163454,51,-1160,-0.0002548828125,0,0,70,160560,37641,16755981,38090,16749606,16770610,9260,7658,Tag0,unknown
175,1611472163465,51,-2055,-0.0004515380859375,0,0,70,160560,37641,16755981,38090,16749606,16770610,9260,7658,Tag0,unknown
176,1611472163475,51,-1378,-0.000302783203125,0,0,70,160560,37641,16755981,38090,16749606,16770610,9260,7658,Tag0,unknown
177,1611472163485,51,-2171,-0.0004770263671875001,0,0,70,160560,37641,16755981,38090,16749606,16770610,9260,7658,Tag0,unknown
178,1611472163495,51,-1579,-0.0003469482421875,0,0,70,160560,37641,16755981,38090,16749606,16770610,9260,7658,Tag0,unknown
179,1611472163515,51,-971,-0.0002133544921875,0,0,70,160560,37641,16755981,38090,16749606,16770610,9260,7658,Tag0,unknown
180,1611472163529,51,-1589,-0.00034914550781250004,0,0,70,160560,37641,16755981,38090,16749606,16770610,9260,7658,Tag0,unknown
181,1611472163550,51,-787,-0.0001729248046875,0,0,70,160560,37641,16755981,38090,16749606,16770610,9260,7658,Tag0,unknown
182,1611472163561,51,-279,-6.13037109375e-05,0,0,70,160560,37641,16755981,38090,16749606,16770610,9260,7658,Tag0,unknown
183,1611472163571,26,1791,0.0003935302734375,0,0,70,1011659,16776628,16776176,20684,16749395,27553,8772,16595,Tag0,unknown
184,1611472163587,26,1791,0.0003935302734375,0,0,70,1011659,16776628,16776176,20684,16749395,27553,8772,16595,Tag0,unknown
185,1611472163598,26,785,0.0001724853515625,0,0,70,1011659,16776628,16776176,20684,16749395,27553,8772,16595,Tag0,unknown
186,1611472163609,26,-805,-0.0001768798828125,0,0,70,1011659,16776628,16776176,20684,16749395,27553,8772,16595,Tag0,unknown
187,1611472163626,26,-1079,-0.0002370849609375,0,0,70,1011659,16776628,16776176,20684,16749395,27553,8772,16595,Tag0,unknown
188,1611472163646,26,-375,-8.23974609375e-05,0,0,70,1011659,16776628,16776176,20684,16749395,27553,8772,16595,Tag0,unknown
189,1611472163661,26,148,3.251953125e-05,0,0,70,1011659,16776628,16776176,20684,16749395,27553,8772,16595,Tag0,unknown
190,1611472163681,26,-445,-9.77783203125e-05,0,0,70,1011659,16776628,16776176,20684,16749395,27553,8772,16595,Tag0,unknown
191,1611472163691,26,-811,-0.0001781982421875,0,0,70,1011659,16776628,16776176,20684,16749395,27553,8772,16595,Tag0,unknown
192,1611472163711,26,1349,0.00029641113281250004,0,0,70,1011659,16776628,16776176,20684,16749395,27553,8772,16595,Tag0,unknown
193,1611472163736,26,827,0.0001817138671875,0,0,70,1011659,16776628,16776176,20684,16749395,27553,8772,16595,Tag0,unknown
194,1611472163758,26,-597,-0.00013117675781250005,0,0,70,1011659,16776628,16776176,20684,16749395,27553,8772,16595,Tag0,unknown
195,1611472163775,26,-72,-1.58203125e-05,0,0,70,1011659,16776628,16776176,20684,16749395,27553,8772,16595,Tag0,unknown
196,1611472163791,26,373,8.19580078125e-05,0,0,70,1011659,16776628,16776176,20684,16749395,27553,8772,16595,Tag0,unknown
197,1611472163808,26,-971,-0.0002133544921875,0,0,70,1011659,16776628,16776176,20684,16749395,27553,8772,16595,Tag0,unknown
198,1611472163828,26,-892,-0.00019599609375,0,0,70,1011659,16776628,16776176,20684,16749395,27553,8772,16595,Tag0,unknown
199,1611472163838,26,485,0.0001065673828125,0,0,70,1011659,16776628,16776176,20684,16749395,27553,8772,16595,Tag0,unknown
200,1611472163859,26,-594,-0.00013051757812500002,0,0,70,1011659,16776628,16776176,20684,16749395,27553,8772,16595,Tag0,unknown
201,1611472163881,26,-628,-0.00013798828125,0,0,70,1011659,16776628,16776176,20684,16749395,27553,8772,16595,Tag0,unknown
202,1611472163899,26,-173,-3.80126953125e-05,0,0,70,1011659,16776628,16776176,20684,16749395,27553,8772,16595,Tag0,unknown
203,1611472163909,26,-791,-0.0001738037109375,0,0,70,1011659,16776628,16776176,20684,16749395,27553,8772,16595,Tag0,unknown
204,1611472163920,26,-85,-1.86767578125e-05,0,0,70,1011659,16776628,16776176,20684,16749395,27553,8772,16595,Tag0,unknown
205,1611472163931,26,654,0.000143701171875,0,0,70,1011659,16776628,16776176,20684,16749395,27553,8772,16595,Tag0,unknown
206,1611472163942,26,-51,-1.12060546875e-05,0,0,70,1011659,16776628,16776176,20684,16749395,27553,8772,16595,Tag0,unknown
207,1611472163959,26,-1207,-0.0002652099609375,0,0,70,1011659,16776628,16776176,20684,16749395,27553,8772,16595,Tag0,unknown
208,1611472163975,26,-179,-3.93310546875e-05,0,0,70,1011659,16776628,16776176,20684,16749395,27553,8772,16595,Tag0,unknown
209,1611472163992,26,-151,-3.31787109375e-05,0,0,70,1011659,16776628,16776176,20684,16749395,27553,8772,16595,Tag0,unknown
210,1611472164009,26,-250,-5.4931640625e-05,0,0,70,1011659,16776628,16776176,20684,16749395,27553,8772,16595,Tag0,unknown
211,1611472164027,26,-465,-0.0001021728515625,0,0,70,1011659,16776628,16776176,20684,16749395,27553,8772,16595,Tag0,unknown
212,1611472164045,26,182,3.9990234375e-05,0,0,70,1011659,16776628,16776176,20684,16749395,27553,8772,16595,Tag0,unknown
213,1611472164055,26,338,7.426757812499999e-05,0,0,70,1011659,16776628,16776176,20684,16749395,27553,8772,16595,Tag0,unknown
214,1611472164067,26,293,6.43798828125e-05,0,0,70,1011659,16776628,16776176,20684,16749395,27553,8772,16595,Tag0,unknown
215,1611472164078,26,-312,-6.85546875e-05,0,0,70,1011659,16776628,16776176,20684,16749395,27553,8772,16595,Tag0,unknown
216,1611472164100,26,791,0.0001738037109375,0,0,70,1011659,16776628,16776176,20684,16749395,27553,8772,16595,Tag0,unknown
217,1611472164114,26,436,9.580078125e-05,0,0,70,1011659,16776628,16776176,20684,16749395,27553,8772,16595,Tag0,unknown
218,1611472164124,26,-1286,-0.000282568359375,0,0,70,1011659,16776628,16776176,20684,16749395,27553,8772,16595,Tag0,unknown
219,1611472164134,26,-1144,-0.0002513671875,0,0,70,1011659,16776628,16776176,20684,16749395,27553,8772,16595,Tag0,unknown
220,1611472164144,26,-246,-5.4052734375e-05,0,0,70,1011659,16776628,16776176,20684,16749395,27553,8772,16595,Tag0,unknown
221,1611472164159,26,-947,-0.0002080810546875,0,0,70,1011659,16776628,16776176,20684,16749395,27553,8772,16595,Tag0,unknown
222,1611472164177,26,-571,-0.0001254638671875,0,0,70,1011659,16776628,16776176,20684,16749395,27553,8772,16595,Tag0,unknown
223,1611472164193,26,-635,-0.0001395263671875,0,0,70,1011659,16776628,16776176,20684,16749395,27553,8772,16595,Tag0,unknown
224,1611472164215,26,-711,-0.0001562255859375,0,0,70,1011659,16776628,16776176,20684,16749395,27553,8772,16595,Tag0,unknown
225,1611472164229,26,-519,-0.0001140380859375,0,0,70,1011659,16776628,16776176,20684,16749395,27553,8772,16595,Tag0,unknown
226,1611472164239,26,-621,-0.0001364501953125,0,0,70,1011659,16776628,16776176,20684,16749395,27553,8772,16595,Tag0,unknown
227,1611472164262,26,-353,-7.75634765625e-05,0,0,70,1011659,16776628,16776176,20684,16749395,27553,8772,16595,Tag0,unknown
228,1611472164272,26,137,3.01025390625e-05,0,0,70,1011659,16776628,16776176,20684,16749395,27553,8772,16595,Tag0,unknown
229,1611472164283,26,1652,0.00036298828125,0,0,70,1011659,16776628,16776176,20684,16749395,27553,8772,16595,Tag0,unknown
230,1611472164295,26,1357,0.0002981689453125,0,0,70,1011659,16776628,16776176,20684,16749395,27553,8772,16595,Tag0,unknown
231,1611472164312,26,-589,-0.0001294189453125,0,0,70,1011659,16776628,16776176,20684,16749395,27553,8772,16595,Tag0,unknown
232,1611472164328,26,-231,-5.07568359375e-05,0,0,70,1011659,16776628,16776176,20684,16749395,27553,8772,16595,Tag0,unknown
233,1611472164345,26,-822,-0.000180615234375,0,0,70,1011659,16776628,16776176,20684,16749395,27553,8772,16595,Tag0,unknown
234,1611472164363,26,1127,0.0002476318359375,0,0,70,1011659,16776628,16776176,20684,16749395,27553,8772,16595,Tag0,unknown
235,1611472164377,26,826,0.000181494140625,0,0,70,1011659,16776628,16776176,20684,16749395,27553,8772,16595,Tag0,unknown
236,1611472164408,26,-217,-4.76806640625e-05,0,0,70,1011659,16776628,16776176,20684,16749395,27553,8772,16595,Tag0,unknown
237,1611472164428,26,688,0.00015117187500000002,0,0,70,1011659,16776628,16776176,20684,16749395,27553,8772,16595,Tag0,unknown
238,1611472164438,26,100,2.197265625e-05,0,0,70,1011659,16776628,16776176,20684,16749395,27553,8772,16595,Tag0,unknown
239,1611472164448,26,435,9.55810546875e-05,0,0,70,1011659,16776628,16776176,20684,16749395,27553,8772,16595,Tag0,unknown
240,1611472164462,26,-1145,-0.0002515869140625,0,0,70,1011659,16776628,16776176,20684,16749395,27553,8772,16595,Tag0,unknown
241,1611472164472,26,40,8.7890625e-06,0,0,70,1011659,16776628,16776176,20684,16749395,27553,8772,16595,Tag0,unknown
242,1611472164494,26,-68,-1.494140625e-05,0,0,70,1011659,16776628,16776176,20684,16749395,27553,8772,16595,Tag0,unknown
243,1611472164513,26,360,7.91015625e-05,0,0,70,1011659,16776628,16776176,20684,16749395,27553,8772,16595,Tag0,unknown
244,1611472164523,26,-316,-6.943359375000001e-05,0,0,70,1011659,16776628,16776176,20684,16749395,27553,8772,16595,Tag0,unknown
245,1611472164534,26,-1253,-0.00027531738281250004,0,0,70,1011659,16776628,16776176,20684,16749395,27553,8772,16595,Tag0,unknown
246,1611472164544,26,-1073,-0.0002357666015625,0,0,70,1011659,16776628,16776176,20684,16749395,27553,8772,16595,Tag0,unknown
247,1611472164563,26,1791,0.0003935302734375,0,0,70,606251,170805,37768,16746694,87460,93592,31742,16748400,Tag0,unknown
248,1611472164577,26,1791,0.0003935302734375,0,0,70,606251,170805,37768,16746694,87460,93592,31742,16748400,Tag0,unknown
249,1611472164595,26,-631,-0.0001386474609375,0,0,70,606251,170805,37768,16746694,87460,93592,31742,16748400,Tag0,unknown
250,1611472164611,26,-2151,-0.0004726318359375,0,0,70,606251,170805,37768,16746694,87460,93592,31742,16748400,Tag0,unknown
251,1611472164630,26,-660,-0.00014501953125,0,0,70,606251,170805,37768,16746694,87460,93592,31742,16748400,Tag0,unknown
252,1611472164647,26,27,5.932617187500001e-06,0,0,70,606251,170805,37768,16746694,87460,93592,31742,16748400,Tag0,unknown
253,1611472164657,26,-705,-0.0001549072265625,0,0,70,606251,170805,37768,16746694,87460,93592,31742,16748400,Tag0,unknown
254,1611472164667,26,1346,0.000295751953125,0,0,70,606251,170805,37768,16746694,87460,93592,31742,16748400,Tag0,unknown
255,1611472164680,26,611,0.0001342529296875,0,0,70,606251,170805,37768,16746694,87460,93592,31742,16748400,Tag0,unknown
256,1611472164701,26,-1411,-0.0003100341796875,0,0,70,606251,170805,37768,16746694,87460,93592,31742,16748400,Tag0,unknown
257,1611472164712,26,-386,-8.481445312500001e-05,0,0,70,606251,170805,37768,16746694,87460,93592,31742,16748400,Tag0,unknown
258,1611472164722,26,1180,0.00025927734375,0,0,70,606251,170805,37768,16746694,87460,93592,31742,16748400,Tag0,unknown
259,1611472164732,26,994,0.000218408203125,0,0,70,606251,170805,37768,16746694,87460,93592,31742,16748400,Tag0,unknown
260,1611472164747,26,52,1.142578125e-05,0,0,70,606251,170805,37768,16746694,87460,93592,31742,16748400,Tag0,unknown
261,1611472164762,26,989,0.0002173095703125,0,0,70,606251,170805,37768,16746694,87460,93592,31742,16748400,Tag0,unknown
262,1611472164779,26,-997,-0.0002190673828125,0,0,70,606251,170805,37768,16746694,87460,93592,31742,16748400,Tag0,unknown
263,1611472164794,26,117,2.57080078125e-05,0,0,70,606251,170805,37768,16746694,87460,93592,31742,16748400,Tag0,unknown
264,1611472164812,26,-32,-7.03125e-06,0,0,70,606251,170805,37768,16746694,87460,93592,31742,16748400,Tag0,unknown
265,1611472164828,26,437,9.60205078125e-05,0,0,70,606251,170805,37768,16746694,87460,93592,31742,16748400,Tag0,unknown
266,1611472164847,26,1331,0.00029245605468750005,0,0,70,606251,170805,37768,16746694,87460,93592,31742,16748400,Tag0,unknown
267,1611472164862,26,-45,-9.8876953125e-06,0,0,70,606251,170805,37768,16746694,87460,93592,31742,16748400,Tag0,unknown
268,1611472164872,26,-1099,-0.0002414794921875,0,0,70,606251,170805,37768,16746694,87460,93592,31742,16748400,Tag0,unknown
269,1611472164884,26,-1124,-0.00024697265625,0,0,70,606251,170805,37768,16746694,87460,93592,31742,16748400,Tag0,unknown
270,1611472164897,26,-310,-6.8115234375e-05,0,0,70,606251,170805,37768,16746694,87460,93592,31742,16748400,Tag0,unknown
271,1611472164918,26,1296,0.000284765625,0,0,70,606251,170805,37768,16746694,87460,93592,31742,16748400,Tag0,unknown
272,1611472164931,26,663,0.0001456787109375,0,0,70,606251,170805,37768,16746694,87460,93592,31742,16748400,Tag0,unknown
273,1611472164941,26,324,7.119140625e-05,0,0,70,606251,170805,37768,16746694,87460,93592,31742,16748400,Tag0,unknown
274,1611472164951,26,1037,0.0002278564453125,0,0,70,606251,170805,37768,16746694,87460,93592,31742,16748400,Tag0,unknown
275,1611472164964,26,428,9.404296875e-05,0,0,70,606251,170805,37768,16746694,87460,93592,31742,16748400,Tag0,unknown
276,1611472164979,26,-2048,-0.00045,0,0,70,606251,170805,37768,16746694,87460,93592,31742,16748400,Tag0,unknown
277,1611472165000,26,-1249,-0.0002744384765625,0,0,70,606251,170805,37768,16746694,87460,93592,31742,16748400,Tag0,unknown
278,1611472165010,26,1791,0.0003935302734375,0,0,70,606251,170805,37768,16746694,87460,93592,31742,16748400,Tag0,unknown
279,1611472165030,26,-40,-8.7890625e-06,0,0,70,606251,170805,37768,16746694,87460,93592,31742,16748400,Tag0,unknown
280,1611472165045,26,-473,-0.0001039306640625,0,0,70,606251,170805,37768,16746694,87460,93592,31742,16748400,Tag0,unknown
281,1611472165061,26,728,0.0001599609375,0,0,70,606251,170805,37768,16746694,87460,93592,31742,16748400,Tag0,unknown
282,1611472165089,26,-614,-0.000134912109375,0,0,70,606251,170805,37768,16746694,87460,93592,31742,16748400,Tag0,unknown
283,1611472165099,26,-1044,-0.00022939453125,0,0,70,606251,170805,37768,16746694,87460,93592,31742,16748400,Tag0,unknown
284,1611472165114,26,-1283,-0.0002819091796875,0,0,70,606251,170805,37768,16746694,87460,93592,31742,16748400,Tag0,unknown
285,1611472165131,26,-1115,-0.0002449951171875,0,0,70,606251,170805,37768,16746694,87460,93592,31742,16748400,Tag0,unknown
286,1611472165147,26,1621,0.0003561767578125,0,0,70,606251,170805,37768,16746694,87460,93592,31742,16748400,Tag0,unknown
287,1611472165164,26,-220,-4.833984375e-05,0,0,70,606251,170805,37768,16746694,87460,93592,31742,16748400,Tag0,unknown
288,1611472165180,26,1029,0.0002260986328125,0,0,70,606251,170805,37768,16746694,87460,93592,31742,16748400,Tag0,unknown
289,1611472165190,26,509,0.0001118408203125,0,0,70,606251,170805,37768,16746694,87460,93592,31742,16748400,Tag0,unknown
290,1611472165205,26,-948,-0.00020830078125,0,0,70,606251,170805,37768,16746694,87460,93592,31742,16748400,Tag0,unknown
291,1611472165215,26,-23,-5.0537109375e-06,0,0,70,606251,170805,37768,16746694,87460,93592,31742,16748400,Tag0,unknown
292,1611472165230,26,-1404,-0.00030849609375,0,0,70,606251,170805,37768,16746694,87460,93592,31742,16748400,Tag0,unknown
293,1611472165247,26,355,7.80029296875e-05,0,0,70,606251,170805,37768,16746694,87460,93592,31742,16748400,Tag0,unknown
294,1611472165257,26,-343,-7.53662109375e-05,0,0,70,606251,170805,37768,16746694,87460,93592,31742,16748400,Tag0,unknown
295,1611472165267,26,41,9.0087890625e-06,0,0,70,606251,170805,37768,16746694,87460,93592,31742,16748400,Tag0,unknown
296,1611472165278,26,669,0.0001469970703125,0,0,70,606251,170805,37768,16746694,87460,93592,31742,16748400,Tag0,unknown
297,1611472165307,26,1268,0.00027861328125,0,0,70,606251,170805,37768,16746694,87460,93592,31742,16748400,Tag0,unknown
298,1611472165328,26,1296,0.000284765625,0,0,70,606251,170805,37768,16746694,87460,93592,31742,16748400,Tag0,unknown
299,1611472165347,26,-839,-0.0001843505859375,0,0,70,606251,170805,37768,16746694,87460,93592,31742,16748400,Tag0,unknown
300,1611472165363,26,386,8.481445312500001e-05,0,0,70,606251,170805,37768,16746694,87460,93592,31742,16748400,Tag0,unknown
301,1611472165381,26,-533,-0.0001171142578125,0,0,70,606251,170805,37768,16746694,87460,93592,31742,16748400,Tag0,unknown
302,1611472165398,26,-831,-0.0001825927734375,0,0,70,606251,170805,37768,16746694,87460,93592,31742,16748400,Tag0,unknown
303,1611472165408,26,-1035,-0.0002274169921875,0,0,70,606251,170805,37768,16746694,87460,93592,31742,16748400,Tag0,unknown
304,1611472165419,26,1640,0.0003603515625,0,0,70,606251,170805,37768,16746694,87460,93592,31742,16748400,Tag0,unknown
305,1611472165432,26,519,0.0001140380859375,0,0,70,606251,170805,37768,16746694,87460,93592,31742,16748400,Tag0,unknown
306,1611472165450,26,-229,-5.03173828125e-05,0,0,70,606251,170805,37768,16746694,87460,93592,31742,16748400,Tag0,unknown
307,1611472165464,26,-1845,-0.0004053955078125,0,0,70,606251,170805,37768,16746694,87460,93592,31742,16748400,Tag0,unknown
308,1611472165478,26,124,2.724609375e-05,0,0,70,606251,170805,37768,16746694,87460,93592,31742,16748400,Tag0,unknown
309,1611472165495,26,1003,0.0002203857421875,0,0,70,606251,170805,37768,16746694,87460,93592,31742,16748400,Tag0,unknown
310,1611472165517,26,-181,-3.97705078125e-05,0,0,70,606251,170805,37768,16746694,87460,93592,31742,16748400,Tag0,unknown
311,1611472165528,26,1589,0.00034914550781250004,0,0,70,606251,170805,37768,16746694,87460,93592,31742,16748400,Tag0,unknown
312,1611472165546,26,1320,0.0002900390625,0,0,70,606251,170805,37768,16746694,87460,93592,31742,16748400,Tag0,unknown
313,1611472165570,26,946,0.000207861328125,0,0,70,3109447,1422703,117408,1080822,1399208,858842,246013,219441,Tag0,unknown
314,1611472165580,26,1159,0.00025466308593750003,0,0,70,3109447,1422703,117408,1080822,1399208,858842,246013,219441,Tag0,unknown
315,1611472165599,26,-62,-1.3623046875e-05,0,0,70,3109447,1422703,117408,1080822,1399208,858842,246013,219441,Tag0,unknown
316,1611472165609,26,-406,-8.920898437500001e-05,0,0,70,3109447,1422703,117408,1080822,1399208,858842,246013,219441,Tag0,unknown
317,1611472165619,26,365,8.02001953125e-05,0,0,70,3109447,1422703,117408,1080822,1399208,858842,246013,219441,Tag0,unknown
318,1611472165630,26,-309,-6.78955078125e-05,0,0,70,3109447,1422703,117408,1080822,1399208,858842,246013,219441,Tag0,unknown
319,1611472165646,26,-67,-1.4721679687500003e-05,0,0,70,3109447,1422703,117408,1080822,1399208,858842,246013,219441,Tag0,unknown
320,1611472165664,26,68,1.494140625e-05,0,0,70,3109447,1422703,117408,1080822,1399208,858842,246013,219441,Tag0,unknown
321,1611472165680,26,-1325,-0.0002911376953125,0,0,70,3109447,1422703,117408,1080822,1399208,858842,246013,219441,Tag0,unknown
322,1611472165690,26,919,0.0002019287109375,0,0,70,3109447,1422703,117408,1080822,1399208,858842,246013,219441,Tag0,unknown
323,1611472165701,26,-489,-0.0001074462890625,0,0,70,3109447,1422703,117408,1080822,1399208,858842,246013,219441,Tag0,unknown
324,1611472165714,26,-418,-9.1845703125e-05,0,0,70,3109447,1422703,117408,1080822,1399208,858842,246013,219441,Tag0,unknown
325,1611472165739,26,366,8.0419921875e-05,0,0,70,3109447,1422703,117408,1080822,1399208,858842,246013,219441,Tag0,unknown
326,1611472165751,26,-214,-4.7021484375e-05,0,0,70,3109447,1422703,117408,1080822,1399208,858842,246013,219441,Tag0,unknown
327,1611472165761,26,1110,0.000243896484375,0,0,70,3109447,1422703,117408,1080822,1399208,858842,246013,219441,Tag0,unknown
328,1611472165779,26,968,0.0002126953125,0,0,70,3109447,1422703,117408,1080822,1399208,858842,246013,219441,Tag0,unknown
329,1611472165813,26,734,0.00016127929687500002,0,0,70,3109447,1422703,117408,1080822,1399208,858842,246013,219441,Tag0,unknown
330,1611472165833,26,378,8.3056640625e-05,0,0,70,3109447,1422703,117408,1080822,1399208,858842,246013,219441,Tag0,unknown
331,1611472165843,26,867,0.00019050292968750005,0,0,70,3109447,1422703,117408,1080822,1399208,858842,246013,219441,Tag0,unknown
332,1611472165857,26,-627,-0.0001377685546875,0,0,70,3109447,1422703,117408,1080822,1399208,858842,246013,219441,Tag0,unknown
333,1611472165883,26,-1009,-0.0002217041015625,0,0,70,3109447,1422703,117408,1080822,1399208,858842,246013,219441,Tag0,unknown
334,1611472165897,26,666,0.00014633789062499998,0,0,70,3109447,1422703,117408,1080822,1399208,858842,246013,219441,Tag0,unknown
335,1611472165907,26,1852,0.00040693359375,0,0,70,3109447,1422703,117408,1080822,1399208,858842,246013,219441,Tag0,unknown
336,1611472165935,26,1115,0.0002449951171875,0,0,70,3109447,1422703,117408,1080822,1399208,858842,246013,219441,Tag0,unknown
337,1611472165948,26,408,8.964843749999999e-05,0,0,70,3109447,1422703,117408,1080822,1399208,858842,246013,219441,Tag0,unknown
338,1611472165958,26,876,0.00019248046875,0,0,70,3109447,1422703,117408,1080822,1399208,858842,246013,219441,Tag0,unknown
339,1611472165973,26,362,7.954101562500001e-05,0,0,70,3109447,1422703,117408,1080822,1399208,858842,246013,219441,Tag0,unknown
340,1611472165983,26,497,0.0001092041015625,0,0,70,3109447,1422703,117408,1080822,1399208,858842,246013,219441,Tag0,unknown
341,1611472165998,26,839,0.0001843505859375,0,0,70,3109447,1422703,117408,1080822,1399208,858842,246013,219441,Tag0,unknown
342,1611472166015,26,-455,-9.99755859375e-05,0,0,70,3109447,1422703,117408,1080822,1399208,858842,246013,219441,Tag0,unknown
343,1611472166025,26,-1393,-0.0003060791015625,0,0,70,3109447,1422703,117408,1080822,1399208,858842,246013,219441,Tag0,unknown
344,1611472166046,26,-369,-8.10791015625e-05,0,0,70,3109447,1422703,117408,1080822,1399208,858842,246013,219441,Tag0,unknown
345,1611472166063,26,9,1.9775390625e-06,0,0,70,3109447,1422703,117408,1080822,1399208,858842,246013,219441,Tag0,unknown
346,1611472166080,26,-732,-0.00016083984375,0,0,70,3109447,1422703,117408,1080822,1399208,858842,246013,219441,Tag0,unknown
347,1611472166097,26,-1049,-0.0002304931640625,0,0,70,3109447,1422703,117408,1080822,1399208,858842,246013,219441,Tag0,unknown
348,1611472166107,26,1356,0.00029794921875000004,0,0,70,3109447,1422703,117408,1080822,1399208,858842,246013,219441,Tag0,unknown
349,1611472166132,26,1336,0.00029355468750000003,0,0,70,3109447,1422703,117408,1080822,1399208,858842,246013,219441,Tag0,unknown
350,1611472166149,26,-1189,-0.0002612548828125,0,0,70,3109447,1422703,117408,1080822,1399208,858842,246013,219441,Tag0,unknown
351,1611472166166,26,860,0.00018896484375,0,0,70,3109447,1422703,117408,1080822,1399208,858842,246013,219441,Tag0,unknown
352,1611472166176,26,-1438,-0.000315966796875,0,0,70,3109447,1422703,117408,1080822,1399208,858842,246013,219441,Tag0,unknown
353,1611472166188,26,-1729,-0.0003799072265625,0,0,70,3109447,1422703,117408,1080822,1399208,858842,246013,219441,Tag0,unknown
354,1611472166200,26,-2065,-0.0004537353515625,0,0,70,3109447,1422703,117408,1080822,1399208,858842,246013,219441,Tag0,unknown
355,1611472166221,26,-1037,-0.0002278564453125,0,0,70,3109447,1422703,117408,1080822,1399208,858842,246013,219441,Tag0,unknown
356,1611472166233,26,-1014,-0.000222802734375,0,0,70,3109447,1422703,117408,1080822,1399208,858842,246013,219441,Tag0,unknown
357,1611472166243,26,18,3.955078125e-06,0,0,70,3109447,1422703,117408,1080822,1399208,858842,246013,219441,Tag0,unknown
358,1611472166264,26,1318,0.00028959960937500003,0,0,70,3109447,1422703,117408,1080822,1399208,858842,246013,219441,Tag0,unknown
359,1611472166281,26,105,2.30712890625e-05,0,0,70,3109447,1422703,117408,1080822,1399208,858842,246013,219441,Tag0,unknown
360,1611472166298,26,960,0.0002109375,0,0,70,3109447,1422703,117408,1080822,1399208,858842,246013,219441,Tag0,unknown
361,1611472166314,26,-2048,-0.00045,0,0,70,3109447,1422703,117408,1080822,1399208,858842,246013,219441,Tag0,unknown
362,1611472166324,26,-1563,-0.0003434326171875,0,0,70,3109447,1422703,117408,1080822,1399208,858842,246013,219441,Tag0,unknown
363,1611472166336,26,-2122,-0.000466259765625,0,0,70,3109447,1422703,117408,1080822,1399208,858842,246013,219441,Tag0,unknown
364,1611472166348,26,-1188,-0.00026103515625000004,0,0,70,3109447,1422703,117408,1080822,1399208,858842,246013,219441,Tag0,unknown
365,1611472166371,26,1791,0.0003935302734375,0,0,70,3109447,1422703,117408,1080822,1399208,858842,246013,219441,Tag0,unknown
366,1611472166381,26,151,3.31787109375e-05,0,0,70,3109447,1422703,117408,1080822,1399208,858842,246013,219441,Tag0,unknown
367,1611472166391,26,171,3.75732421875e-05,0,0,70,3109447,1422703,117408,1080822,1399208,858842,246013,219441,Tag0,unknown
368,1611472166407,26,1381,0.00030344238281250003,0,0,70,3109447,1422703,117408,1080822,1399208,858842,246013,219441,Tag0,unknown
369,1611472166417,26,-1289,-0.00028322753906250003,0,0,70,3109447,1422703,117408,1080822,1399208,858842,246013,219441,Tag0,unknown
370,1611472166443,26,28,6.15234375e-06,0,0,70,3109447,1422703,117408,1080822,1399208,858842,246013,219441,Tag0,unknown
371,1611472166470,26,-957,-0.0002102783203125,0,0,70,3109447,1422703,117408,1080822,1399208,858842,246013,219441,Tag0,unknown
372,1611472166480,26,-316,-6.943359375000001e-05,0,0,70,3109447,1422703,117408,1080822,1399208,858842,246013,219441,Tag0,unknown
373,1611472166497,26,187,4.10888671875e-05,0,0,70,3109447,1422703,117408,1080822,1399208,858842,246013,219441,Tag0,unknown
374,1611472166522,26,-1256,-0.0002759765625,0,0,70,3109447,1422703,117408,1080822,1399208,858842,246013,219441,Tag0,unknown
375,1611472166534,26,119,2.6147460937500007e-05,0,0,70,3109447,1422703,117408,1080822,1399208,858842,246013,219441,Tag0,unknown
376,1611472166544,26,474,0.000104150390625,0,0,70,3109447,1422703,117408,1080822,1399208,858842,246013,219441,Tag0,unknown
377,1611472166575,26,849,0.0001865478515625,0,0,70,277141,853628,141846,71724,125302,113388,75207,16771591,Tag0,unknown
378,1611472166585,26,1395,0.0003065185546875,0,0,70,277141,853628,141846,71724,125302,113388,75207,16771591,Tag0,unknown
379,1611472166604,26,-1096,-0.0002408203125,0,0,70,277141,853628,141846,71724,125302,113388,75207,16771591,Tag0,unknown
380,1611472166615,26,-2048,-0.00045,0,0,70,277141,853628,141846,71724,125302,113388,75207,16771591,Tag0,unknown
381,1611472166644,26,564,0.00012392578125,0,0,70,277141,853628,141846,71724,125302,113388,75207,16771591,Tag0,unknown
382,1611472166665,26,-428,-9.404296875e-05,0,0,70,277141,853628,141846,71724,125302,113388,75207,16771591,Tag0,unknown
383,1611472166684,26,-1217,-0.0002674072265625,0,0,70,277141,853628,141846,71724,125302,113388,75207,16771591,Tag0,unknown
384,1611472166700,26,-1385,-0.0003043212890625,0,0,70,277141,853628,141846,71724,125302,113388,75207,16771591,Tag0,unknown
385,1611472166710,26,-1268,-0.00027861328125,0,0,70,277141,853628,141846,71724,125302,113388,75207,16771591,Tag0,unknown
386,1611472166720,26,855,0.0001878662109375,0,0,70,277141,853628,141846,71724,125302,113388,75207,16771591,Tag0,unknown
387,1611472166730,26,864,0.00018984375,0,0,70,277141,853628,141846,71724,125302,113388,75207,16771591,Tag0,unknown
388,1611472166747,26,1160,0.0002548828125,0,0,70,277141,853628,141846,71724,125302,113388,75207,16771591,Tag0,unknown
389,1611472166765,26,1750,0.000384521484375,0,0,70,277141,853628,141846,71724,125302,113388,75207,16771591,Tag0,unknown
390,1611472166789,26,152,3.33984375e-05,0,0,70,277141,853628,141846,71724,125302,113388,75207,16771591,Tag0,unknown
391,1611472166803,26,-394,-8.6572265625e-05,0,0,70,277141,853628,141846,71724,125302,113388,75207,16771591,Tag0,unknown
392,1611472166813,26,579,0.0001272216796875,0,0,70,277141,853628,141846,71724,125302,113388,75207,16771591,Tag0,unknown
393,1611472166823,26,-700,-0.00015380859375,0,0,70,277141,853628,141846,71724,125302,113388,75207,16771591,Tag0,unknown
394,1611472166836,26,237,5.20751953125e-05,0,0,70,277141,853628,141846,71724,125302,113388,75207,16771591,Tag0,unknown
395,1611472166846,26,-1286,-0.000282568359375,0,0,70,277141,853628,141846,71724,125302,113388,75207,16771591,Tag0,unknown
396,1611472166856,26,69,1.51611328125e-05,0,0,70,277141,853628,141846,71724,125302,113388,75207,16771591,Tag0,unknown
397,1611472166869,26,-247,-5.42724609375e-05,0,0,70,277141,853628,141846,71724,125302,113388,75207,16771591,Tag0,unknown
398,1611472166938,26,-692,-0.00015205078125,0,0,70,277141,853628,141846,71724,125302,113388,75207,16771591,Tag0,unknown
399,1611472166956,26,381,8.371582031250001e-05,0,0,70,277141,853628,141846,71724,125302,113388,75207,16771591,Tag0,unknown
400,1611472166966,26,-869,-0.0001909423828125,0,0,70,277141,853628,141846,71724,125302,113388,75207,16771591,Tag0,unknown
401,1611472167004,26,1313,0.0002885009765625,0,0,70,277141,853628,141846,71724,125302,113388,75207,16771591,Tag0,unknown
402,1611472167020,26,277,6.086425781250001e-05,0,0,70,277141,853628,141846,71724,125302,113388,75207,16771591,Tag0,unknown
403,1611472167030,26,146,3.2080078125000004e-05,0,0,70,277141,853628,141846,71724,125302,113388,75207,16771591,Tag0,unknown
404,1611472167073,26,24,5.2734375e-06,0,0,70,277141,853628,141846,71724,125302,113388,75207,16771591,Tag0,unknown
405,1611472167090,26,488,0.0001072265625,0,0,70,277141,853628,141846,71724,125302,113388,75207,16771591,Tag0,unknown
406,1611472167100,26,1089,0.0002392822265625,0,0,70,277141,853628,141846,71724,125302,113388,75207,16771591,Tag0,unknown
407,1611472167139,26,885,0.0001944580078125,0,0,70,277141,853628,141846,71724,125302,113388,75207,16771591,Tag0,unknown
408,1611472167150,26,-995,-0.0002186279296875,0,0,70,277141,853628,141846,71724,125302,113388,75207,16771591,Tag0,unknown
409,1611472167207,26,284,6.240234375e-05,0,0,70,277141,853628,141846,71724,125302,113388,75207,16771591,Tag0,unknown
410,1611472167218,26,-1302,-0.000286083984375,0,0,70,277141,853628,141846,71724,125302,113388,75207,16771591,Tag0,unknown
411,1611472167229,26,505,0.0001109619140625,0,0,70,277141,853628,141846,71724,125302,113388,75207,16771591,Tag0,unknown
412,1611472167277,26,-261,-5.73486328125e-05,0,0,70,277141,853628,141846,71724,125302,113388,75207,16771591,Tag0,unknown
413,1611472167301,26,611,0.0001342529296875,0,0,70,277141,853628,141846,71724,125302,113388,75207,16771591,Tag0,unknown
414,1611472167311,26,-633,-0.00013908691406250002,0,0,70,277141,853628,141846,71724,125302,113388,75207,16771591,Tag0,unknown
415,1611472167344,26,-917,-0.0002014892578125,0,0,70,277141,853628,141846,71724,125302,113388,75207,16771591,Tag0,unknown
416,1611472167367,26,-2048,-0.00045,0,0,70,277141,853628,141846,71724,125302,113388,75207,16771591,Tag0,unknown
417,1611472167412,26,-1241,-0.0002726806640625,0,0,70,277141,853628,141846,71724,125302,113388,75207,16771591,Tag0,unknown
418,1611472167442,26,-196,-4.306640625e-05,0,0,70,277141,853628,141846,71724,125302,113388,75207,16771591,Tag0,unknown
419,1611472167455,26,-217,-4.76806640625e-05,0,0,70,277141,853628,141846,71724,125302,113388,75207,16771591,Tag0,unknown
420,1611472167465,26,-39,-8.5693359375e-06,0,0,70,277141,853628,141846,71724,125302,113388,75207,16771591,Tag0,unknown
421,1611472167475,26,533,0.0001171142578125,0,0,70,277141,853628,141846,71724,125302,113388,75207,16771591,Tag0,unknown
422,1611472167486,26,-707,-0.00015534667968750002,0,0,70,277141,853628,141846,71724,125302,113388,75207,16771591,Tag0,unknown
423,1611472167496,26,-201,-4.41650390625e-05,0,0,70,277141,853628,141846,71724,125302,113388,75207,16771591,Tag0,unknown
424,1611472167507,26,-1948,-0.00042802734375,0,0,70,277141,853628,141846,71724,125302,113388,75207,16771591,Tag0,unknown
425,1611472167517,26,-449,-9.86572265625e-05,0,0,70,277141,853628,141846,71724,125302,113388,75207,16771591,Tag0,unknown
426,1611472167568,26,1213,0.00026652832031250003,0,0,70,724971,281310,100710,269226,68159,37926,69810,16766346,Tag0,unknown
427,1611472167589,26,-627,-0.0001377685546875,0,0,70,724971,281310,100710,269226,68159,37926,69810,16766346,Tag0,unknown
428,1611472167600,26,-760,-0.0001669921875,0,0,70,724971,281310,100710,269226,68159,37926,69810,16766346,Tag0,unknown
429,1611472167610,26,-420,-9.228515625e-05,0,0,70,724971,281310,100710,269226,68159,37926,69810,16766346,Tag0,unknown
430,1611472167621,26,-1971,-0.0004330810546875,0,0,70,724971,281310,100710,269226,68159,37926,69810,16766346,Tag0,unknown
431,1611472167636,26,435,9.55810546875e-05,0,0,70,724971,281310,100710,269226,68159,37926,69810,16766346,Tag0,unknown
432,1611472167652,26,745,0.0001636962890625,0,0,70,724971,281310,100710,269226,68159,37926,69810,16766346,Tag0,unknown
433,1611472167669,26,262,5.7568359375e-05,0,0,70,724971,281310,100710,269226,68159,37926,69810,16766346,Tag0,unknown
434,1611472167679,26,-513,-0.0001127197265625,0,0,70,724971,281310,100710,269226,68159,37926,69810,16766346,Tag0,unknown
435,1611472167689,26,688,0.00015117187500000002,0,0,70,724971,281310,100710,269226,68159,37926,69810,16766346,Tag0,unknown
436,1611472167701,26,920,0.0002021484375,0,0,70,724971,281310,100710,269226,68159,37926,69810,16766346,Tag0,unknown
437,1611472167720,26,481,0.0001056884765625,0,0,70,724971,281310,100710,269226,68159,37926,69810,16766346,Tag0,unknown
438,1611472167734,26,-999,-0.0002195068359375,0,0,70,724971,281310,100710,269226,68159,37926,69810,16766346,Tag0,unknown
439,1611472167757,26,1733,0.0003807861328125,0,0,70,724971,281310,100710,269226,68159,37926,69810,16766346,Tag0,unknown
440,1611472167767,26,508,0.00011162109375,0,0,70,724971,281310,100710,269226,68159,37926,69810,16766346,Tag0,unknown
441,1611472167794,26,856,0.0001880859375,0,0,70,724971,281310,100710,269226,68159,37926,69810,16766346,Tag0,unknown
442,1611472167804,26,804,0.00017666015625,0,0,70,724971,281310,100710,269226,68159,37926,69810,16766346,Tag0,unknown
443,1611472167818,26,-1237,-0.0002718017578125,0,0,70,724971,281310,100710,269226,68159,37926,69810,16766346,Tag0,unknown
444,1611472167828,26,411,9.03076171875e-05,0,0,70,724971,281310,100710,269226,68159,37926,69810,16766346,Tag0,unknown
445,1611472167838,26,391,8.591308593750001e-05,0,0,70,724971,281310,100710,269226,68159,37926,69810,16766346,Tag0,unknown
446,1611472167851,26,24,5.2734375e-06,0,0,70,724971,281310,100710,269226,68159,37926,69810,16766346,Tag0,unknown
447,1611472167868,26,-637,-0.0001399658203125,0,0,70,724971,281310,100710,269226,68159,37926,69810,16766346,Tag0,unknown
448,1611472167885,26,1,2.197265625e-07,0,0,70,724971,281310,100710,269226,68159,37926,69810,16766346,Tag0,unknown
449,1611472167895,26,1092,0.00023994140625000006,0,0,70,724971,281310,100710,269226,68159,37926,69810,16766346,Tag0,unknown
450,1611472167918,26,-1853,-0.0004071533203125,0,0,70,724971,281310,100710,269226,68159,37926,69810,16766346,Tag0,unknown
451,1611472167939,26,-87,-1.91162109375e-05,0,0,70,724971,281310,100710,269226,68159,37926,69810,16766346,Tag0,unknown
452,1611472167952,26,-745,-0.0001636962890625,0,0,70,724971,281310,100710,269226,68159,37926,69810,16766346,Tag0,unknown
453,1611472167962,26,-1451,-0.0003188232421875,0,0,70,724971,281310,100710,269226,68159,37926,69810,16766346,Tag0,unknown
454,1611472167986,26,1859,0.0004084716796875,0,0,70,724971,281310,100710,269226,68159,37926,69810,16766346,Tag0,unknown
455,1611472168003,26,177,3.889160156250001e-05,0,0,70,724971,281310,100710,269226,68159,37926,69810,16766346,Tag0,unknown
456,1611472168013,26,439,9.64599609375e-05,0,0,70,724971,281310,100710,269226,68159,37926,69810,16766346,Tag0,unknown
457,1611472168027,26,-22,-4.833984375e-06,0,0,70,724971,281310,100710,269226,68159,37926,69810,16766346,Tag0,unknown
458,1611472168037,26,-612,-0.00013447265625000002,0,0,70,724971,281310,100710,269226,68159,37926,69810,16766346,Tag0,unknown
459,1611472168053,26,333,7.316894531249999e-05,0,0,70,724971,281310,100710,269226,68159,37926,69810,16766346,Tag0,unknown
460,1611472168072,26,-660,-0.00014501953125,0,0,70,724971,281310,100710,269226,68159,37926,69810,16766346,Tag0,unknown
461,1611472168082,26,19,4.1748046875e-06,0,0,70,724971,281310,100710,269226,68159,37926,69810,16766346,Tag0,unknown
462,1611472168100,26,976,0.000214453125,0,0,70,724971,281310,100710,269226,68159,37926,69810,16766346,Tag0,unknown
463,1611472168118,26,229,5.03173828125e-05,0,0,70,724971,281310,100710,269226,68159,37926,69810,16766346,Tag0,unknown
464,1611472168135,26,-886,-0.000194677734375,0,0,70,724971,281310,100710,269226,68159,37926,69810,16766346,Tag0,unknown
465,1611472168152,26,-665,-0.0001461181640625,0,0,70,724971,281310,100710,269226,68159,37926,69810,16766346,Tag0,unknown
466,1611472168162,26,-525,-0.0001153564453125,0,0,70,724971,281310,100710,269226,68159,37926,69810,16766346,Tag0,unknown
467,1611472168174,26,827,0.0001817138671875,0,0,70,724971,281310,100710,269226,68159,37926,69810,16766346,Tag0,unknown
468,1611472168187,26,663,0.0001456787109375,0,0,70,724971,281310,100710,269226,68159,37926,69810,16766346,Tag0,unknown
469,1611472168207,26,709,0.0001557861328125,0,0,70,724971,281310,100710,269226,68159,37926,69810,16766346,Tag0,unknown
470,1611472168219,26,1633,0.0003588134765625,0,0,70,724971,281310,100710,269226,68159,37926,69810,16766346,Tag0,unknown
471,1611472168229,26,321,7.053222656250001e-05,0,0,70,724971,281310,100710,269226,68159,37926,69810,16766346,Tag0,unknown
472,1611472168251,26,418,9.1845703125e-05,0,0,70,724971,281310,100710,269226,68159,37926,69810,16766346,Tag0,unknown
473,1611472168279,26,-1005,-0.0002208251953125,0,0,70,724971,281310,100710,269226,68159,37926,69810,16766346,Tag0,unknown
474,1611472168301,26,-1700,-0.00037353515625,0,0,70,724971,281310,100710,269226,68159,37926,69810,16766346,Tag0,unknown
475,1611472168311,26,657,0.0001443603515625,0,0,70,724971,281310,100710,269226,68159,37926,69810,16766346,Tag0,unknown
476,1611472168322,26,-1444,-0.00031728515625,0,0,70,724971,281310,100710,269226,68159,37926,69810,16766346,Tag0,unknown
477,1611472168338,26,553,0.0001215087890625,0,0,70,724971,281310,100710,269226,68159,37926,69810,16766346,Tag0,unknown
478,1611472168354,26,123,2.70263671875e-05,0,0,70,724971,281310,100710,269226,68159,37926,69810,16766346,Tag0,unknown
479,1611472168371,26,-1004,-0.00022060546875,0,0,70,724971,281310,100710,269226,68159,37926,69810,16766346,Tag0,unknown
480,1611472168381,26,1734,0.0003810058593750001,0,0,70,724971,281310,100710,269226,68159,37926,69810,16766346,Tag0,unknown
481,1611472168400,26,1692,0.00037177734375,0,0,70,724971,281310,100710,269226,68159,37926,69810,16766346,Tag0,unknown
482,1611472168424,26,1351,0.0002968505859375,0,0,70,724971,281310,100710,269226,68159,37926,69810,16766346,Tag0,unknown
483,1611472168434,26,761,0.0001672119140625,0,0,70,724971,281310,100710,269226,68159,37926,69810,16766346,Tag0,unknown
484,1611472168449,26,874,0.000192041015625,0,0,70,724971,281310,100710,269226,68159,37926,69810,16766346,Tag0,unknown
485,1611472168475,26,601,0.00013205566406249998,0,0,70,724971,281310,100710,269226,68159,37926,69810,16766346,Tag0,unknown
486,1611472168486,26,581,0.0001276611328125,0,0,70,724971,281310,100710,269226,68159,37926,69810,16766346,Tag0,unknown
487,1611472168496,26,309,6.78955078125e-05,0,0,70,724971,281310,100710,269226,68159,37926,69810,16766346,Tag0,unknown
488,1611472168515,26,275,6.04248046875e-05,0,0,70,724971,281310,100710,269226,68159,37926,69810,16766346,Tag0,unknown
489,1611472168525,26,-19,-4.1748046875e-06,0,0,70,724971,281310,100710,269226,68159,37926,69810,16766346,Tag0,unknown
490,1611472168537,26,-34,-7.470703125e-06,0,0,70,724971,281310,100710,269226,68159,37926,69810,16766346,Tag0,unknown
491,1611472168559,26,-94,-2.0654296875e-05,0,0,70,1143411,728052,690885,624379,577543,517638,194724,181098,Tag0,unknown
492,1611472168589,26,124,2.724609375e-05,0,0,70,1143411,728052,690885,624379,577543,517638,194724,181098,Tag0,unknown
493,1611472168600,26,123,2.70263671875e-05,0,0,70,1143411,728052,690885,624379,577543,517638,194724,181098,Tag0,unknown
494,1611472168627,26,-2048,-0.00045,0,0,70,1143411,728052,690885,624379,577543,517638,194724,181098,Tag0,unknown
495,1611472168639,26,-2048,-0.00045,0,0,70,1143411,728052,690885,624379,577543,517638,194724,181098,Tag0,unknown
496,1611472168649,26,-2048,-0.00045,0,0,70,1143411,728052,690885,624379,577543,517638,194724,181098,Tag0,unknown
497,1611472168661,26,-2048,-0.00045,0,0,70,1143411,728052,690885,624379,577543,517638,194724,181098,Tag0,unknown
498,1611472168671,26,-2029,-0.0004458251953125,0,0,70,1143411,728052,690885,624379,577543,517638,194724,181098,Tag0,unknown
499,1611472168686,26,-1438,-0.000315966796875,0,0,70,1143411,728052,690885,624379,577543,517638,194724,181098,Tag0,unknown
500,1611472168703,26,-1083,-0.0002379638671875,0,0,70,1143411,728052,690885,624379,577543,517638,194724,181098,Tag0,unknown
501,1611472168720,26,-878,-0.000192919921875,0,0,70,1143411,728052,690885,624379,577543,517638,194724,181098,Tag0,unknown
502,1611472168738,26,-504,-0.0001107421875,0,0,70,1143411,728052,690885,624379,577543,517638,194724,181098,Tag0,unknown
503,1611472168750,26,-583,-0.0001281005859375,0,0,70,1143411,728052,690885,624379,577543,517638,194724,181098,Tag0,unknown
504,1611472168770,26,-156,-3.427734375e-05,0,0,70,1143411,728052,690885,624379,577543,517638,194724,181098,Tag0,unknown
505,1611472168784,26,-151,-3.31787109375e-05,0,0,70,1143411,728052,690885,624379,577543,517638,194724,181098,Tag0,unknown
506,1611472168804,26,-329,-7.229003906250001e-05,0,0,70,1143411,728052,690885,624379,577543,517638,194724,181098,Tag0,unknown
507,1611472168818,26,-323,-7.09716796875e-05,0,0,70,1143411,728052,690885,624379,577543,517638,194724,181098,Tag0,unknown
508,1611472168828,26,25,5.4931640625e-06,0,0,70,1143411,728052,690885,624379,577543,517638,194724,181098,Tag0,unknown
509,1611472168844,26,-54,-1.1865234375e-05,0,0,70,1143411,728052,690885,624379,577543,517638,194724,181098,Tag0,unknown
510,1611472168854,26,285,6.26220703125e-05,0,0,70,1143411,728052,690885,624379,577543,517638,194724,181098,Tag0,unknown
511,1611472168898,26,-299,-6.56982421875e-05,0,0,70,1143411,728052,690885,624379,577543,517638,194724,181098,Tag0,unknown
512,1611472168925,26,-69,-1.51611328125e-05,0,0,70,1143411,728052,690885,624379,577543,517638,194724,181098,Tag0,unknown
513,1611472168935,26,-325,-7.14111328125e-05,0,0,70,1143411,728052,690885,624379,577543,517638,194724,181098,Tag0,unknown
514,1611472168945,26,-149,-3.27392578125e-05,0,0,70,1143411,728052,690885,624379,577543,517638,194724,181098,Tag0,unknown
515,1611472168955,26,-350,-7.6904296875e-05,0,0,70,1143411,728052,690885,624379,577543,517638,194724,181098,Tag0,unknown
516,1611472168974,26,-277,-6.086425781250001e-05,0,0,70,1143411,728052,690885,624379,577543,517638,194724,181098,Tag0,unknown
517,1611472168988,26,-277,-6.086425781250001e-05,0,0,70,1143411,728052,690885,624379,577543,517638,194724,181098,Tag0,unknown
518,1611472168998,26,33,7.2509765625e-06,0,0,70,1143411,728052,690885,624379,577543,517638,194724,181098,Tag0,unknown
519,1611472169015,26,32,7.03125e-06,0,0,70,1143411,728052,690885,624379,577543,517638,194724,181098,Tag0,unknown
520,1611472169035,26,-103,-2.26318359375e-05,0,0,70,1143411,728052,690885,624379,577543,517638,194724,181098,Tag0,unknown
521,1611472169051,26,275,6.04248046875e-05,0,0,70,1143411,728052,690885,624379,577543,517638,194724,181098,Tag0,unknown
522,1611472169069,26,263,5.778808593750001e-05,0,0,70,1143411,728052,690885,624379,577543,517638,194724,181098,Tag0,unknown
523,1611472169079,26,1791,0.0003935302734375,0,0,70,1143411,728052,690885,624379,577543,517638,194724,181098,Tag0,unknown
524,1611472169104,26,933,0.0002050048828125,0,0,70,1143411,728052,690885,624379,577543,517638,194724,181098,Tag0,unknown
525,1611472169120,26,1791,0.0003935302734375,0,0,70,1143411,728052,690885,624379,577543,517638,194724,181098,Tag0,unknown
526,1611472169136,26,640,0.000140625,0,0,70,1143411,728052,690885,624379,577543,517638,194724,181098,Tag0,unknown
527,1611472169146,26,411,9.03076171875e-05,0,0,70,1143411,728052,690885,624379,577543,517638,194724,181098,Tag0,unknown
528,1611472169163,26,1474,0.00032387695312500005,0,0,70,1143411,728052,690885,624379,577543,517638,194724,181098,Tag0,unknown
529,1611472169173,26,192,4.21875e-05,0,0,70,1143411,728052,690885,624379,577543,517638,194724,181098,Tag0,unknown
530,1611472169197,26,-323,-7.09716796875e-05,0,0,70,1143411,728052,690885,624379,577543,517638,194724,181098,Tag0,unknown
531,1611472169207,26,1305,0.0002867431640625,0,0,70,1143411,728052,690885,624379,577543,517638,194724,181098,Tag0,unknown
532,1611472169220,26,1011,0.0002221435546875,0,0,70,1143411,728052,690885,624379,577543,517638,194724,181098,Tag0,unknown
533,1611472169230,26,-450,-9.8876953125e-05,0,0,70,1143411,728052,690885,624379,577543,517638,194724,181098,Tag0,unknown
534,1611472169240,26,1109,0.0002436767578125,0,0,70,1143411,728052,690885,624379,577543,517638,194724,181098,Tag0,unknown
535,1611472169255,26,903,0.0001984130859375,0,0,70,1143411,728052,690885,624379,577543,517638,194724,181098,Tag0,unknown
536,1611472169275,26,-485,-0.0001065673828125,0,0,70,1143411,728052,690885,624379,577543,517638,194724,181098,Tag0,unknown
537,1611472169285,26,934,0.000205224609375,0,0,70,1143411,728052,690885,624379,577543,517638,194724,181098,Tag0,unknown
538,1611472169295,26,170,3.7353515625e-05,0,0,70,1143411,728052,690885,624379,577543,517638,194724,181098,Tag0,unknown
539,1611472169309,26,549,0.0001206298828125,0,0,70,1143411,728052,690885,624379,577543,517638,194724,181098,Tag0,unknown
540,1611472169320,26,-1049,-0.0002304931640625,0,0,70,1143411,728052,690885,624379,577543,517638,194724,181098,Tag0,unknown
541,1611472169344,26,-15,-3.2958984375e-06,0,0,70,1143411,728052,690885,624379,577543,517638,194724,181098,Tag0,unknown
542,1611472169356,26,658,0.000144580078125,0,0,70,1143411,728052,690885,624379,577543,517638,194724,181098,Tag0,unknown
543,1611472169370,26,667,0.0001465576171875,0,0,70,1143411,728052,690885,624379,577543,517638,194724,181098,Tag0,unknown
544,1611472169388,26,310,6.8115234375e-05,0,0,70,1143411,728052,690885,624379,577543,517638,194724,181098,Tag0,unknown
545,1611472169405,26,691,0.0001518310546875,0,0,70,1143411,728052,690885,624379,577543,517638,194724,181098,Tag0,unknown
546,1611472169415,26,757,0.0001663330078125,0,0,70,1143411,728052,690885,624379,577543,517638,194724,181098,Tag0,unknown
547,1611472169429,26,490,0.000107666015625,0,0,70,1143411,728052,690885,624379,577543,517638,194724,181098,Tag0,unknown
548,1611472169439,26,857,0.0001883056640625,0,0,70,1143411,728052,690885,624379,577543,517638,194724,181098,Tag0,unknown
549,1611472169453,26,-728,-0.0001599609375,0,0,70,1143411,728052,690885,624379,577543,517638,194724,181098,Tag0,unknown
550,1611472169469,26,-194,-4.2626953125e-05,0,0,70,1143411,728052,690885,624379,577543,517638,194724,181098,Tag0,unknown
551,1611472169486,26,-594,-0.00013051757812500002,0,0,70,1143411,728052,690885,624379,577543,517638,194724,181098,Tag0,unknown
552,1611472169505,26,-2048,-0.00045,0,0,70,1143411,728052,690885,624379,577543,517638,194724,181098,Tag0,unknown
553,1611472169515,26,-163,-3.581542968750001e-05,0,0,70,1143411,728052,690885,624379,577543,517638,194724,181098,Tag0,unknown
554,1611472169528,26,-2048,-0.00045,0,0,70,1143411,728052,690885,624379,577543,517638,194724,181098,Tag0,unknown
555,1611472169538,26,-2048,-0.00045,0,0,70,1143411,728052,690885,624379,577543,517638,194724,181098,Tag0,unknown
556,1611472169562,51,-2048,-0.00045,0,0,70,746143,410185,270202,37256,38515,33141,92426,18410,Tag0,unknown
557,1611472169572,51,-1528,-0.0003357421875,0,0,70,746143,410185,270202,37256,38515,33141,92426,18410,Tag0,unknown
558,1611472169582,51,-1228,-0.00026982421875,0,0,70,746143,410185,270202,37256,38515,33141,92426,18410,Tag0,unknown
559,1611472169593,51,-707,-0.00015534667968750002,0,0,70,746143,410185,270202,37256,38515,33141,92426,18410,Tag0,unknown
560,1611472169619,51,-887,-0.00019489746093750006,0,0,70,746143,410185,270202,37256,38515,33141,92426,18410,Tag0,unknown
561,1611472169638,51,1701,0.0003737548828125,0,0,70,746143,410185,270202,37256,38515,33141,92426,18410,Tag0,unknown
562,1611472169653,51,551,0.0001210693359375,0,0,70,746143,410185,270202,37256,38515,33141,92426,18410,Tag0,unknown
563,1611472169674,51,1791,0.0003935302734375,0,0,70,746143,410185,270202,37256,38515,33141,92426,18410,Tag0,unknown
564,1611472169689,51,1339,0.0002942138671875,0,0,70,746143,410185,270202,37256,38515,33141,92426,18410,Tag0,unknown
565,1611472169699,51,547,0.0001201904296875,0,0,70,746143,410185,270202,37256,38515,33141,92426,18410,Tag0,unknown
566,1611472169714,51,1791,0.0003935302734375,0,0,70,746143,410185,270202,37256,38515,33141,92426,18410,Tag0,unknown
567,1611472169724,51,1383,0.00030388183593750003,0,0,70,746143,410185,270202,37256,38515,33141,92426,18410,Tag0,unknown
568,1611472169749,51,136,2.98828125e-05,0,0,70,746143,410185,270202,37256,38515,33141,92426,18410,Tag0,unknown
569,1611472169759,51,731,0.00016062011718749998,0,0,70,746143,410185,270202,37256,38515,33141,92426,18410,Tag0,unknown
570,1611472169771,51,835,0.0001834716796875,0,0,70,746143,410185,270202,37256,38515,33141,92426,18410,Tag0,unknown
571,1611472169787,51,333,7.316894531249999e-05,0,0,70,746143,410185,270202,37256,38515,33141,92426,18410,Tag0,unknown
572,1611472169805,51,161,3.53759765625e-05,0,0,70,746143,410185,270202,37256,38515,33141,92426,18410,Tag0,unknown
573,1611472169821,51,74,1.6259765625e-05,0,0,70,746143,410185,270202,37256,38515,33141,92426,18410,Tag0,unknown
574,1611472169837,51,481,0.0001056884765625,0,0,70,746143,410185,270202,37256,38515,33141,92426,18410,Tag0,unknown
575,1611472169859,51,141,3.09814453125e-05,0,0,70,746143,410185,270202,37256,38515,33141,92426,18410,Tag0,unknown
576,1611472169872,51,376,8.261718750000001e-05,0,0,70,746143,410185,270202,37256,38515,33141,92426,18410,Tag0,unknown
577,1611472169892,51,277,6.086425781250001e-05,0,0,70,746143,410185,270202,37256,38515,33141,92426,18410,Tag0,unknown
578,1611472169906,51,269,5.91064453125e-05,0,0,70,746143,410185,270202,37256,38515,33141,92426,18410,Tag0,unknown
579,1611472169916,51,-67,-1.4721679687500003e-05,0,0,70,746143,410185,270202,37256,38515,33141,92426,18410,Tag0,unknown
580,1611472169938,51,-115,-2.52685546875e-05,0,0,70,746143,410185,270202,37256,38515,33141,92426,18410,Tag0,unknown
581,1611472169965,51,-124,-2.724609375e-05,0,0,70,746143,410185,270202,37256,38515,33141,92426,18410,Tag0,unknown
582,1611472169975,51,84,1.8457031250000007e-05,0,0,70,746143,410185,270202,37256,38515,33141,92426,18410,Tag0,unknown
583,1611472169989,51,26,5.712890625e-06,0,0,70,746143,410185,270202,37256,38515,33141,92426,18410,Tag0,unknown
584,1611472169999,51,-125,-2.74658203125e-05,0,0,70,746143,410185,270202,37256,38515,33141,92426,18410,Tag0,unknown
585,1611472170021,51,-507,-0.0001114013671875,0,0,70,746143,410185,270202,37256,38515,33141,92426,18410,Tag0,unknown
586,1611472170039,51,-123,-2.70263671875e-05,0,0,70,746143,410185,270202,37256,38515,33141,92426,18410,Tag0,unknown
587,1611472170056,51,-786,-0.000172705078125,0,0,70,746143,410185,270202,37256,38515,33141,92426,18410,Tag0,unknown
588,1611472170066,51,-666,-0.00014633789062499998,0,0,70,746143,410185,270202,37256,38515,33141,92426,18410,Tag0,unknown
589,1611472170078,51,-696,-0.0001529296875,0,0,70,746143,410185,270202,37256,38515,33141,92426,18410,Tag0,unknown
590,1611472170088,51,-540,-0.00011865234375,0,0,70,746143,410185,270202,37256,38515,33141,92426,18410,Tag0,unknown
591,1611472170111,51,-75,-1.64794921875e-05,0,0,70,746143,410185,270202,37256,38515,33141,92426,18410,Tag0,unknown
592,1611472170121,51,-26,-5.712890625e-06,0,0,70,746143,410185,270202,37256,38515,33141,92426,18410,Tag0,unknown
593,1611472170149,51,346,7.6025390625e-05,0,0,70,746143,410185,270202,37256,38515,33141,92426,18410,Tag0,unknown
594,1611472170159,51,601,0.00013205566406249998,0,0,70,746143,410185,270202,37256,38515,33141,92426,18410,Tag0,unknown
595,1611472170173,51,-178,-3.9111328125e-05,0,0,70,746143,410185,270202,37256,38515,33141,92426,18410,Tag0,unknown
596,1611472170190,51,-236,-5.185546875e-05,0,0,70,746143,410185,270202,37256,38515,33141,92426,18410,Tag0,unknown
597,1611472170210,51,-517,-0.0001135986328125,0,0,70,746143,410185,270202,37256,38515,33141,92426,18410,Tag0,unknown
598,1611472170224,51,601,0.00013205566406249998,0,0,70,746143,410185,270202,37256,38515,33141,92426,18410,Tag0,unknown
599,1611472170234,51,-55,-1.20849609375e-05,0,0,70,746143,410185,270202,37256,38515,33141,92426,18410,Tag0,unknown
600,1611472170247,51,540,0.00011865234375,0,0,70,746143,410185,270202,37256,38515,33141,92426,18410,Tag0,unknown
601,1611472170258,51,-626,-0.000137548828125,0,0,70,746143,410185,270202,37256,38515,33141,92426,18410,Tag0,unknown
602,1611472170280,51,408,8.964843749999999e-05,0,0,70,746143,410185,270202,37256,38515,33141,92426,18410,Tag0,unknown
603,1611472170290,51,1035,0.0002274169921875,0,0,70,746143,410185,270202,37256,38515,33141,92426,18410,Tag0,unknown
604,1611472170304,51,-658,-0.000144580078125,0,0,70,746143,410185,270202,37256,38515,33141,92426,18410,Tag0,unknown
605,1611472170321,51,-456,-0.0001001953125,0,0,70,746143,410185,270202,37256,38515,33141,92426,18410,Tag0,unknown
606,1611472170342,51,529,0.0001162353515625,0,0,70,746143,410185,270202,37256,38515,33141,92426,18410,Tag0,unknown
607,1611472170361,51,249,5.47119140625e-05,0,0,70,746143,410185,270202,37256,38515,33141,92426,18410,Tag0,unknown
608,1611472170377,51,416,9.140625e-05,0,0,70,746143,410185,270202,37256,38515,33141,92426,18410,Tag0,unknown
609,1611472170388,51,551,0.0001210693359375,0,0,70,746143,410185,270202,37256,38515,33141,92426,18410,Tag0,unknown
610,1611472170398,51,-873,-0.0001918212890625,0,0,70,746143,410185,270202,37256,38515,33141,92426,18410,Tag0,unknown
611,1611472170425,51,236,5.185546875e-05,0,0,70,746143,410185,270202,37256,38515,33141,92426,18410,Tag0,unknown
612,1611472170438,51,-1093,-0.0002401611328125,0,0,70,746143,410185,270202,37256,38515,33141,92426,18410,Tag0,unknown
613,1611472170457,51,560,0.000123046875,0,0,70,746143,410185,270202,37256,38515,33141,92426,18410,Tag0,unknown
614,1611472170476,51,280,6.15234375e-05,0,0,70,746143,410185,270202,37256,38515,33141,92426,18410,Tag0,unknown
615,1611472170491,51,544,0.00011953125,0,0,70,746143,410185,270202,37256,38515,33141,92426,18410,Tag0,unknown
616,1611472170507,51,459,0.0001008544921875,0,0,70,746143,410185,270202,37256,38515,33141,92426,18410,Tag0,unknown
617,1611472170544,51,-401,-8.811035156250001e-05,0,0,70,746143,410185,270202,37256,38515,33141,92426,18410,Tag0,unknown
618,1611472170560,51,469,0.0001030517578125,0,0,70,746143,410185,270202,37256,38515,33141,92426,18410,Tag0,unknown
619,1611472170570,51,-635,-0.0001395263671875,0,0,70,746143,410185,270202,37256,38515,33141,92426,18410,Tag0,unknown
620,1611472170608,26,-137,-3.01025390625e-05,0,0,70,1539269,379927,233262,165863,282504,155233,277126,133246,Tag0,unknown
621,1611472170618,26,-411,-9.03076171875e-05,0,0,70,1539269,379927,233262,165863,282504,155233,277126,133246,Tag0,unknown
622,1611472170630,26,-619,-0.0001360107421875,0,0,70,1539269,379927,233262,165863,282504,155233,277126,133246,Tag0,unknown
623,1611472170640,26,299,6.56982421875e-05,0,0,70,1539269,379927,233262,165863,282504,155233,277126,133246,Tag0,unknown
624,1611472170655,26,977,0.0002146728515625,0,0,70,1539269,379927,233262,165863,282504,155233,277126,133246,Tag0,unknown
625,1611472170672,26,648,0.0001423828125,0,0,70,1539269,379927,233262,165863,282504,155233,277126,133246,Tag0,unknown
626,1611472170716,26,-1143,-0.0002511474609375,0,0,70,1539269,379927,233262,165863,282504,155233,277126,133246,Tag0,unknown
627,1611472170728,26,696,0.0001529296875,0,0,70,1539269,379927,233262,165863,282504,155233,277126,133246,Tag0,unknown
628,1611472170738,26,-273,-5.9985351562500014e-05,0,0,70,1539269,379927,233262,165863,282504,155233,277126,133246,Tag0,unknown
629,1611472170748,26,53,1.1645507812500003e-05,0,0,70,1539269,379927,233262,165863,282504,155233,277126,133246,Tag0,unknown
630,1611472170763,26,-2048,-0.00045,0,0,70,1539269,379927,233262,165863,282504,155233,277126,133246,Tag0,unknown
631,1611472170773,26,-2048,-0.00045,0,0,70,1539269,379927,233262,165863,282504,155233,277126,133246,Tag0,unknown
632,1611472170783,26,-969,-0.0002129150390625,0,0,70,1539269,379927,233262,165863,282504,155233,277126,133246,Tag0,unknown
633,1611472170796,26,-211,-4.63623046875e-05,0,0,70,1539269,379927,233262,165863,282504,155233,277126,133246,Tag0,unknown
634,1611472170806,26,851,0.0001869873046875,0,0,70,1539269,379927,233262,165863,282504,155233,277126,133246,Tag0,unknown
635,1611472170830,26,1865,0.0004097900390625,0,0,70,1539269,379927,233262,165863,282504,155233,277126,133246,Tag0,unknown
636,1611472170840,26,823,0.0001808349609375,0,0,70,1539269,379927,233262,165863,282504,155233,277126,133246,Tag0,unknown
637,1611472170857,26,1791,0.0003935302734375,0,0,70,1539269,379927,233262,165863,282504,155233,277126,133246,Tag0,unknown
638,1611472170877,26,753,0.00016545410156250002,0,0,70,1539269,379927,233262,165863,282504,155233,277126,133246,Tag0,unknown
639,1611472170892,26,1835,0.0004031982421875,0,0,70,1539269,379927,233262,165863,282504,155233,277126,133246,Tag0,unknown
640,1611472170910,26,673,0.0001478759765625,0,0,70,1539269,379927,233262,165863,282504,155233,277126,133246,Tag0,unknown
641,1611472170928,26,407,8.94287109375e-05,0,0,70,1539269,379927,233262,165863,282504,155233,277126,133246,Tag0,unknown
642,1611472170938,26,-2048,-0.00045,0,0,70,1539269,379927,233262,165863,282504,155233,277126,133246,Tag0,unknown
643,1611472170950,26,-1829,-0.0004018798828125,0,0,70,1539269,379927,233262,165863,282504,155233,277126,133246,Tag0,unknown
644,1611472170960,26,-1457,-0.0003201416015625,0,0,70,1539269,379927,233262,165863,282504,155233,277126,133246,Tag0,unknown
645,1611472170976,26,-1318,-0.00028959960937500003,0,0,70,1539269,379927,233262,165863,282504,155233,277126,133246,Tag0,unknown
646,1611472170994,26,-836,-0.00018369140625,0,0,70,1539269,379927,233262,165863,282504,155233,277126,133246,Tag0,unknown
647,1611472171006,26,-428,-9.404296875e-05,0,0,70,1539269,379927,233262,165863,282504,155233,277126,133246,Tag0,unknown
648,1611472171027,26,-337,-7.40478515625e-05,0,0,70,1539269,379927,233262,165863,282504,155233,277126,133246,Tag0,unknown
649,1611472171041,26,-200,-4.39453125e-05,0,0,70,1539269,379927,233262,165863,282504,155233,277126,133246,Tag0,unknown
650,1611472171064,26,1718,0.000377490234375,0,0,70,1539269,379927,233262,165863,282504,155233,277126,133246,Tag0,unknown
651,1611472171077,26,1791,0.0003935302734375,0,0,70,1539269,379927,233262,165863,282504,155233,277126,133246,Tag0,unknown
652,1611472171098,26,1354,0.00029750976562500003,0,0,70,1539269,379927,233262,165863,282504,155233,277126,133246,Tag0,unknown
653,1611472171112,26,656,0.00014414062499999998,0,0,70,1539269,379927,233262,165863,282504,155233,277126,133246,Tag0,unknown
654,1611472171122,26,1636,0.00035947265625000004,0,0,70,1539269,379927,233262,165863,282504,155233,277126,133246,Tag0,unknown
655,1611472171132,26,1791,0.0003935302734375,0,0,70,1539269,379927,233262,165863,282504,155233,277126,133246,Tag0,unknown
656,1611472171142,26,995,0.0002186279296875,0,0,70,1539269,379927,233262,165863,282504,155233,277126,133246,Tag0,unknown
657,1611472171156,26,1252,0.00027509765625,0,0,70,1539269,379927,233262,165863,282504,155233,277126,133246,Tag0,unknown
658,1611472171173,26,1571,0.00034519042968750004,0,0,70,1539269,379927,233262,165863,282504,155233,277126,133246,Tag0,unknown
659,1611472171190,26,-85,-1.86767578125e-05,0,0,70,1539269,379927,233262,165863,282504,155233,277126,133246,Tag0,unknown
660,1611472171220,26,730,0.000160400390625,0,0,70,1539269,379927,233262,165863,282504,155233,277126,133246,Tag0,unknown
661,1611472171243,26,825,0.0001812744140625,0,0,70,1539269,379927,233262,165863,282504,155233,277126,133246,Tag0,unknown
662,1611472171254,26,-87,-1.91162109375e-05,0,0,70,1539269,379927,233262,165863,282504,155233,277126,133246,Tag0,unknown
663,1611472171269,26,-73,-1.6040039062500002e-05,0,0,70,1539269,379927,233262,165863,282504,155233,277126,133246,Tag0,unknown
664,1611472171297,26,598,0.000131396484375,0,0,70,1539269,379927,233262,165863,282504,155233,277126,133246,Tag0,unknown
665,1611472171310,26,549,0.0001206298828125,0,0,70,1539269,379927,233262,165863,282504,155233,277126,133246,Tag0,unknown
666,1611472171320,26,-294,-6.4599609375e-05,0,0,70,1539269,379927,233262,165863,282504,155233,277126,133246,Tag0,unknown
667,1611472171330,26,-178,-3.9111328125e-05,0,0,70,1539269,379927,233262,165863,282504,155233,277126,133246,Tag0,unknown
668,1611472171342,26,293,6.43798828125e-05,0,0,70,1539269,379927,233262,165863,282504,155233,277126,133246,Tag0,unknown
669,1611472171369,26,-1291,-0.00028366699218750004,0,0,70,1539269,379927,233262,165863,282504,155233,277126,133246,Tag0,unknown
670,1611472171390,26,292,6.416015625000001e-05,0,0,70,1539269,379927,233262,165863,282504,155233,277126,133246,Tag0,unknown
671,1611472171408,26,-588,-0.00012919921875,0,0,70,1539269,379927,233262,165863,282504,155233,277126,133246,Tag0,unknown
672,1611472171425,26,-1156,-0.00025400390625,0,0,70,1539269,379927,233262,165863,282504,155233,277126,133246,Tag0,unknown
673,1611472171456,26,-59,-1.29638671875e-05,0,0,70,1539269,379927,233262,165863,282504,155233,277126,133246,Tag0,unknown
674,1611472171477,26,123,2.70263671875e-05,0,0,70,1539269,379927,233262,165863,282504,155233,277126,133246,Tag0,unknown
675,1611472171487,26,-196,-4.306640625e-05,0,0,70,1539269,379927,233262,165863,282504,155233,277126,133246,Tag0,unknown
676,1611472171497,26,-243,-5.33935546875e-05,0,0,70,1539269,379927,233262,165863,282504,155233,277126,133246,Tag0,unknown
677,1611472171507,26,-77,-1.69189453125e-05,0,0,70,1539269,379927,233262,165863,282504,155233,277126,133246,Tag0,unknown
678,1611472171525,26,-2048,-0.00045,0,0,70,1539269,379927,233262,165863,282504,155233,277126,133246,Tag0,unknown
679,1611472171535,26,1791,0.0003935302734375,0,0,70,573937,505701,20195,42284,16764210,16760125,15443,16757566,Tag0,unknown
680,1611472171548,26,1831,0.0004023193359375,0,0,70,573937,505701,20195,42284,16764210,16760125,15443,16757566,Tag0,unknown
681,1611472171558,26,1484,0.00032607421875000003,0,0,70,573937,505701,20195,42284,16764210,16760125,15443,16757566,Tag0,unknown
682,1611472171583,26,-2048,-0.00045,0,0,70,573937,505701,20195,42284,16764210,16760125,15443,16757566,Tag0,unknown
683,1611472171593,26,-2171,-0.0004770263671875001,0,0,70,573937,505701,20195,42284,16764210,16760125,15443,16757566,Tag0,unknown
684,1611472171633,26,-1164,-0.00025576171875,0,0,70,573937,505701,20195,42284,16764210,16760125,15443,16757566,Tag0,unknown
685,1611472171644,26,-776,-0.0001705078125,0,0,70,573937,505701,20195,42284,16764210,16760125,15443,16757566,Tag0,unknown
686,1611472171655,26,-89,-1.95556640625e-05,0,0,70,573937,505701,20195,42284,16764210,16760125,15443,16757566,Tag0,unknown
687,1611472171665,26,1205,0.0002647705078125,0,0,70,573937,505701,20195,42284,16764210,16760125,15443,16757566,Tag0,unknown
688,1611472171675,26,1190,0.000261474609375,0,0,70,573937,505701,20195,42284,16764210,16760125,15443,16757566,Tag0,unknown
689,1611472171693,26,533,0.0001171142578125,0,0,70,573937,505701,20195,42284,16764210,16760125,15443,16757566,Tag0,unknown
690,1611472171708,26,144,3.1640625e-05,0,0,70,573937,505701,20195,42284,16764210,16760125,15443,16757566,Tag0,unknown
691,1611472171718,26,-138,-3.0322265625e-05,0,0,70,573937,505701,20195,42284,16764210,16760125,15443,16757566,Tag0,unknown
692,1611472171753,26,-583,-0.0001281005859375,0,0,70,573937,505701,20195,42284,16764210,16760125,15443,16757566,Tag0,unknown
693,1611472171774,26,-475,-0.0001043701171875,0,0,70,573937,505701,20195,42284,16764210,16760125,15443,16757566,Tag0,unknown
694,1611472171790,26,-657,-0.0001443603515625,0,0,70,573937,505701,20195,42284,16764210,16760125,15443,16757566,Tag0,unknown
695,1611472171807,26,-455,-9.99755859375e-05,0,0,70,573937,505701,20195,42284,16764210,16760125,15443,16757566,Tag0,unknown
696,1611472171827,26,1361,0.0002990478515625,0,0,70,573937,505701,20195,42284,16764210,16760125,15443,16757566,Tag0,unknown
697,1611472171844,26,-135,-2.96630859375e-05,0,0,70,573937,505701,20195,42284,16764210,16760125,15443,16757566,Tag0,unknown
698,1611472171854,26,-409,-8.986816406250001e-05,0,0,70,573937,505701,20195,42284,16764210,16760125,15443,16757566,Tag0,unknown
699,1611472171864,26,-19,-4.1748046875e-06,0,0,70,573937,505701,20195,42284,16764210,16760125,15443,16757566,Tag0,unknown
700,1611472171876,26,1307,0.0002871826171875,0,0,70,573937,505701,20195,42284,16764210,16760125,15443,16757566,Tag0,unknown
701,1611472171937,26,125,2.74658203125e-05,0,0,70,573937,505701,20195,42284,16764210,16760125,15443,16757566,Tag0,unknown
702,1611472171964,26,57,1.25244140625e-05,0,0,70,573937,505701,20195,42284,16764210,16760125,15443,16757566,Tag0,unknown
703,1611472171974,26,393,8.63525390625e-05,0,0,70,573937,505701,20195,42284,16764210,16760125,15443,16757566,Tag0,unknown
704,1611472172002,26,472,0.0001037109375,0,0,70,573937,505701,20195,42284,16764210,16760125,15443,16757566,Tag0,unknown
705,1611472172012,26,546,0.000119970703125,0,0,70,573937,505701,20195,42284,16764210,16760125,15443,16757566,Tag0,unknown
706,1611472172070,26,211,4.63623046875e-05,0,0,70,573937,505701,20195,42284,16764210,16760125,15443,16757566,Tag0,unknown
707,1611472172082,26,-112,-2.4609375e-05,0,0,70,573937,505701,20195,42284,16764210,16760125,15443,16757566,Tag0,unknown
708,1611472172092,26,-1162,-0.000255322265625,0,0,70,573937,505701,20195,42284,16764210,16760125,15443,16757566,Tag0,unknown
709,1611472172213,26,-795,-0.0001746826171875,0,0,70,573937,505701,20195,42284,16764210,16760125,15443,16757566,Tag0,unknown
710,1611472172240,26,-517,-0.0001135986328125,0,0,70,573937,505701,20195,42284,16764210,16760125,15443,16757566,Tag0,unknown
711,1611472172250,26,-499,-0.0001096435546875,0,0,70,573937,505701,20195,42284,16764210,16760125,15443,16757566,Tag0,unknown
712,1611472172261,26,-658,-0.000144580078125,0,0,70,573937,505701,20195,42284,16764210,16760125,15443,16757566,Tag0,unknown
713,1611472172352,26,-668,-0.00014677734375000002,0,0,70,573937,505701,20195,42284,16764210,16760125,15443,16757566,Tag0,unknown
714,1611472172372,26,-889,-0.0001953369140625,0,0,70,573937,505701,20195,42284,16764210,16760125,15443,16757566,Tag0,unknown
715,1611472172383,26,-133,-2.92236328125e-05,0,0,70,573937,505701,20195,42284,16764210,16760125,15443,16757566,Tag0,unknown
716,1611472172397,26,-390,-8.5693359375e-05,0,0,70,573937,505701,20195,42284,16764210,16760125,15443,16757566,Tag0,unknown
717,1611472172408,26,1143,0.0002511474609375,0,0,70,573937,505701,20195,42284,16764210,16760125,15443,16757566,Tag0,unknown
718,1611472172454,26,784,0.000172265625,0,0,70,573937,505701,20195,42284,16764210,16760125,15443,16757566,Tag0,unknown
719,1611472172478,26,242,5.317382812500001e-05,0,0,70,573937,505701,20195,42284,16764210,16760125,15443,16757566,Tag0,unknown
720,1611472172488,26,219,4.81201171875e-05,0,0,70,573937,505701,20195,42284,16764210,16760125,15443,16757566,Tag0,unknown
721,1611472172498,26,-1089,-0.0002392822265625,0,0,70,573937,505701,20195,42284,16764210,16760125,15443,16757566,Tag0,unknown
722,1611472172508,26,-417,-9.16259765625e-05,0,0,70,573937,505701,20195,42284,16764210,16760125,15443,16757566,Tag0,unknown
723,1611472172518,26,723,0.0001588623046875,0,0,70,573937,505701,20195,42284,16764210,16760125,15443,16757566,Tag0,unknown
724,1611472172528,26,-985,-0.0002164306640625,0,0,70,573937,505701,20195,42284,16764210,16760125,15443,16757566,Tag0,unknown
725,1611472172543,26,1791,0.0003935302734375,0,0,70,340657,146482,22989,40945,45299,48336,78588,16763957,Tag0,unknown
726,1611472172558,26,-2145,-0.0004713134765625,0,0,70,340657,146482,22989,40945,45299,48336,78588,16763957,Tag0,unknown
727,1611472172575,26,-717,-0.00015754394531250002,0,0,70,340657,146482,22989,40945,45299,48336,78588,16763957,Tag0,unknown
728,1611472172594,26,-1089,-0.0002392822265625,0,0,70,340657,146482,22989,40945,45299,48336,78588,16763957,Tag0,unknown
729,1611472172610,26,-339,-7.448730468750001e-05,0,0,70,340657,146482,22989,40945,45299,48336,78588,16763957,Tag0,unknown
730,1611472172631,26,-408,-8.964843749999999e-05,0,0,70,340657,146482,22989,40945,45299,48336,78588,16763957,Tag0,unknown
731,1611472172641,26,-518,-0.000113818359375,0,0,70,340657,146482,22989,40945,45299,48336,78588,16763957,Tag0,unknown
732,1611472172651,26,-297,-6.525878906250001e-05,0,0,70,340657,146482,22989,40945,45299,48336,78588,16763957,Tag0,unknown
733,1611472172664,26,-589,-0.0001294189453125,0,0,70,340657,146482,22989,40945,45299,48336,78588,16763957,Tag0,unknown
734,1611472172674,26,457,0.0001004150390625,0,0,70,340657,146482,22989,40945,45299,48336,78588,16763957,Tag0,unknown
735,1611472172693,26,613,0.00013469238281250002,0,0,70,340657,146482,22989,40945,45299,48336,78588,16763957,Tag0,unknown
736,1611472172735,26,-1623,-0.0003566162109375,0,0,70,340657,146482,22989,40945,45299,48336,78588,16763957,Tag0,unknown
737,1611472172754,26,-997,-0.0002190673828125,0,0,70,340657,146482,22989,40945,45299,48336,78588,16763957,Tag0,unknown
738,1611472172764,26,-439,-9.64599609375e-05,0,0,70,340657,146482,22989,40945,45299,48336,78588,16763957,Tag0,unknown
739,1611472172777,26,-604,-0.00013271484375,0,0,70,340657,146482,22989,40945,45299,48336,78588,16763957,Tag0,unknown
740,1611472172794,26,-130,-2.8564453125e-05,0,0,70,340657,146482,22989,40945,45299,48336,78588,16763957,Tag0,unknown
741,1611472172809,26,137,3.01025390625e-05,0,0,70,340657,146482,22989,40945,45299,48336,78588,16763957,Tag0,unknown
742,1611472172826,26,711,0.0001562255859375,0,0,70,340657,146482,22989,40945,45299,48336,78588,16763957,Tag0,unknown
743,1611472172844,26,429,9.42626953125e-05,0,0,70,340657,146482,22989,40945,45299,48336,78588,16763957,Tag0,unknown
744,1611472172860,26,253,5.55908203125e-05,0,0,70,340657,146482,22989,40945,45299,48336,78588,16763957,Tag0,unknown
745,1611472172878,26,-916,-0.00020126953125,0,0,70,340657,146482,22989,40945,45299,48336,78588,16763957,Tag0,unknown
746,1611472172896,26,-1281,-0.0002814697265625,0,0,70,340657,146482,22989,40945,45299,48336,78588,16763957,Tag0,unknown
747,1611472172912,26,-1034,-0.000227197265625,0,0,70,340657,146482,22989,40945,45299,48336,78588,16763957,Tag0,unknown
748,1611472172928,26,-569,-0.0001250244140625,0,0,70,340657,146482,22989,40945,45299,48336,78588,16763957,Tag0,unknown
749,1611472172938,26,445,9.77783203125e-05,0,0,70,340657,146482,22989,40945,45299,48336,78588,16763957,Tag0,unknown
750,1611472172949,26,1360,0.000298828125,0,0,70,340657,146482,22989,40945,45299,48336,78588,16763957,Tag0,unknown
751,1611472172960,26,1123,0.00024675292968750004,0,0,70,340657,146482,22989,40945,45299,48336,78588,16763957,Tag0,unknown
752,1611472173010,26,861,0.0001891845703125,0,0,70,340657,146482,22989,40945,45299,48336,78588,16763957,Tag0,unknown
753,1611472173032,26,420,9.228515625e-05,0,0,70,340657,146482,22989,40945,45299,48336,78588,16763957,Tag0,unknown
754,1611472173042,26,228,5.009765625000001e-05,0,0,70,340657,146482,22989,40945,45299,48336,78588,16763957,Tag0,unknown
755,1611472173052,26,-281,-6.17431640625e-05,0,0,70,340657,146482,22989,40945,45299,48336,78588,16763957,Tag0,unknown
756,1611472173062,26,-782,-0.00017182617187500002,0,0,70,340657,146482,22989,40945,45299,48336,78588,16763957,Tag0,unknown
757,1611472173073,26,-1363,-0.00029948730468750003,0,0,70,340657,146482,22989,40945,45299,48336,78588,16763957,Tag0,unknown
758,1611472173085,26,-1372,-0.00030146484375,0,0,70,340657,146482,22989,40945,45299,48336,78588,16763957,Tag0,unknown
759,1611472173095,26,167,3.66943359375e-05,0,0,70,340657,146482,22989,40945,45299,48336,78588,16763957,Tag0,unknown
760,1611472173127,26,-1493,-0.00032805175781250003,0,0,70,340657,146482,22989,40945,45299,48336,78588,16763957,Tag0,unknown
761,1611472173143,26,-1787,-0.0003926513671875,0,0,70,340657,146482,22989,40945,45299,48336,78588,16763957,Tag0,unknown
762,1611472173189,26,1791,0.0003935302734375,0,0,70,340657,146482,22989,40945,45299,48336,78588,16763957,Tag0,unknown
763,1611472173209,26,-578,-0.000127001953125,0,0,70,340657,146482,22989,40945,45299,48336,78588,16763957,Tag0,unknown
764,1611472173234,26,1791,0.0003935302734375,0,0,70,340657,146482,22989,40945,45299,48336,78588,16763957,Tag0,unknown
765,1611472173246,26,952,0.00020917968750000006,0,0,70,340657,146482,22989,40945,45299,48336,78588,16763957,Tag0,unknown
766,1611472173256,26,-1514,-0.000332666015625,0,0,70,340657,146482,22989,40945,45299,48336,78588,16763957,Tag0,unknown
767,1611472173269,26,-25,-5.4931640625e-06,0,0,70,340657,146482,22989,40945,45299,48336,78588,16763957,Tag0,unknown
768,1611472173280,26,-93,-2.04345703125e-05,0,0,70,340657,146482,22989,40945,45299,48336,78588,16763957,Tag0,unknown
769,1611472173304,26,-370,-8.1298828125e-05,0,0,70,340657,146482,22989,40945,45299,48336,78588,16763957,Tag0,unknown
770,1611472173314,26,203,4.4604492187500014e-05,0,0,70,340657,146482,22989,40945,45299,48336,78588,16763957,Tag0,unknown
771,1611472173326,26,545,0.0001197509765625,0,0,70,340657,146482,22989,40945,45299,48336,78588,16763957,Tag0,unknown
772,1611472173343,26,-35,-7.6904296875e-06,0,0,70,340657,146482,22989,40945,45299,48336,78588,16763957,Tag0,unknown
773,1611472173374,26,-210,-4.6142578125e-05,0,0,70,340657,146482,22989,40945,45299,48336,78588,16763957,Tag0,unknown
774,1611472173394,26,171,3.75732421875e-05,0,0,70,340657,146482,22989,40945,45299,48336,78588,16763957,Tag0,unknown
775,1611472173411,26,-920,-0.0002021484375,0,0,70,340657,146482,22989,40945,45299,48336,78588,16763957,Tag0,unknown
776,1611472173427,26,-250,-5.4931640625e-05,0,0,70,340657,146482,22989,40945,45299,48336,78588,16763957,Tag0,unknown
777,1611472173445,26,651,0.0001430419921875,0,0,70,340657,146482,22989,40945,45299,48336,78588,16763957,Tag0,unknown
778,1611472173459,26,-27,-5.932617187500001e-06,0,0,70,340657,146482,22989,40945,45299,48336,78588,16763957,Tag0,unknown
779,1611472173483,26,-601,-0.00013205566406249998,0,0,70,340657,146482,22989,40945,45299,48336,78588,16763957,Tag0,unknown
780,1611472173495,26,379,8.32763671875e-05,0,0,70,340657,146482,22989,40945,45299,48336,78588,16763957,Tag0,unknown
781,1611472173517,26,805,0.0001768798828125,0,0,70,340657,146482,22989,40945,45299,48336,78588,16763957,Tag0,unknown
782,1611472173527,26,262,5.7568359375e-05,0,0,70,340657,146482,22989,40945,45299,48336,78588,16763957,Tag0,unknown
783,1611472173554,26,87,1.91162109375e-05,0,0,70,416493,92792,84460,12407,16766846,16757544,31621,22579,Tag0,unknown
784,1611472173587,26,-1091,-0.0002397216796875,0,0,70,416493,92792,84460,12407,16766846,16757544,31621,22579,Tag0,unknown
785,1611472173597,26,-109,-2.39501953125e-05,0,0,70,416493,92792,84460,12407,16766846,16757544,31621,22579,Tag0,unknown
786,1611472173626,26,1553,0.0003412353515625,0,0,70,416493,92792,84460,12407,16766846,16757544,31621,22579,Tag0,unknown
787,1611472173644,26,1057,0.0002322509765625,0,0,70,416493,92792,84460,12407,16766846,16757544,31621,22579,Tag0,unknown
788,1611472173675,26,1558,0.00034233398437500003,0,0,70,416493,92792,84460,12407,16766846,16757544,31621,22579,Tag0,unknown
789,1611472173694,26,1079,0.0002370849609375,0,0,70,416493,92792,84460,12407,16766846,16757544,31621,22579,Tag0,unknown
790,1611472173710,26,-1540,-0.00033837890625,0,0,70,416493,92792,84460,12407,16766846,16757544,31621,22579,Tag0,unknown
791,1611472173727,26,-1641,-0.0003605712890625,0,0,70,416493,92792,84460,12407,16766846,16757544,31621,22579,Tag0,unknown
792,1611472173747,26,-782,-0.00017182617187500002,0,0,70,416493,92792,84460,12407,16766846,16757544,31621,22579,Tag0,unknown
793,1611472173760,26,-605,-0.0001329345703125,0,0,70,416493,92792,84460,12407,16766846,16757544,31621,22579,Tag0,unknown
794,1611472173779,26,109,2.39501953125e-05,0,0,70,416493,92792,84460,12407,16766846,16757544,31621,22579,Tag0,unknown
795,1611472173794,26,614,0.000134912109375,0,0,70,416493,92792,84460,12407,16766846,16757544,31621,22579,Tag0,unknown
796,1611472173816,26,-861,-0.0001891845703125,0,0,70,416493,92792,84460,12407,16766846,16757544,31621,22579,Tag0,unknown
797,1611472173831,26,-871,-0.0001913818359375,0,0,70,416493,92792,84460,12407,16766846,16757544,31621,22579,Tag0,unknown
798,1611472173859,26,-338,-7.426757812499999e-05,0,0,70,416493,92792,84460,12407,16766846,16757544,31621,22579,Tag0,unknown
799,1611472173885,26,-382,-8.3935546875e-05,0,0,70,416493,92792,84460,12407,16766846,16757544,31621,22579,Tag0,unknown
800,1611472173895,26,717,0.00015754394531250002,0,0,70,416493,92792,84460,12407,16766846,16757544,31621,22579,Tag0,unknown
801,1611472173910,26,179,3.93310546875e-05,0,0,70,416493,92792,84460,12407,16766846,16757544,31621,22579,Tag0,unknown
802,1611472173949,26,293,6.43798828125e-05,0,0,70,416493,92792,84460,12407,16766846,16757544,31621,22579,Tag0,unknown
803,1611472173964,26,769,0.0001689697265625,0,0,70,416493,92792,84460,12407,16766846,16757544,31621,22579,Tag0,unknown
804,1611472173974,26,-469,-0.0001030517578125,0,0,70,416493,92792,84460,12407,16766846,16757544,31621,22579,Tag0,unknown
805,1611472173984,26,-1444,-0.00031728515625,0,0,70,416493,92792,84460,12407,16766846,16757544,31621,22579,Tag0,unknown
806,1611472174018,26,-1538,-0.000337939453125,0,0,70,416493,92792,84460,12407,16766846,16757544,31621,22579,Tag0,unknown
807,1611472174030,26,-1533,-0.00033684082031250004,0,0,70,416493,92792,84460,12407,16766846,16757544,31621,22579,Tag0,unknown
808,1611472174040,26,-1082,-0.00023774414062500005,0,0,70,416493,92792,84460,12407,16766846,16757544,31621,22579,Tag0,unknown
809,1611472174069,26,-666,-0.00014633789062499998,0,0,70,416493,92792,84460,12407,16766846,16757544,31621,22579,Tag0,unknown
810,1611472174081,26,1395,0.0003065185546875,0,0,70,416493,92792,84460,12407,16766846,16757544,31621,22579,Tag0,unknown
811,1611472174091,26,-942,-0.00020698242187500005,0,0,70,416493,92792,84460,12407,16766846,16757544,31621,22579,Tag0,unknown
812,1611472174104,26,-657,-0.0001443603515625,0,0,70,416493,92792,84460,12407,16766846,16757544,31621,22579,Tag0,unknown
813,1611472174114,26,-230,-5.0537109375e-05,0,0,70,416493,92792,84460,12407,16766846,16757544,31621,22579,Tag0,unknown
814,1611472174124,26,1791,0.0003935302734375,0,0,70,416493,92792,84460,12407,16766846,16757544,31621,22579,Tag0,unknown
815,1611472174144,26,-180,-3.955078125e-05,0,0,70,416493,92792,84460,12407,16766846,16757544,31621,22579,Tag0,unknown
816,1611472174162,26,-193,-4.240722656250001e-05,0,0,70,416493,92792,84460,12407,16766846,16757544,31621,22579,Tag0,unknown
817,1611472174187,26,1252,0.00027509765625,0,0,70,416493,92792,84460,12407,16766846,16757544,31621,22579,Tag0,unknown
818,1611472174199,26,565,0.0001241455078125,0,0,70,416493,92792,84460,12407,16766846,16757544,31621,22579,Tag0,unknown
819,1611472174215,26,235,5.16357421875e-05,0,0,70,416493,92792,84460,12407,16766846,16757544,31621,22579,Tag0,unknown
820,1611472174232,26,1397,0.0003069580078125,0,0,70,416493,92792,84460,12407,16766846,16757544,31621,22579,Tag0,unknown
821,1611472174242,26,121,2.6586914062500006e-05,0,0,70,416493,92792,84460,12407,16766846,16757544,31621,22579,Tag0,unknown
822,1611472174263,26,206,4.5263671875e-05,0,0,70,416493,92792,84460,12407,16766846,16757544,31621,22579,Tag0,unknown
823,1611472174299,26,-1521,-0.0003342041015625,0,0,70,416493,92792,84460,12407,16766846,16757544,31621,22579,Tag0,unknown
824,1611472174313,26,-1810,-0.000397705078125,0,0,70,416493,92792,84460,12407,16766846,16757544,31621,22579,Tag0,unknown
825,1611472174357,26,941,0.0002067626953125,0,0,70,416493,92792,84460,12407,16766846,16757544,31621,22579,Tag0,unknown
826,1611472174367,26,1297,0.0002849853515625,0,0,70,416493,92792,84460,12407,16766846,16757544,31621,22579,Tag0,unknown
827,1611472174377,26,-265,-5.82275390625e-05,0,0,70,416493,92792,84460,12407,16766846,16757544,31621,22579,Tag0,unknown
828,1611472174387,26,-983,-0.0002159912109375,0,0,70,416493,92792,84460,12407,16766846,16757544,31621,22579,Tag0,unknown
829,1611472174397,26,-456,-0.0001001953125,0,0,70,416493,92792,84460,12407,16766846,16757544,31621,22579,Tag0,unknown
830,1611472174421,26,-1383,-0.00030388183593750003,0,0,70,416493,92792,84460,12407,16766846,16757544,31621,22579,Tag0,unknown
831,1611472174432,26,-645,-0.0001417236328125,0,0,70,416493,92792,84460,12407,16766846,16757544,31621,22579,Tag0,unknown
832,1611472174442,26,-347,-7.62451171875e-05,0,0,70,416493,92792,84460,12407,16766846,16757544,31621,22579,Tag0,unknown
833,1611472174479,26,-471,-0.0001034912109375,0,0,70,416493,92792,84460,12407,16766846,16757544,31621,22579,Tag0,unknown
834,1611472174498,26,-790,-0.000173583984375,0,0,70,416493,92792,84460,12407,16766846,16757544,31621,22579,Tag0,unknown
835,1611472174508,26,903,0.0001984130859375,0,0,70,416493,92792,84460,12407,16766846,16757544,31621,22579,Tag0,unknown
836,1611472174518,26,443,9.73388671875e-05,0,0,70,416493,92792,84460,12407,16766846,16757544,31621,22579,Tag0,unknown
837,1611472174549,26,480,0.00010546875,0,0,70,542869,225577,87919,23437,68138,79260,68683,28616,Tag0,unknown
838,1611472174570,26,1791,0.0003935302734375,0,0,70,542869,225577,87919,23437,68138,79260,68683,28616,Tag0,unknown
839,1611472174580,26,-2048,-0.00045,0,0,70,542869,225577,87919,23437,68138,79260,68683,28616,Tag0,unknown
840,1611472174599,26,-2149,-0.0004721923828125,0,0,70,542869,225577,87919,23437,68138,79260,68683,28616,Tag0,unknown
841,1611472174614,26,-502,-0.000110302734375,0,0,70,542869,225577,87919,23437,68138,79260,68683,28616,Tag0,unknown
842,1611472174624,26,-933,-0.0002050048828125,0,0,70,542869,225577,87919,23437,68138,79260,68683,28616,Tag0,unknown
843,1611472174652,26,-1063,-0.0002335693359375,0,0,70,542869,225577,87919,23437,68138,79260,68683,28616,Tag0,unknown
844,1611472174666,26,105,2.30712890625e-05,0,0,70,542869,225577,87919,23437,68138,79260,68683,28616,Tag0,unknown
845,1611472174676,26,672,0.00014765625000000006,0,0,70,542869,225577,87919,23437,68138,79260,68683,28616,Tag0,unknown
846,1611472174686,26,-197,-4.32861328125e-05,0,0,70,542869,225577,87919,23437,68138,79260,68683,28616,Tag0,unknown
847,1611472174696,26,-725,-0.0001593017578125,0,0,70,542869,225577,87919,23437,68138,79260,68683,28616,Tag0,unknown
848,1611472174706,26,1791,0.0003935302734375,0,0,70,542869,225577,87919,23437,68138,79260,68683,28616,Tag0,unknown
849,1611472174741,26,-107,-2.35107421875e-05,0,0,70,542869,225577,87919,23437,68138,79260,68683,28616,Tag0,unknown
850,1611472174751,26,1302,0.000286083984375,0,0,70,542869,225577,87919,23437,68138,79260,68683,28616,Tag0,unknown
851,1611472174763,26,699,0.0001535888671875,0,0,70,542869,225577,87919,23437,68138,79260,68683,28616,Tag0,unknown
852,1611472174785,26,1419,0.00031179199218750003,0,0,70,542869,225577,87919,23437,68138,79260,68683,28616,Tag0,unknown
853,1611472174798,26,907,0.0001992919921875,0,0,70,542869,225577,87919,23437,68138,79260,68683,28616,Tag0,unknown
854,1611472174820,26,241,5.29541015625e-05,0,0,70,542869,225577,87919,23437,68138,79260,68683,28616,Tag0,unknown
855,1611472174833,26,224,4.921875e-05,0,0,70,542869,225577,87919,23437,68138,79260,68683,28616,Tag0,unknown
856,1611472174843,26,155,3.40576171875e-05,0,0,70,542869,225577,87919,23437,68138,79260,68683,28616,Tag0,unknown
857,1611472174866,26,-1796,-0.00039462890625,0,0,70,542869,225577,87919,23437,68138,79260,68683,28616,Tag0,unknown
858,1611472174889,26,-890,-0.000195556640625,0,0,70,542869,225577,87919,23437,68138,79260,68683,28616,Tag0,unknown
859,1611472174899,26,-1137,-0.0002498291015625,0,0,70,542869,225577,87919,23437,68138,79260,68683,28616,Tag0,unknown
860,1611472174909,26,1385,0.0003043212890625,0,0,70,542869,225577,87919,23437,68138,79260,68683,28616,Tag0,unknown
861,1611472174926,26,688,0.00015117187500000002,0,0,70,542869,225577,87919,23437,68138,79260,68683,28616,Tag0,unknown
862,1611472174947,26,220,4.833984375e-05,0,0,70,542869,225577,87919,23437,68138,79260,68683,28616,Tag0,unknown
863,1611472174963,26,523,0.0001149169921875,0,0,70,542869,225577,87919,23437,68138,79260,68683,28616,Tag0,unknown
864,1611472174984,26,883,0.0001940185546875,0,0,70,542869,225577,87919,23437,68138,79260,68683,28616,Tag0,unknown
865,1611472174994,26,-1895,-0.0004163818359375,0,0,70,542869,225577,87919,23437,68138,79260,68683,28616,Tag0,unknown
866,1611472175007,26,-1234,-0.000271142578125,0,0,70,542869,225577,87919,23437,68138,79260,68683,28616,Tag0,unknown
867,1611472175030,26,-1131,-0.0002485107421875,0,0,70,542869,225577,87919,23437,68138,79260,68683,28616,Tag0,unknown
868,1611472175047,26,601,0.00013205566406249998,0,0,70,542869,225577,87919,23437,68138,79260,68683,28616,Tag0,unknown
869,1611472175076,26,-169,-3.71337890625e-05,0,0,70,542869,225577,87919,23437,68138,79260,68683,28616,Tag0,unknown
870,1611472175087,26,116,2.548828125e-05,0,0,70,542869,225577,87919,23437,68138,79260,68683,28616,Tag0,unknown
871,1611472175102,26,1299,0.0002854248046875,0,0,70,542869,225577,87919,23437,68138,79260,68683,28616,Tag0,unknown
872,1611472175113,26,-518,-0.000113818359375,0,0,70,542869,225577,87919,23437,68138,79260,68683,28616,Tag0,unknown
873,1611472175123,26,-913,-0.0002006103515625,0,0,70,542869,225577,87919,23437,68138,79260,68683,28616,Tag0,unknown
874,1611472175136,26,-151,-3.31787109375e-05,0,0,70,542869,225577,87919,23437,68138,79260,68683,28616,Tag0,unknown
875,1611472175153,26,-489,-0.0001074462890625,0,0,70,542869,225577,87919,23437,68138,79260,68683,28616,Tag0,unknown
876,1611472175180,26,-631,-0.0001386474609375,0,0,70,542869,225577,87919,23437,68138,79260,68683,28616,Tag0,unknown
877,1611472175197,26,-23,-5.0537109375e-06,0,0,70,542869,225577,87919,23437,68138,79260,68683,28616,Tag0,unknown
878,1611472175219,26,1053,0.0002313720703125,0,0,70,542869,225577,87919,23437,68138,79260,68683,28616,Tag0,unknown
879,1611472175231,26,969,0.0002129150390625,0,0,70,542869,225577,87919,23437,68138,79260,68683,28616,Tag0,unknown
880,1611472175254,26,405,8.89892578125e-05,0,0,70,542869,225577,87919,23437,68138,79260,68683,28616,Tag0,unknown
881,1611472175267,26,477,0.0001048095703125,0,0,70,542869,225577,87919,23437,68138,79260,68683,28616,Tag0,unknown
882,1611472175277,26,-1175,-0.0002581787109375,0,0,70,542869,225577,87919,23437,68138,79260,68683,28616,Tag0,unknown
883,1611472175287,26,-787,-0.0001729248046875,0,0,70,542869,225577,87919,23437,68138,79260,68683,28616,Tag0,unknown
884,1611472175299,26,-1566,-0.000344091796875,0,0,70,542869,225577,87919,23437,68138,79260,68683,28616,Tag0,unknown
885,1611472175316,26,-919,-0.0002019287109375,0,0,70,542869,225577,87919,23437,68138,79260,68683,28616,Tag0,unknown
886,1611472175334,26,75,1.64794921875e-05,0,0,70,542869,225577,87919,23437,68138,79260,68683,28616,Tag0,unknown
887,1611472175349,26,236,5.185546875e-05,0,0,70,542869,225577,87919,23437,68138,79260,68683,28616,Tag0,unknown
888,1611472175359,26,-744,-0.0001634765625,0,0,70,542869,225577,87919,23437,68138,79260,68683,28616,Tag0,unknown
889,1611472175381,26,-2098,-0.000460986328125,0,0,70,542869,225577,87919,23437,68138,79260,68683,28616,Tag0,unknown
890,1611472175401,26,-375,-8.23974609375e-05,0,0,70,542869,225577,87919,23437,68138,79260,68683,28616,Tag0,unknown
891,1611472175415,26,53,1.1645507812500003e-05,0,0,70,542869,225577,87919,23437,68138,79260,68683,28616,Tag0,unknown
892,1611472175431,26,875,0.0001922607421875,0,0,70,542869,225577,87919,23437,68138,79260,68683,28616,Tag0,unknown
893,1611472175448,26,233,5.119628906250001e-05,0,0,70,542869,225577,87919,23437,68138,79260,68683,28616,Tag0,unknown
894,1611472175458,26,199,4.37255859375e-05,0,0,70,542869,225577,87919,23437,68138,79260,68683,28616,Tag0,unknown
895,1611472175473,26,330,7.2509765625e-05,0,0,70,542869,225577,87919,23437,68138,79260,68683,28616,Tag0,unknown
896,1611472175485,26,-279,-6.13037109375e-05,0,0,70,542869,225577,87919,23437,68138,79260,68683,28616,Tag0,unknown
897,1611472175495,26,-1895,-0.0004163818359375,0,0,70,542869,225577,87919,23437,68138,79260,68683,28616,Tag0,unknown
898,1611472175505,26,-583,-0.0001281005859375,0,0,70,542869,225577,87919,23437,68138,79260,68683,28616,Tag0,unknown
899,1611472175518,26,-845,-0.0001856689453125,0,0,70,542869,225577,87919,23437,68138,79260,68683,28616,Tag0,unknown
900,1611472175538,26,1791,0.0003935302734375,0,0,70,558248,148488,65336,124920,135770,67515,52913,73141,Tag0,unknown
901,1611472175550,26,145,3.18603515625e-05,0,0,70,558248,148488,65336,124920,135770,67515,52913,73141,Tag0,unknown
902,1611472175564,26,-217,-4.76806640625e-05,0,0,70,558248,148488,65336,124920,135770,67515,52913,73141,Tag0,unknown
903,1611472175584,26,-883,-0.0001940185546875,0,0,70,558248,148488,65336,124920,135770,67515,52913,73141,Tag0,unknown
904,1611472175599,26,-804,-0.00017666015625,0,0,70,558248,148488,65336,124920,135770,67515,52913,73141,Tag0,unknown
905,1611472175625,26,-613,-0.00013469238281250002,0,0,70,558248,148488,65336,124920,135770,67515,52913,73141,Tag0,unknown
906,1611472175635,26,-556,-0.00012216796875000002,0,0,70,558248,148488,65336,124920,135770,67515,52913,73141,Tag0,unknown
907,1611472175658,26,-183,-4.02099609375e-05,0,0,70,558248,148488,65336,124920,135770,67515,52913,73141,Tag0,unknown
908,1611472175668,26,-850,-0.000186767578125,0,0,70,558248,148488,65336,124920,135770,67515,52913,73141,Tag0,unknown
909,1611472175684,26,73,1.6040039062500002e-05,0,0,70,558248,148488,65336,124920,135770,67515,52913,73141,Tag0,unknown
910,1611472175703,26,-725,-0.0001593017578125,0,0,70,558248,148488,65336,124920,135770,67515,52913,73141,Tag0,unknown
911,1611472175731,26,-1089,-0.0002392822265625,0,0,70,558248,148488,65336,124920,135770,67515,52913,73141,Tag0,unknown
912,1611472175750,26,-375,-8.23974609375e-05,0,0,70,558248,148488,65336,124920,135770,67515,52913,73141,Tag0,unknown
913,1611472175769,26,-887,-0.00019489746093750006,0,0,70,558248,148488,65336,124920,135770,67515,52913,73141,Tag0,unknown
914,1611472175782,26,-628,-0.00013798828125,0,0,70,558248,148488,65336,124920,135770,67515,52913,73141,Tag0,unknown
915,1611472175804,26,-322,-7.0751953125e-05,0,0,70,558248,148488,65336,124920,135770,67515,52913,73141,Tag0,unknown
916,1611472175819,26,346,7.6025390625e-05,0,0,70,558248,148488,65336,124920,135770,67515,52913,73141,Tag0,unknown
917,1611472175829,26,741,0.00016281738281249998,0,0,70,558248,148488,65336,124920,135770,67515,52913,73141,Tag0,unknown
918,1611472175845,26,556,0.00012216796875000002,0,0,70,558248,148488,65336,124920,135770,67515,52913,73141,Tag0,unknown
919,1611472175868,26,964,0.00021181640625,0,0,70,558248,148488,65336,124920,135770,67515,52913,73141,Tag0,unknown
920,1611472175886,26,-1096,-0.0002408203125,0,0,70,558248,148488,65336,124920,135770,67515,52913,73141,Tag0,unknown
921,1611472175900,26,-737,-0.00016193847656250005,0,0,70,558248,148488,65336,124920,135770,67515,52913,73141,Tag0,unknown
922,1611472175916,26,-884,-0.00019423828125,0,0,70,558248,148488,65336,124920,135770,67515,52913,73141,Tag0,unknown
923,1611472175931,26,-117,-2.57080078125e-05,0,0,70,558248,148488,65336,124920,135770,67515,52913,73141,Tag0,unknown
924,1611472175977,26,1106,0.000243017578125,0,0,70,558248,148488,65336,124920,135770,67515,52913,73141,Tag0,unknown
925,1611472176005,26,983,0.0002159912109375,0,0,70,558248,148488,65336,124920,135770,67515,52913,73141,Tag0,unknown
926,1611472176015,26,888,0.0001951171875,0,0,70,558248,148488,65336,124920,135770,67515,52913,73141,Tag0,unknown
927,1611472176025,26,166,3.6474609375e-05,0,0,70,558248,148488,65336,124920,135770,67515,52913,73141,Tag0,unknown
928,1611472176037,26,-59,-1.29638671875e-05,0,0,70,558248,148488,65336,124920,135770,67515,52913,73141,Tag0,unknown
929,1611472176050,26,-633,-0.00013908691406250002,0,0,70,558248,148488,65336,124920,135770,67515,52913,73141,Tag0,unknown
930,1611472176060,26,-1655,-0.0003636474609375,0,0,70,558248,148488,65336,124920,135770,67515,52913,73141,Tag0,unknown
931,1611472176094,26,-1853,-0.0004071533203125,0,0,70,558248,148488,65336,124920,135770,67515,52913,73141,Tag0,unknown
932,1611472176119,26,-1486,-0.00032651367187500004,0,0,70,558248,148488,65336,124920,135770,67515,52913,73141,Tag0,unknown
933,1611472176129,26,1307,0.0002871826171875,0,0,70,558248,148488,65336,124920,135770,67515,52913,73141,Tag0,unknown
934,1611472176139,26,-200,-4.39453125e-05,0,0,70,558248,148488,65336,124920,135770,67515,52913,73141,Tag0,unknown
935,1611472176151,26,-910,-0.000199951171875,0,0,70,558248,148488,65336,124920,135770,67515,52913,73141,Tag0,unknown
936,1611472176167,26,-441,-9.68994140625e-05,0,0,70,558248,148488,65336,124920,135770,67515,52913,73141,Tag0,unknown
937,1611472176184,26,29,6.3720703125e-06,0,0,70,558248,148488,65336,124920,135770,67515,52913,73141,Tag0,unknown
938,1611472176200,26,933,0.0002050048828125,0,0,70,558248,148488,65336,124920,135770,67515,52913,73141,Tag0,unknown
939,1611472176219,26,986,0.000216650390625,0,0,70,558248,148488,65336,124920,135770,67515,52913,73141,Tag0,unknown
940,1611472176234,26,1058,0.000232470703125,0,0,70,558248,148488,65336,124920,135770,67515,52913,73141,Tag0,unknown
941,1611472176244,26,-411,-9.03076171875e-05,0,0,70,558248,148488,65336,124920,135770,67515,52913,73141,Tag0,unknown
942,1611472176255,26,-1014,-0.000222802734375,0,0,70,558248,148488,65336,124920,135770,67515,52913,73141,Tag0,unknown
943,1611472176267,26,-1105,-0.0002427978515625,0,0,70,558248,148488,65336,124920,135770,67515,52913,73141,Tag0,unknown
944,1611472176289,26,-813,-0.0001786376953125,0,0,70,558248,148488,65336,124920,135770,67515,52913,73141,Tag0,unknown
945,1611472176301,26,-1139,-0.00025026855468750003,0,0,70,558248,148488,65336,124920,135770,67515,52913,73141,Tag0,unknown
946,1611472176311,26,1763,0.0003873779296875,0,0,70,558248,148488,65336,124920,135770,67515,52913,73141,Tag0,unknown
947,1611472176321,26,-26,-5.712890625e-06,0,0,70,558248,148488,65336,124920,135770,67515,52913,73141,Tag0,unknown
948,1611472176332,26,716,0.00015732421875,0,0,70,558248,148488,65336,124920,135770,67515,52913,73141,Tag0,unknown
949,1611472176349,26,705,0.0001549072265625,0,0,70,558248,148488,65336,124920,135770,67515,52913,73141,Tag0,unknown
950,1611472176366,26,631,0.0001386474609375,0,0,70,558248,148488,65336,124920,135770,67515,52913,73141,Tag0,unknown
951,1611472176385,26,72,1.58203125e-05,0,0,70,558248,148488,65336,124920,135770,67515,52913,73141,Tag0,unknown
952,1611472176395,26,-1580,-0.00034716796875,0,0,70,558248,148488,65336,124920,135770,67515,52913,73141,Tag0,unknown
953,1611472176405,26,-1381,-0.00030344238281250003,0,0,70,558248,148488,65336,124920,135770,67515,52913,73141,Tag0,unknown
954,1611472176417,26,-1203,-0.0002643310546875,0,0,70,558248,148488,65336,124920,135770,67515,52913,73141,Tag0,unknown
955,1611472176439,26,-881,-0.0001935791015625,0,0,70,558248,148488,65336,124920,135770,67515,52913,73141,Tag0,unknown
956,1611472176452,26,-413,-9.07470703125e-05,0,0,70,558248,148488,65336,124920,135770,67515,52913,73141,Tag0,unknown
957,1611472176462,26,1371,0.0003012451171875,0,0,70,558248,148488,65336,124920,135770,67515,52913,73141,Tag0,unknown
958,1611472176472,26,985,0.0002164306640625,0,0,70,558248,148488,65336,124920,135770,67515,52913,73141,Tag0,unknown
959,1611472176488,26,738,0.000162158203125,0,0,70,558248,148488,65336,124920,135770,67515,52913,73141,Tag0,unknown
960,1611472176532,26,24,5.2734375e-06,0,0,70,558248,148488,65336,124920,135770,67515,52913,73141,Tag0,unknown
961,1611472176551,26,6,1.318359375e-06,0,0,70,558248,148488,65336,124920,135770,67515,52913,73141,Tag0,unknown
962,1611472176561,26,1703,0.0003741943359375,0,0,70,649541,214236,118499,154169,67605,16770632,16763957,16750881,Tag0,unknown
963,1611472176571,26,-76,-1.669921875e-05,0,0,70,649541,214236,118499,154169,67605,16770632,16763957,16750881,Tag0,unknown
964,1611472176586,26,-1803,-0.0003961669921875,0,0,70,649541,214236,118499,154169,67605,16770632,16763957,16750881,Tag0,unknown
965,1611472176623,26,-1260,-0.00027685546875,0,0,70,649541,214236,118499,154169,67605,16770632,16763957,16750881,Tag0,unknown
966,1611472176635,26,-1351,-0.0002968505859375,0,0,70,649541,214236,118499,154169,67605,16770632,16763957,16750881,Tag0,unknown
967,1611472176645,26,-1383,-0.00030388183593750003,0,0,70,649541,214236,118499,154169,67605,16770632,16763957,16750881,Tag0,unknown
968,1611472176655,26,-768,-0.00016875,0,0,70,649541,214236,118499,154169,67605,16770632,16763957,16750881,Tag0,unknown
969,1611472176683,26,1499,0.00032937011718750005,0,0,70,649541,214236,118499,154169,67605,16770632,16763957,16750881,Tag0,unknown
970,1611472176699,26,1628,0.00035771484375,0,0,70,649541,214236,118499,154169,67605,16770632,16763957,16750881,Tag0,unknown
971,1611472176719,26,1081,0.0002375244140625,0,0,70,649541,214236,118499,154169,67605,16770632,16763957,16750881,Tag0,unknown
972,1611472176735,26,713,0.0001566650390625,0,0,70,649541,214236,118499,154169,67605,16770632,16763957,16750881,Tag0,unknown
973,1611472176745,26,80,1.7578125e-05,0,0,70,649541,214236,118499,154169,67605,16770632,16763957,16750881,Tag0,unknown
974,1611472176755,26,-1271,-0.00027927246093750003,0,0,70,649541,214236,118499,154169,67605,16770632,16763957,16750881,Tag0,unknown
975,1611472176765,26,-2011,-0.0004418701171875,0,0,70,649541,214236,118499,154169,67605,16770632,16763957,16750881,Tag0,unknown
976,1611472176775,26,115,2.52685546875e-05,0,0,70,649541,214236,118499,154169,67605,16770632,16763957,16750881,Tag0,unknown
977,1611472176785,26,49,1.07666015625e-05,0,0,70,649541,214236,118499,154169,67605,16770632,16763957,16750881,Tag0,unknown
978,1611472176802,26,1570,0.000344970703125,0,0,70,649541,214236,118499,154169,67605,16770632,16763957,16750881,Tag0,unknown
979,1611472176812,26,888,0.0001951171875,0,0,70,649541,214236,118499,154169,67605,16770632,16763957,16750881,Tag0,unknown
980,1611472176822,26,275,6.04248046875e-05,0,0,70,649541,214236,118499,154169,67605,16770632,16763957,16750881,Tag0,unknown
981,1611472176834,26,-796,-0.00017490234374999998,0,0,70,649541,214236,118499,154169,67605,16770632,16763957,16750881,Tag0,unknown
982,1611472176850,26,-1403,-0.00030827636718750004,0,0,70,649541,214236,118499,154169,67605,16770632,16763957,16750881,Tag0,unknown
983,1611472176866,26,-1245,-0.0002735595703125,0,0,70,649541,214236,118499,154169,67605,16770632,16763957,16750881,Tag0,unknown
984,1611472176884,26,-1022,-0.000224560546875,0,0,70,649541,214236,118499,154169,67605,16770632,16763957,16750881,Tag0,unknown
985,1611472176946,26,-717,-0.00015754394531250002,0,0,70,649541,214236,118499,154169,67605,16770632,16763957,16750881,Tag0,unknown
986,1611472176973,26,-531,-0.0001166748046875,0,0,70,649541,214236,118499,154169,67605,16770632,16763957,16750881,Tag0,unknown
987,1611472176984,26,-1058,-0.000232470703125,0,0,70,649541,214236,118499,154169,67605,16770632,16763957,16750881,Tag0,unknown
988,1611472177013,26,-1065,-0.0002340087890625,0,0,70,649541,214236,118499,154169,67605,16770632,16763957,16750881,Tag0,unknown
989,1611472177037,26,-1069,-0.0002348876953125,0,0,70,649541,214236,118499,154169,67605,16770632,16763957,16750881,Tag0,unknown
990,1611472177080,26,-519,-0.0001140380859375,0,0,70,649541,214236,118499,154169,67605,16770632,16763957,16750881,Tag0,unknown
991,1611472177109,26,-532,-0.00011689453125,0,0,70,649541,214236,118499,154169,67605,16770632,16763957,16750881,Tag0,unknown
992,1611472177119,26,-791,-0.0001738037109375,0,0,70,649541,214236,118499,154169,67605,16770632,16763957,16750881,Tag0,unknown
993,1611472177147,26,-857,-0.0001883056640625,0,0,70,649541,214236,118499,154169,67605,16770632,16763957,16750881,Tag0,unknown
994,1611472177169,26,281,6.17431640625e-05,0,0,70,649541,214236,118499,154169,67605,16770632,16763957,16750881,Tag0,unknown
995,1611472177217,26,227,4.98779296875e-05,0,0,70,649541,214236,118499,154169,67605,16770632,16763957,16750881,Tag0,unknown
996,1611472177236,26,-533,-0.0001171142578125,0,0,70,649541,214236,118499,154169,67605,16770632,16763957,16750881,Tag0,unknown
