timestampMs,poorSignal,eegRawValue,eegRawValueVolts,attention,meditation,blinkStrength,delta,theta,alphaLow,alphaHigh,betaLow,betaHigh,gammaLow,gammaMid,tagEvent,location
1605939267980,200,-2048,-4.5E-4,0,0,0,566136,198237,12719,16768298,16770860,210979,177464,131816,Tag0,unknown
1605939267995,200,-2048,-4.5E-4,0,0,0,566136,198237,12719,16768298,16770860,210979,177464,131816,Tag0,unknown
1605939268005,200,1791,3.935302734375E-4,0,0,0,566136,198237,12719,16768298,16770860,210979,177464,131816,Tag0,unknown
1605939268015,200,-2048,-4.5E-4,0,0,0,566136,198237,12719,16768298,16770860,210979,177464,131816,Tag0,unknown
1605939268042,200,1791,3.935302734375E-4,0,0,0,566136,198237,12719,16768298,16770860,210979,177464,131816,Tag0,unknown
1605939268058,200,-2048,-4.5E-4,0,0,0,566136,198237,12719,16768298,16770860,210979,177464,131816,Tag0,unknown
1605939268080,200,1791,3.935302734375E-4,0,0,0,566136,198237,12719,16768298,16770860,210979,177464,131816,Tag0,unknown
1605939268091,200,1791,3.935302734375E-4,0,0,0,566136,198237,12719,16768298,16770860,210979,177464,131816,Tag0,unknown
1605939268114,200,-2048,-4.5E-4,0,0,0,566136,198237,12719,16768298,16770860,210979,177464,131816,Tag0,unknown
1605939268125,200,-2048,-4.5E-4,0,0,0,566136,198237,12719,16768298,16770860,210979,177464,131816,Tag0,unknown
1605939268135,200,-2048,-4.5E-4,0,0,0,566136,198237,12719,16768298,16770860,210979,177464,131816,Tag0,unknown
1605939268152,200,87,1.91162109375E-5,0,0,0,566136,198237,12719,16768298,16770860,210979,177464,131816,Tag0,unknown
1605939268162,200,1791,3.935302734375E-4,0,0,0,566136,198237,12719,16768298,16770860,210979,177464,131816,Tag0,unknown
1605939268185,200,974,2.14013671875E-4,0,0,0,566136,198237,12719,16768298,16770860,210979,177464,131816,Tag0,unknown
1605939268196,200,1791,3.935302734375E-4,0,0,0,566136,198237,12719,16768298,16770860,210979,177464,131816,Tag0,unknown
1605939268228,200,-2048,-4.5E-4,0,0,0,566136,198237,12719,16768298,16770860,210979,177464,131816,Tag0,unknown
1605939268241,200,1791,3.935302734375E-4,0,0,0,566136,198237,12719,16768298,16770860,210979,177464,131816,Tag0,unknown
1605939268263,200,1791,3.935302734375E-4,0,0,0,566136,198237,12719,16768298,16770860,210979,177464,131816,Tag0,unknown
1605939268277,200,-2048,-4.5E-4,0,0,0,566136,198237,12719,16768298,16770860,210979,177464,131816,Tag0,unknown
1605939268287,200,-2048,-4.5E-4,0,0,0,566136,198237,12719,16768298,16770860,210979,177464,131816,Tag0,unknown
1605939268338,200,1791,3.935302734375E-4,0,0,0,566136,198237,12719,16768298,16770860,210979,177464,131816,Tag0,unknown
1605939268359,200,1791,3.935302734375E-4,0,0,0,566136,198237,12719,16768298,16770860,210979,177464,131816,Tag0,unknown
1605939268405,200,-2048,-4.5E-4,0,0,0,566136,198237,12719,16768298,16770860,210979,177464,131816,Tag0,unknown
1605939268425,200,1791,3.935302734375E-4,0,0,0,566136,198237,12719,16768298,16770860,210979,177464,131816,Tag0,unknown
1605939268542,200,1791,3.935302734375E-4,0,0,0,566136,198237,12719,16768298,16770860,210979,177464,131816,Tag0,unknown
1605939268561,200,1791,3.935302734375E-4,0,0,0,566136,198237,12719,16768298,16770860,210979,177464,131816,Tag0,unknown
1605939268611,200,-11,-2.4169921875E-6,0,0,0,566136,198237,12719,16768298,16770860,210979,177464,131816,Tag0,unknown
1605939268628,200,1787,3.926513671875E-4,0,0,0,566136,198237,12719,16768298,16770860,210979,177464,131816,Tag0,unknown
1605939268638,200,1463,3.214599609375E-4,0,0,0,566136,198237,12719,16768298,16770860,210979,177464,131816,Tag0,unknown
1605939268681,200,-1881,-4.133056640625E-4,0,0,0,566136,198237,12719,16768298,16770860,210979,177464,131816,Tag0,unknown
1605939268695,200,-1627,-3.574951171875E-4,0,0,0,566136,198237,12719,16768298,16770860,210979,177464,131816,Tag0,unknown
1605939268820,200,-195,-4.28466796875E-5,0,0,0,566136,198237,12719,16768298,16770860,210979,177464,131816,Tag0,unknown
1605939268840,200,75,1.64794921875E-5,0,0,0,566136,198237,12719,16768298,16770860,210979,177464,131816,Tag0,unknown
1605939268850,200,289,6.35009765625E-5,0,0,0,566136,198237,12719,16768298,16770860,210979,177464,131816,Tag0,unknown
1605939268860,200,-557,-1.223876953125E-4,0,0,0,566136,198237,12719,16768298,16770860,210979,177464,131816,Tag0,unknown
1605939268885,200,-841,-1.847900390625E-4,0,0,0,566136,198237,12719,16768298,16770860,210979,177464,131816,Tag0,unknown
1605939268895,200,1225,2.691650390625E-4,0,0,0,566136,198237,12719,16768298,16770860,210979,177464,131816,Tag0,unknown
1605939268918,200,1875,4.119873046875E-4,0,0,0,566136,198237,12719,16768298,16770860,210979,177464,131816,Tag0,unknown
1605939268928,200,-2048,-4.5E-4,0,0,0,566136,198237,12719,16768298,16770860,210979,177464,131816,Tag0,unknown
1605939268938,200,1791,3.935302734375E-4,0,0,0,566136,198237,12719,16768298,16770860,210979,177464,131816,Tag0,unknown
1605939268948,200,1791,3.935302734375E-4,0,0,0,566136,198237,12719,16768298,16770860,210979,177464,131816,Tag0,unknown
1605939268958,200,1305,2.867431640625E-4,0,0,0,1363006,1669135,114892,275324,312399,760800,1204911,529448,Tag0,unknown
1605939268968,200,1649,3.6232910156250005E-4,0,0,0,1363006,1669135,114892,275324,312399,760800,1204911,529448,Tag0,unknown
1605939268978,200,1791,3.935302734375E-4,0,0,0,1363006,1669135,114892,275324,312399,760800,1204911,529448,Tag0,unknown
1605939268993,200,-2048,-4.5E-4,0,0,0,1363006,1669135,114892,275324,312399,760800,1204911,529448,Tag0,unknown
1605939269010,200,-1274,-2.79931640625E-4,0,0,0,1363006,1669135,114892,275324,312399,760800,1204911,529448,Tag0,unknown
1605939269027,200,-2048,-4.5E-4,0,0,0,1363006,1669135,114892,275324,312399,760800,1204911,529448,Tag0,unknown
1605939269050,200,-2048,-4.5E-4,0,0,0,1363006,1669135,114892,275324,312399,760800,1204911,529448,Tag0,unknown
1605939269061,200,-2048,-4.5E-4,0,0,0,1363006,1669135,114892,275324,312399,760800,1204911,529448,Tag0,unknown
1605939269084,200,1791,3.935302734375E-4,0,0,0,1363006,1669135,114892,275324,312399,760800,1204911,529448,Tag0,unknown
1605939269096,200,1791,3.935302734375E-4,0,0,0,1363006,1669135,114892,275324,312399,760800,1204911,529448,Tag0,unknown
1605939269106,200,1757,3.860595703125E-4,0,0,0,1363006,1669135,114892,275324,312399,760800,1204911,529448,Tag0,unknown
1605939269124,200,1650,3.62548828125E-4,0,0,0,1363006,1669135,114892,275324,312399,760800,1204911,529448,Tag0,unknown
1605939269145,200,1572,3.4541015625E-4,0,0,0,1363006,1669135,114892,275324,312399,760800,1204911,529448,Tag0,unknown
1605939269163,200,-1649,-3.6232910156250005E-4,0,0,0,1363006,1669135,114892,275324,312399,760800,1204911,529448,Tag0,unknown
1605939269173,200,-2048,-4.5E-4,0,0,0,1363006,1669135,114892,275324,312399,760800,1204911,529448,Tag0,unknown
1605939269183,200,1791,3.935302734375E-4,0,0,0,1363006,1669135,114892,275324,312399,760800,1204911,529448,Tag0,unknown
1605939269203,200,596,1.3095703125E-4,0,0,0,1363006,1669135,114892,275324,312399,760800,1204911,529448,Tag0,unknown
1605939269213,200,-1925,-4.229736328125E-4,0,0,0,1363006,1669135,114892,275324,312399,760800,1204911,529448,Tag0,unknown
1605939269229,200,-2048,-4.5E-4,0,0,0,1363006,1669135,114892,275324,312399,760800,1204911,529448,Tag0,unknown
1605939269246,200,1791,3.935302734375E-4,0,0,0,1363006,1669135,114892,275324,312399,760800,1204911,529448,Tag0,unknown
1605939269273,200,-1545,-3.394775390625E-4,0,0,0,1363006,1669135,114892,275324,312399,760800,1204911,529448,Tag0,unknown
1605939269283,200,-2048,-4.5E-4,0,0,0,1363006,1669135,114892,275324,312399,760800,1204911,529448,Tag0,unknown
1605939269307,200,-251,-5.5151367187500004E-5,0,0,0,1363006,1669135,114892,275324,312399,760800,1204911,529448,Tag0,unknown
1605939269317,200,545,1.197509765625E-4,0,0,0,1363006,1669135,114892,275324,312399,760800,1204911,529448,Tag0,unknown
1605939269343,200,1361,2.990478515625E-4,0,0,0,1363006,1669135,114892,275324,312399,760800,1204911,529448,Tag0,unknown
1605939269362,200,1355,2.977294921875E-4,0,0,0,1363006,1669135,114892,275324,312399,760800,1204911,529448,Tag0,unknown
1605939269380,200,1105,2.427978515625E-4,0,0,0,1363006,1669135,114892,275324,312399,760800,1204911,529448,Tag0,unknown
1605939269398,200,-1141,-2.5070800781250004E-4,0,0,0,1363006,1669135,114892,275324,312399,760800,1204911,529448,Tag0,unknown
1605939269408,200,-1254,-2.75537109375E-4,0,0,0,1363006,1669135,114892,275324,312399,760800,1204911,529448,Tag0,unknown
1605939269421,200,1403,3.0827636718750004E-4,0,0,0,1363006,1669135,114892,275324,312399,760800,1204911,529448,Tag0,unknown
1605939269450,200,-2048,-4.5E-4,0,0,0,1363006,1669135,114892,275324,312399,760800,1204911,529448,Tag0,unknown
1605939269462,200,-2048,-4.5E-4,0,0,0,1363006,1669135,114892,275324,312399,760800,1204911,529448,Tag0,unknown
1605939269472,200,-2048,-4.5E-4,0,0,0,1363006,1669135,114892,275324,312399,760800,1204911,529448,Tag0,unknown
1605939269490,200,-1594,-3.50244140625E-4,0,0,0,1363006,1669135,114892,275324,312399,760800,1204911,529448,Tag0,unknown
1605939269500,200,1790,3.93310546875E-4,0,0,0,1363006,1669135,114892,275324,312399,760800,1204911,529448,Tag0,unknown
1605939269523,200,1721,3.7814941406250004E-4,0,0,0,1363006,1669135,114892,275324,312399,760800,1204911,529448,Tag0,unknown
1605939269533,200,1462,3.2124023437499997E-4,0,0,0,1363006,1669135,114892,275324,312399,760800,1204911,529448,Tag0,unknown
1605939269561,200,-830,-1.82373046875E-4,0,0,0,1363006,1669135,114892,275324,312399,760800,1204911,529448,Tag0,unknown
1605939269579,200,-2048,-4.5E-4,0,0,0,1363006,1669135,114892,275324,312399,760800,1204911,529448,Tag0,unknown
1605939269596,200,-2048,-4.5E-4,0,0,0,1363006,1669135,114892,275324,312399,760800,1204911,529448,Tag0,unknown
1605939269614,200,1819,3.9968261718750005E-4,0,0,0,1363006,1669135,114892,275324,312399,760800,1204911,529448,Tag0,unknown
1605939269639,200,-1877,-4.124267578125E-4,0,0,0,1363006,1669135,114892,275324,312399,760800,1204911,529448,Tag0,unknown
1605939269649,200,-1138,-2.50048828125E-4,0,0,0,1363006,1669135,114892,275324,312399,760800,1204911,529448,Tag0,unknown
1605939269675,200,-1977,-4.3439941406249997E-4,0,0,0,1363006,1669135,114892,275324,312399,760800,1204911,529448,Tag0,unknown
1605939269685,200,-1464,-3.216796875E-4,0,0,0,1363006,1669135,114892,275324,312399,760800,1204911,529448,Tag0,unknown
1605939269717,200,1046,2.29833984375E-4,0,0,0,1363006,1669135,114892,275324,312399,760800,1204911,529448,Tag0,unknown
1605939269730,200,1577,3.465087890625E-4,0,0,0,1363006,1669135,114892,275324,312399,760800,1204911,529448,Tag0,unknown
1605939269768,200,1791,3.935302734375E-4,0,0,0,1804199,36043,272740,63509,153555,135293,16749515,83578,Tag0,unknown
1605939269778,200,1572,3.4541015625E-4,0,0,0,1804199,36043,272740,63509,153555,135293,16749515,83578,Tag0,unknown
1605939269799,200,981,2.155517578125E-4,0,0,0,1804199,36043,272740,63509,153555,135293,16749515,83578,Tag0,unknown
1605939269814,200,896,1.96875E-4,0,0,0,1804199,36043,272740,63509,153555,135293,16749515,83578,Tag0,unknown
1605939269835,200,787,1.729248046875E-4,0,0,0,1804199,36043,272740,63509,153555,135293,16749515,83578,Tag0,unknown
1605939269848,200,477,1.048095703125E-4,0,0,0,1804199,36043,272740,63509,153555,135293,16749515,83578,Tag0,unknown
1605939269858,200,137,3.0102539062499998E-5,0,0,0,1804199,36043,272740,63509,153555,135293,16749515,83578,Tag0,unknown
1605939269870,200,352,7.734375E-5,0,0,0,1804199,36043,272740,63509,153555,135293,16749515,83578,Tag0,unknown
1605939269881,200,329,7.229003906250001E-5,0,0,0,1804199,36043,272740,63509,153555,135293,16749515,83578,Tag0,unknown
1605939269905,200,-9,-1.9775390625E-6,0,0,0,1804199,36043,272740,63509,153555,135293,16749515,83578,Tag0,unknown
1605939269915,200,-23,-5.0537109375E-6,0,0,0,1804199,36043,272740,63509,153555,135293,16749515,83578,Tag0,unknown
1605939269940,200,-120,-2.63671875E-5,0,0,0,1804199,36043,272740,63509,153555,135293,16749515,83578,Tag0,unknown
1605939269950,200,-260,-5.712890625E-5,0,0,0,1804199,36043,272740,63509,153555,135293,16749515,83578,Tag0,unknown
1605939269974,200,124,2.724609375E-5,0,0,0,1804199,36043,272740,63509,153555,135293,16749515,83578,Tag0,unknown
1605939269984,200,-128,-2.8125E-5,0,0,0,1804199,36043,272740,63509,153555,135293,16749515,83578,Tag0,unknown
1605939269998,200,116,2.548828125E-5,0,0,0,1804199,36043,272740,63509,153555,135293,16749515,83578,Tag0,unknown
1605939270017,200,-1289,-2.8322753906250003E-4,0,0,0,1804199,36043,272740,63509,153555,135293,16749515,83578,Tag0,unknown
1605939270048,200,295,6.48193359375E-5,0,0,0,1804199,36043,272740,63509,153555,135293,16749515,83578,Tag0,unknown
1605939270065,200,283,6.218261718750001E-5,0,0,0,1804199,36043,272740,63509,153555,135293,16749515,83578,Tag0,unknown
1605939270075,200,-2077,-4.563720703125E-4,0,0,0,1804199,36043,272740,63509,153555,135293,16749515,83578,Tag0,unknown
1605939270089,200,-1433,-3.148681640625E-4,0,0,0,1804199,36043,272740,63509,153555,135293,16749515,83578,Tag0,unknown
1605939270099,200,-908,-1.9951171875E-4,0,0,0,1804199,36043,272740,63509,153555,135293,16749515,83578,Tag0,unknown
1605939270123,200,566,1.2436523437500002E-4,0,0,0,1804199,36043,272740,63509,153555,135293,16749515,83578,Tag0,unknown
1605939270137,200,-1001,-2.1994628906249998E-4,0,0,0,1804199,36043,272740,63509,153555,135293,16749515,83578,Tag0,unknown
1605939270147,200,-1765,-3.878173828125E-4,0,0,0,1804199,36043,272740,63509,153555,135293,16749515,83578,Tag0,unknown
1605939270159,200,-2048,-4.5E-4,0,0,0,1804199,36043,272740,63509,153555,135293,16749515,83578,Tag0,unknown
1605939270169,200,-2048,-4.5E-4,0,0,0,1804199,36043,272740,63509,153555,135293,16749515,83578,Tag0,unknown
1605939270193,200,-1780,-3.9111328125E-4,0,0,0,1804199,36043,272740,63509,153555,135293,16749515,83578,Tag0,unknown
1605939270203,200,-1239,-2.7224121093750005E-4,0,0,0,1804199,36043,272740,63509,153555,135293,16749515,83578,Tag0,unknown
1605939270234,200,1164,2.5576171875E-4,0,0,0,1804199,36043,272740,63509,153555,135293,16749515,83578,Tag0,unknown
1605939270267,200,1746,3.8364257812500003E-4,0,0,0,1804199,36043,272740,63509,153555,135293,16749515,83578,Tag0,unknown
1605939270282,200,1791,3.935302734375E-4,0,0,0,1804199,36043,272740,63509,153555,135293,16749515,83578,Tag0,unknown
1605939270305,200,-2106,-4.6274414062500005E-4,0,0,0,1804199,36043,272740,63509,153555,135293,16749515,83578,Tag0,unknown
1605939270315,200,-1716,-3.7705078125E-4,0,0,0,1804199,36043,272740,63509,153555,135293,16749515,83578,Tag0,unknown
1605939270342,200,-1163,-2.555419921875E-4,0,0,0,1804199,36043,272740,63509,153555,135293,16749515,83578,Tag0,unknown
1605939270352,200,1203,2.643310546875E-4,0,0,0,1804199,36043,272740,63509,153555,135293,16749515,83578,Tag0,unknown
1605939270366,200,426,9.3603515625E-5,0,0,0,1804199,36043,272740,63509,153555,135293,16749515,83578,Tag0,unknown
1605939270384,200,-1050,-2.30712890625E-4,0,0,0,1804199,36043,272740,63509,153555,135293,16749515,83578,Tag0,unknown
1605939270400,200,-731,-1.6062011718749998E-4,0,0,0,1804199,36043,272740,63509,153555,135293,16749515,83578,Tag0,unknown
1605939270421,200,1791,3.935302734375E-4,0,0,0,1804199,36043,272740,63509,153555,135293,16749515,83578,Tag0,unknown
1605939270433,200,1791,3.935302734375E-4,0,0,0,1804199,36043,272740,63509,153555,135293,16749515,83578,Tag0,unknown
1605939270459,200,1506,3.3090820312500004E-4,0,0,0,1804199,36043,272740,63509,153555,135293,16749515,83578,Tag0,unknown
1605939270469,200,1443,3.170654296875E-4,0,0,0,1804199,36043,272740,63509,153555,135293,16749515,83578,Tag0,unknown
1605939270501,200,793,1.742431640625E-4,0,0,0,1804199,36043,272740,63509,153555,135293,16749515,83578,Tag0,unknown
1605939270516,200,-2085,-4.581298828125E-4,0,0,0,1804199,36043,272740,63509,153555,135293,16749515,83578,Tag0,unknown
1605939270534,200,-2048,-4.5E-4,0,0,0,1804199,36043,272740,63509,153555,135293,16749515,83578,Tag0,unknown
1605939270551,200,-2048,-4.5E-4,0,0,0,1804199,36043,272740,63509,153555,135293,16749515,83578,Tag0,unknown
1605939270561,200,384,8.4375E-5,0,0,0,1804199,36043,272740,63509,153555,135293,16749515,83578,Tag0,unknown
1605939270575,200,1133,2.489501953125E-4,0,0,0,1804199,36043,272740,63509,153555,135293,16749515,83578,Tag0,unknown
1605939270585,200,-1378,-3.02783203125E-4,0,0,0,1804199,36043,272740,63509,153555,135293,16749515,83578,Tag0,unknown
1605939270608,200,1791,3.935302734375E-4,0,0,0,1804199,36043,272740,63509,153555,135293,16749515,83578,Tag0,unknown
1605939270618,200,1791,3.935302734375E-4,0,0,0,1804199,36043,272740,63509,153555,135293,16749515,83578,Tag0,unknown
1605939270628,200,1163,2.555419921875E-4,0,0,0,1804199,36043,272740,63509,153555,135293,16749515,83578,Tag0,unknown
1605939270651,200,1259,2.7663574218750005E-4,0,0,0,1804199,36043,272740,63509,153555,135293,16749515,83578,Tag0,unknown
1605939270666,200,811,1.781982421875E-4,0,0,0,1804199,36043,272740,63509,153555,135293,16749515,83578,Tag0,unknown
1605939270684,200,1035,2.274169921875E-4,0,0,0,1804199,36043,272740,63509,153555,135293,16749515,83578,Tag0,unknown
1605939270701,200,709,1.557861328125E-4,0,0,0,1804199,36043,272740,63509,153555,135293,16749515,83578,Tag0,unknown
1605939270711,200,619,1.360107421875E-4,0,0,0,1804199,36043,272740,63509,153555,135293,16749515,83578,Tag0,unknown
1605939270724,200,189,4.15283203125E-5,0,0,0,1804199,36043,272740,63509,153555,135293,16749515,83578,Tag0,unknown
1605939270738,200,163,3.5815429687500006E-5,0,0,0,1804199,36043,272740,63509,153555,135293,16749515,83578,Tag0,unknown
1605939270748,200,341,7.492675781250002E-5,0,0,0,752086,315563,28740,57718,16754828,113839,74605,16759068,Tag0,unknown
1605939270763,200,841,1.847900390625E-4,0,0,0,752086,315563,28740,57718,16754828,113839,74605,16759068,Tag0,unknown
1605939270784,200,-2048,-4.5E-4,0,0,0,752086,315563,28740,57718,16754828,113839,74605,16759068,Tag0,unknown
1605939270800,200,-2048,-4.5E-4,0,0,0,752086,315563,28740,57718,16754828,113839,74605,16759068,Tag0,unknown
1605939270810,200,-1761,-3.8693847656250005E-4,0,0,0,752086,315563,28740,57718,16754828,113839,74605,16759068,Tag0,unknown
1605939270834,200,-1416,-3.1113281250000005E-4,0,0,0,752086,315563,28740,57718,16754828,113839,74605,16759068,Tag0,unknown
1605939270867,200,-950,-2.08740234375E-4,0,0,0,752086,315563,28740,57718,16754828,113839,74605,16759068,Tag0,unknown
1605939270884,200,-1123,-2.4675292968750004E-4,0,0,0,752086,315563,28740,57718,16754828,113839,74605,16759068,Tag0,unknown
1605939270894,200,1791,3.935302734375E-4,0,0,0,752086,315563,28740,57718,16754828,113839,74605,16759068,Tag0,unknown
1605939270906,200,-2048,-4.5E-4,0,0,0,752086,315563,28740,57718,16754828,113839,74605,16759068,Tag0,unknown
1605939270917,200,-1842,-4.04736328125E-4,0,0,0,752086,315563,28740,57718,16754828,113839,74605,16759068,Tag0,unknown
1605939270940,200,-410,-9.0087890625E-5,0,0,0,752086,315563,28740,57718,16754828,113839,74605,16759068,Tag0,unknown
1605939270952,200,-5,-1.0986328125E-6,0,0,0,752086,315563,28740,57718,16754828,113839,74605,16759068,Tag0,unknown
1605939270962,200,-1331,-2.9245605468750005E-4,0,0,0,752086,315563,28740,57718,16754828,113839,74605,16759068,Tag0,unknown
1605939270979,200,-1144,-2.513671875E-4,0,0,0,752086,315563,28740,57718,16754828,113839,74605,16759068,Tag0,unknown
1605939270989,200,-41,-9.008789062499999E-6,0,0,0,752086,315563,28740,57718,16754828,113839,74605,16759068,Tag0,unknown
1605939271014,200,-349,-7.668457031250001E-5,0,0,0,752086,315563,28740,57718,16754828,113839,74605,16759068,Tag0,unknown
1605939271024,200,163,3.5815429687500006E-5,0,0,0,752086,315563,28740,57718,16754828,113839,74605,16759068,Tag0,unknown
1605939271051,200,1791,3.935302734375E-4,0,0,0,752086,315563,28740,57718,16754828,113839,74605,16759068,Tag0,unknown
1605939271067,200,1432,3.146484375E-4,0,0,0,752086,315563,28740,57718,16754828,113839,74605,16759068,Tag0,unknown
1605939271084,200,-2048,-4.5E-4,0,0,0,752086,315563,28740,57718,16754828,113839,74605,16759068,Tag0,unknown
1605939271113,200,-1265,-2.779541015625E-4,0,0,0,752086,315563,28740,57718,16754828,113839,74605,16759068,Tag0,unknown
1605939271123,200,871,1.9138183593749998E-4,0,0,0,752086,315563,28740,57718,16754828,113839,74605,16759068,Tag0,unknown
1605939271133,200,-2048,-4.5E-4,0,0,0,752086,315563,28740,57718,16754828,113839,74605,16759068,Tag0,unknown
1605939271149,200,1791,3.935302734375E-4,0,0,0,752086,315563,28740,57718,16754828,113839,74605,16759068,Tag0,unknown
1605939271169,200,-2048,-4.5E-4,0,0,0,752086,315563,28740,57718,16754828,113839,74605,16759068,Tag0,unknown
1605939271187,200,-2048,-4.5E-4,0,0,0,752086,315563,28740,57718,16754828,113839,74605,16759068,Tag0,unknown
1605939271197,200,1791,3.935302734375E-4,0,0,0,752086,315563,28740,57718,16754828,113839,74605,16759068,Tag0,unknown
1605939271207,200,-2048,-4.5E-4,0,0,0,752086,315563,28740,57718,16754828,113839,74605,16759068,Tag0,unknown
1605939271225,200,-2048,-4.5E-4,0,0,0,752086,315563,28740,57718,16754828,113839,74605,16759068,Tag0,unknown
1605939271236,200,-2048,-4.5E-4,0,0,0,752086,315563,28740,57718,16754828,113839,74605,16759068,Tag0,unknown
1605939271261,200,1791,3.935302734375E-4,0,0,0,752086,315563,28740,57718,16754828,113839,74605,16759068,Tag0,unknown
1605939271271,200,-2048,-4.5E-4,0,0,0,752086,315563,28740,57718,16754828,113839,74605,16759068,Tag0,unknown
1605939271295,200,-2048,-4.5E-4,0,0,0,752086,315563,28740,57718,16754828,113839,74605,16759068,Tag0,unknown
1605939271310,200,1791,3.935302734375E-4,0,0,0,752086,315563,28740,57718,16754828,113839,74605,16759068,Tag0,unknown
1605939271322,200,-2048,-4.5E-4,0,0,0,752086,315563,28740,57718,16754828,113839,74605,16759068,Tag0,unknown
1605939271344,200,1791,3.935302734375E-4,0,0,0,752086,315563,28740,57718,16754828,113839,74605,16759068,Tag0,unknown
1605939271354,200,-2048,-4.5E-4,0,0,0,752086,315563,28740,57718,16754828,113839,74605,16759068,Tag0,unknown
1605939271386,200,1791,3.935302734375E-4,0,0,0,752086,315563,28740,57718,16754828,113839,74605,16759068,Tag0,unknown
1605939271420,200,1791,3.935302734375E-4,0,0,0,752086,315563,28740,57718,16754828,113839,74605,16759068,Tag0,unknown
1605939271438,200,-2048,-4.5E-4,0,0,0,752086,315563,28740,57718,16754828,113839,74605,16759068,Tag0,unknown
1605939271454,200,-2048,-4.5E-4,0,0,0,752086,315563,28740,57718,16754828,113839,74605,16759068,Tag0,unknown
1605939271470,200,1791,3.935302734375E-4,0,0,0,752086,315563,28740,57718,16754828,113839,74605,16759068,Tag0,unknown
1605939271480,200,-2048,-4.5E-4,0,0,0,752086,315563,28740,57718,16754828,113839,74605,16759068,Tag0,unknown
1605939271491,200,-2048,-4.5E-4,0,0,0,752086,315563,28740,57718,16754828,113839,74605,16759068,Tag0,unknown
1605939271502,200,1791,3.935302734375E-4,0,0,0,752086,315563,28740,57718,16754828,113839,74605,16759068,Tag0,unknown
1605939271525,200,1791,3.935302734375E-4,0,0,0,752086,315563,28740,57718,16754828,113839,74605,16759068,Tag0,unknown
1605939271535,200,1791,3.935302734375E-4,0,0,0,752086,315563,28740,57718,16754828,113839,74605,16759068,Tag0,unknown
1605939271545,200,-2048,-4.5E-4,0,0,0,752086,315563,28740,57718,16754828,113839,74605,16759068,Tag0,unknown
1605939271562,200,1791,3.935302734375E-4,0,0,0,752086,315563,28740,57718,16754828,113839,74605,16759068,Tag0,unknown
1605939271572,200,-2048,-4.5E-4,0,0,0,752086,315563,28740,57718,16754828,113839,74605,16759068,Tag0,unknown
1605939271596,200,-2048,-4.5E-4,0,0,0,752086,315563,28740,57718,16754828,113839,74605,16759068,Tag0,unknown
1605939271606,200,1791,3.935302734375E-4,0,0,0,752086,315563,28740,57718,16754828,113839,74605,16759068,Tag0,unknown
1605939271620,200,1791,3.935302734375E-4,0,0,0,752086,315563,28740,57718,16754828,113839,74605,16759068,Tag0,unknown
1605939271640,200,-2048,-4.5E-4,0,0,0,752086,315563,28740,57718,16754828,113839,74605,16759068,Tag0,unknown
1605939271672,200,-39,-8.5693359375E-6,0,0,0,752086,315563,28740,57718,16754828,113839,74605,16759068,Tag0,unknown
1605939271686,200,1791,3.935302734375E-4,0,0,0,752086,315563,28740,57718,16754828,113839,74605,16759068,Tag0,unknown
1605939271708,200,-2048,-4.5E-4,0,0,0,752086,315563,28740,57718,16754828,113839,74605,16759068,Tag0,unknown
1605939271721,200,1791,3.935302734375E-4,0,0,0,752086,315563,28740,57718,16754828,113839,74605,16759068,Tag0,unknown
1605939271743,200,1791,3.935302734375E-4,0,0,0,752086,315563,28740,57718,16754828,113839,74605,16759068,Tag0,unknown
1605939271753,200,-2048,-4.5E-4,0,0,0,752086,315563,28740,57718,16754828,113839,74605,16759068,Tag0,unknown
1605939271763,200,1791,3.935302734375E-4,0,0,0,1055923,430958,36255,133130,76074,148846,264220,141067,Tag0,unknown
1605939271780,200,-2048,-4.5E-4,0,0,0,1055923,430958,36255,133130,76074,148846,264220,141067,Tag0,unknown
1605939271790,200,1791,3.935302734375E-4,0,0,0,1055923,430958,36255,133130,76074,148846,264220,141067,Tag0,unknown
1605939271801,200,-2048,-4.5E-4,0,0,0,1055923,430958,36255,133130,76074,148846,264220,141067,Tag0,unknown
1605939271821,200,-2048,-4.5E-4,0,0,0,1055923,430958,36255,133130,76074,148846,264220,141067,Tag0,unknown
1605939271837,200,-2048,-4.5E-4,0,0,0,1055923,430958,36255,133130,76074,148846,264220,141067,Tag0,unknown
1605939271854,200,1791,3.935302734375E-4,0,0,0,1055923,430958,36255,133130,76074,148846,264220,141067,Tag0,unknown
1605939271870,200,1791,3.935302734375E-4,0,0,0,1055923,430958,36255,133130,76074,148846,264220,141067,Tag0,unknown
1605939271894,200,1791,3.935302734375E-4,0,0,0,1055923,430958,36255,133130,76074,148846,264220,141067,Tag0,unknown
1605939271904,200,1791,3.935302734375E-4,0,0,0,1055923,430958,36255,133130,76074,148846,264220,141067,Tag0,unknown
1605939271929,200,-23,-5.0537109375E-6,0,0,0,1055923,430958,36255,133130,76074,148846,264220,141067,Tag0,unknown
1605939271940,200,-2048,-4.5E-4,0,0,0,1055923,430958,36255,133130,76074,148846,264220,141067,Tag0,unknown
1605939271963,200,1791,3.935302734375E-4,0,0,0,1055923,430958,36255,133130,76074,148846,264220,141067,Tag0,unknown
1605939271979,200,1791,3.935302734375E-4,0,0,0,1055923,430958,36255,133130,76074,148846,264220,141067,Tag0,unknown
1605939272007,200,-2048,-4.5E-4,0,0,0,1055923,430958,36255,133130,76074,148846,264220,141067,Tag0,unknown
1605939272021,200,1791,3.935302734375E-4,0,0,0,1055923,430958,36255,133130,76074,148846,264220,141067,Tag0,unknown
1605939272043,200,-2048,-4.5E-4,0,0,0,1055923,430958,36255,133130,76074,148846,264220,141067,Tag0,unknown
1605939272057,200,1791,3.935302734375E-4,0,0,0,1055923,430958,36255,133130,76074,148846,264220,141067,Tag0,unknown
1605939272079,200,1791,3.935302734375E-4,0,0,0,1055923,430958,36255,133130,76074,148846,264220,141067,Tag0,unknown
1605939272093,200,1791,3.935302734375E-4,0,0,0,1055923,430958,36255,133130,76074,148846,264220,141067,Tag0,unknown
1605939272114,200,1283,2.819091796875E-4,0,0,0,1055923,430958,36255,133130,76074,148846,264220,141067,Tag0,unknown
1605939272124,200,1140,2.5048828125E-4,0,0,0,1055923,430958,36255,133130,76074,148846,264220,141067,Tag0,unknown
1605939272151,200,1127,2.476318359375E-4,0,0,0,1055923,430958,36255,133130,76074,148846,264220,141067,Tag0,unknown
1605939272161,200,833,1.830322265625E-4,0,0,0,1055923,430958,36255,133130,76074,148846,264220,141067,Tag0,unknown
1605939272187,200,205,4.50439453125E-5,0,0,0,1055923,430958,36255,133130,76074,148846,264220,141067,Tag0,unknown
1605939272205,200,-30,-6.591796875E-6,0,0,0,1055923,430958,36255,133130,76074,148846,264220,141067,Tag0,unknown
1605939272223,200,317,6.96533203125E-5,0,0,0,1055923,430958,36255,133130,76074,148846,264220,141067,Tag0,unknown
1605939272239,200,-1422,-3.12451171875E-4,0,0,0,1055923,430958,36255,133130,76074,148846,264220,141067,Tag0,unknown
1605939272262,200,-2048,-4.5E-4,0,0,0,1055923,430958,36255,133130,76074,148846,264220,141067,Tag0,unknown
1605939272272,200,1791,3.935302734375E-4,0,0,0,1055923,430958,36255,133130,76074,148846,264220,141067,Tag0,unknown
1605939272294,200,-341,-7.492675781250002E-5,0,0,0,1055923,430958,36255,133130,76074,148846,264220,141067,Tag0,unknown
1605939272305,200,-2048,-4.5E-4,0,0,0,1055923,430958,36255,133130,76074,148846,264220,141067,Tag0,unknown
1605939272315,200,-1147,-2.520263671875E-4,0,0,0,1055923,430958,36255,133130,76074,148846,264220,141067,Tag0,unknown
1605939272332,200,-715,-1.571044921875E-4,0,0,0,1055923,430958,36255,133130,76074,148846,264220,141067,Tag0,unknown
1605939272342,200,-1283,-2.819091796875E-4,0,0,0,1055923,430958,36255,133130,76074,148846,264220,141067,Tag0,unknown
1605939272359,200,1791,3.935302734375E-4,0,0,0,1055923,430958,36255,133130,76074,148846,264220,141067,Tag0,unknown
1605939272376,200,1791,3.935302734375E-4,0,0,0,1055923,430958,36255,133130,76074,148846,264220,141067,Tag0,unknown
1605939272393,200,1656,3.6386718750000004E-4,0,0,0,1055923,430958,36255,133130,76074,148846,264220,141067,Tag0,unknown
1605939272406,200,1543,3.390380859375E-4,0,0,0,1055923,430958,36255,133130,76074,148846,264220,141067,Tag0,unknown
1605939272432,200,435,9.55810546875E-5,0,0,0,1055923,430958,36255,133130,76074,148846,264220,141067,Tag0,unknown
1605939272442,200,626,1.37548828125E-4,0,0,0,1055923,430958,36255,133130,76074,148846,264220,141067,Tag0,unknown
1605939272466,200,211,4.63623046875E-5,0,0,0,1055923,430958,36255,133130,76074,148846,264220,141067,Tag0,unknown
1605939272476,200,139,3.0541992187500004E-5,0,0,0,1055923,430958,36255,133130,76074,148846,264220,141067,Tag0,unknown
1605939272486,200,-20,-4.39453125E-6,0,0,0,1055923,430958,36255,133130,76074,148846,264220,141067,Tag0,unknown
1605939272502,200,-25,-5.4931640625E-6,0,0,0,1055923,430958,36255,133130,76074,148846,264220,141067,Tag0,unknown
1605939272523,200,57,1.2524414062500001E-5,0,0,0,1055923,430958,36255,133130,76074,148846,264220,141067,Tag0,unknown
1605939272543,200,-2048,-4.5E-4,0,0,0,1055923,430958,36255,133130,76074,148846,264220,141067,Tag0,unknown
1605939272553,200,1073,2.357666015625E-4,0,0,0,1055923,430958,36255,133130,76074,148846,264220,141067,Tag0,unknown
1605939272563,200,1058,2.32470703125E-4,0,0,0,1055923,430958,36255,133130,76074,148846,264220,141067,Tag0,unknown
1605939272579,200,856,1.880859375E-4,0,0,0,1055923,430958,36255,133130,76074,148846,264220,141067,Tag0,unknown
1605939272609,200,-1938,-4.25830078125E-4,0,0,0,1055923,430958,36255,133130,76074,148846,264220,141067,Tag0,unknown
1605939272623,200,791,1.738037109375E-4,0,0,0,1055923,430958,36255,133130,76074,148846,264220,141067,Tag0,unknown
1605939272633,200,632,1.3886718750000002E-4,0,0,0,1055923,430958,36255,133130,76074,148846,264220,141067,Tag0,unknown
1605939272648,200,536,1.1777343750000001E-4,0,0,0,1055923,430958,36255,133130,76074,148846,264220,141067,Tag0,unknown
1605939272658,200,246,5.4052734375E-5,0,0,0,1055923,430958,36255,133130,76074,148846,264220,141067,Tag0,unknown
1605939272681,200,357,7.844238281250001E-5,0,0,0,1055923,430958,36255,133130,76074,148846,264220,141067,Tag0,unknown
1605939272693,200,338,7.426757812499999E-5,0,0,0,1055923,430958,36255,133130,76074,148846,264220,141067,Tag0,unknown
1605939272703,200,-45,-9.8876953125E-6,0,0,0,1055923,430958,36255,133130,76074,148846,264220,141067,Tag0,unknown
1605939272724,200,-69,-1.51611328125E-5,0,0,0,1055923,430958,36255,133130,76074,148846,264220,141067,Tag0,unknown
1605939272741,200,-75,-1.64794921875E-5,0,0,0,1055923,430958,36255,133130,76074,148846,264220,141067,Tag0,unknown
1605939272751,200,67,1.4721679687500002E-5,0,0,0,1475618,106516,16757594,136623,107725,109007,142808,69905,Tag0,unknown
1605939272763,200,-1682,-3.69580078125E-4,0,0,0,1475618,106516,16757594,136623,107725,109007,142808,69905,Tag0,unknown
1605939272774,200,-25,-5.4931640625E-6,0,0,0,1475618,106516,16757594,136623,107725,109007,142808,69905,Tag0,unknown
1605939272798,200,-2048,-4.5E-4,0,0,0,1475618,106516,16757594,136623,107725,109007,142808,69905,Tag0,unknown
1605939272808,200,-2048,-4.5E-4,0,0,0,1475618,106516,16757594,136623,107725,109007,142808,69905,Tag0,unknown
1605939272818,200,1741,3.8254394531250004E-4,0,0,0,1475618,106516,16757594,136623,107725,109007,142808,69905,Tag0,unknown
1605939272838,200,633,1.3908691406250002E-4,0,0,0,1475618,106516,16757594,136623,107725,109007,142808,69905,Tag0,unknown
1605939272848,200,1517,3.333251953125E-4,0,0,0,1475618,106516,16757594,136623,107725,109007,142808,69905,Tag0,unknown
1605939272870,200,1353,2.972900390625E-4,0,0,0,1475618,106516,16757594,136623,107725,109007,142808,69905,Tag0,unknown
1605939272880,200,961,2.111572265625E-4,0,0,0,1475618,106516,16757594,136623,107725,109007,142808,69905,Tag0,unknown
1605939272890,200,-2048,-4.5E-4,0,0,0,1475618,106516,16757594,136623,107725,109007,142808,69905,Tag0,unknown
1605939272907,200,-2048,-4.5E-4,0,0,0,1475618,106516,16757594,136623,107725,109007,142808,69905,Tag0,unknown
1605939272923,200,-2048,-4.5E-4,0,0,0,1475618,106516,16757594,136623,107725,109007,142808,69905,Tag0,unknown
1605939272941,200,-1901,-4.177001953125E-4,0,0,0,1475618,106516,16757594,136623,107725,109007,142808,69905,Tag0,unknown
1605939272958,200,-1523,-3.346435546875E-4,0,0,0,1475618,106516,16757594,136623,107725,109007,142808,69905,Tag0,unknown
1605939272968,200,-1321,-2.902587890625E-4,0,0,0,1475618,106516,16757594,136623,107725,109007,142808,69905,Tag0,unknown
1605939272982,200,-1127,-2.476318359375E-4,0,0,0,1475618,106516,16757594,136623,107725,109007,142808,69905,Tag0,unknown
1605939272992,200,-733,-1.6105957031250002E-4,0,0,0,1475618,106516,16757594,136623,107725,109007,142808,69905,Tag0,unknown
1605939273015,200,1791,3.935302734375E-4,0,0,0,1475618,106516,16757594,136623,107725,109007,142808,69905,Tag0,unknown
1605939273025,200,1791,3.935302734375E-4,0,0,0,1475618,106516,16757594,136623,107725,109007,142808,69905,Tag0,unknown
1605939273052,200,1381,3.0344238281250003E-4,0,0,0,1475618,106516,16757594,136623,107725,109007,142808,69905,Tag0,unknown
1605939273062,200,-2048,-4.5E-4,0,0,0,1475618,106516,16757594,136623,107725,109007,142808,69905,Tag0,unknown
1605939273089,200,-2048,-4.5E-4,0,0,0,1475618,106516,16757594,136623,107725,109007,142808,69905,Tag0,unknown
1605939273108,200,-2048,-4.5E-4,0,0,0,1475618,106516,16757594,136623,107725,109007,142808,69905,Tag0,unknown
1605939273118,200,-1723,-3.785888671875E-4,0,0,0,1475618,106516,16757594,136623,107725,109007,142808,69905,Tag0,unknown
1605939273128,200,-1420,-3.1201171875E-4,0,0,0,1475618,106516,16757594,136623,107725,109007,142808,69905,Tag0,unknown
1605939273146,200,-1571,-3.4519042968750004E-4,0,0,0,1475618,106516,16757594,136623,107725,109007,142808,69905,Tag0,unknown
1605939273169,200,-1141,-2.5070800781250004E-4,0,0,0,1475618,106516,16757594,136623,107725,109007,142808,69905,Tag0,unknown
1605939273179,200,-870,-1.91162109375E-4,0,0,0,1475618,106516,16757594,136623,107725,109007,142808,69905,Tag0,unknown
1605939273192,200,-772,-1.6962890625000002E-4,0,0,0,1475618,106516,16757594,136623,107725,109007,142808,69905,Tag0,unknown
1605939273214,200,-564,-1.2392578125E-4,0,0,0,1475618,106516,16757594,136623,107725,109007,142808,69905,Tag0,unknown
1605939273225,200,-535,-1.175537109375E-4,0,0,0,1475618,106516,16757594,136623,107725,109007,142808,69905,Tag0,unknown
1605939273235,200,-360,-7.91015625E-5,0,0,0,1475618,106516,16757594,136623,107725,109007,142808,69905,Tag0,unknown
1605939273250,200,-337,-7.40478515625E-5,0,0,0,1475618,106516,16757594,136623,107725,109007,142808,69905,Tag0,unknown
1605939273260,200,-321,-7.053222656250001E-5,0,0,0,1475618,106516,16757594,136623,107725,109007,142808,69905,Tag0,unknown
1605939273325,200,-279,-6.13037109375E-5,0,0,0,1475618,106516,16757594,136623,107725,109007,142808,69905,Tag0,unknown
1605939273344,200,-273,-5.998535156250001E-5,0,0,0,1475618,106516,16757594,136623,107725,109007,142808,69905,Tag0,unknown
1605939273392,200,8,1.7578125E-6,0,0,0,1475618,106516,16757594,136623,107725,109007,142808,69905,Tag0,unknown
1605939273409,200,11,2.4169921875E-6,0,0,0,1475618,106516,16757594,136623,107725,109007,142808,69905,Tag0,unknown
1605939273459,200,1791,3.935302734375E-4,0,0,0,1475618,106516,16757594,136623,107725,109007,142808,69905,Tag0,unknown
1605939273477,200,616,1.353515625E-4,0,0,0,1475618,106516,16757594,136623,107725,109007,142808,69905,Tag0,unknown
1605939273528,200,-645,-1.417236328125E-4,0,0,0,1475618,106516,16757594,136623,107725,109007,142808,69905,Tag0,unknown
1605939273544,200,721,1.584228515625E-4,0,0,0,1475618,106516,16757594,136623,107725,109007,142808,69905,Tag0,unknown
1605939273595,200,-804,-1.7666015625E-4,0,0,0,1475618,106516,16757594,136623,107725,109007,142808,69905,Tag0,unknown
1605939273611,200,488,1.072265625E-4,0,0,0,1475618,106516,16757594,136623,107725,109007,142808,69905,Tag0,unknown
1605939273662,200,551,1.210693359375E-4,0,0,0,1475618,106516,16757594,136623,107725,109007,142808,69905,Tag0,unknown
1605939273678,200,1791,3.935302734375E-4,0,0,0,1475618,106516,16757594,136623,107725,109007,142808,69905,Tag0,unknown
1605939273730,200,1029,2.260986328125E-4,0,0,0,1475618,106516,16757594,136623,107725,109007,142808,69905,Tag0,unknown
1605939273745,200,968,2.1269531250000002E-4,0,0,0,1475618,106516,16757594,136623,107725,109007,142808,69905,Tag0,unknown
1605939273797,200,1744,3.83203125E-4,0,0,0,1475618,106516,16757594,136623,107725,109007,142808,69905,Tag0,unknown
1605939273812,200,1603,3.522216796875E-4,0,0,0,1475618,106516,16757594,136623,107725,109007,142808,69905,Tag0,unknown
1605939273864,200,-2048,-4.5E-4,0,0,0,1475618,106516,16757594,136623,107725,109007,142808,69905,Tag0,unknown
1605939273879,200,1791,3.935302734375E-4,0,0,0,1475618,106516,16757594,136623,107725,109007,142808,69905,Tag0,unknown
1605939273924,200,1721,3.7814941406250004E-4,0,0,0,1475618,106516,16757594,136623,107725,109007,142808,69905,Tag0,unknown
1605939273946,200,1905,4.185791015625E-4,0,0,0,1475618,106516,16757594,136623,107725,109007,142808,69905,Tag0,unknown
1605939273956,200,945,2.076416015625E-4,0,0,0,1475618,106516,16757594,136623,107725,109007,142808,69905,Tag0,unknown
1605939273966,200,1791,3.935302734375E-4,0,0,0,1475618,106516,16757594,136623,107725,109007,142808,69905,Tag0,unknown
1605939273976,200,1100,2.4169921875E-4,0,0,0,1475618,106516,16757594,136623,107725,109007,142808,69905,Tag0,unknown
1605939273988,200,-2141,-4.704345703125E-4,0,0,0,1475618,106516,16757594,136623,107725,109007,142808,69905,Tag0,unknown
1605939273998,200,-1031,-2.265380859375E-4,0,0,0,1475618,106516,16757594,136623,107725,109007,142808,69905,Tag0,unknown
1605939274009,200,792,1.7402343750000002E-4,0,0,0,1475618,106516,16757594,136623,107725,109007,142808,69905,Tag0,unknown
1605939274028,200,-1665,-3.658447265625E-4,0,0,0,1475618,106516,16757594,136623,107725,109007,142808,69905,Tag0,unknown
1605939274043,200,-1481,-3.2541503906250005E-4,0,0,0,1475618,106516,16757594,136623,107725,109007,142808,69905,Tag0,unknown
1605939274062,200,-1363,-2.9948730468750003E-4,0,0,0,1475618,106516,16757594,136623,107725,109007,142808,69905,Tag0,unknown
1605939274076,200,1791,3.935302734375E-4,0,0,0,1475618,106516,16757594,136623,107725,109007,142808,69905,Tag0,unknown
1605939274096,200,1791,3.935302734375E-4,0,0,0,1475618,106516,16757594,136623,107725,109007,142808,69905,Tag0,unknown
1605939274113,200,1791,3.935302734375E-4,0,0,0,1475618,106516,16757594,136623,107725,109007,142808,69905,Tag0,unknown
1605939274132,200,195,4.28466796875E-5,0,0,0,1475618,106516,16757594,136623,107725,109007,142808,69905,Tag0,unknown
1605939274147,200,1089,2.392822265625E-4,0,0,0,1475618,106516,16757594,136623,107725,109007,142808,69905,Tag0,unknown
1605939274169,200,657,1.443603515625E-4,0,0,0,1475618,106516,16757594,136623,107725,109007,142808,69905,Tag0,unknown
1605939274179,200,827,1.8171386718750002E-4,0,0,0,1475618,106516,16757594,136623,107725,109007,142808,69905,Tag0,unknown
1605939274203,200,483,1.061279296875E-4,0,0,0,1475618,106516,16757594,136623,107725,109007,142808,69905,Tag0,unknown
1605939274213,200,619,1.360107421875E-4,0,0,0,1475618,106516,16757594,136623,107725,109007,142808,69905,Tag0,unknown
1605939274245,200,1791,3.935302734375E-4,0,0,0,1475618,106516,16757594,136623,107725,109007,142808,69905,Tag0,unknown
1605939274261,200,1145,2.515869140625E-4,0,0,0,1475618,106516,16757594,136623,107725,109007,142808,69905,Tag0,unknown
1605939274280,200,-2048,-4.5E-4,0,0,0,1475618,106516,16757594,136623,107725,109007,142808,69905,Tag0,unknown
1605939274295,200,-2048,-4.5E-4,0,0,0,1475618,106516,16757594,136623,107725,109007,142808,69905,Tag0,unknown
1605939274305,200,1698,3.73095703125E-4,0,0,0,1475618,106516,16757594,136623,107725,109007,142808,69905,Tag0,unknown
1605939274317,200,1791,3.935302734375E-4,0,0,0,1475618,106516,16757594,136623,107725,109007,142808,69905,Tag0,unknown
1605939274329,200,773,1.6984863281250002E-4,0,0,0,1475618,106516,16757594,136623,107725,109007,142808,69905,Tag0,unknown
1605939274352,200,-1099,-2.414794921875E-4,0,0,0,1475618,106516,16757594,136623,107725,109007,142808,69905,Tag0,unknown
1605939274364,200,-2048,-4.5E-4,0,0,0,1475618,106516,16757594,136623,107725,109007,142808,69905,Tag0,unknown
1605939274387,200,-1643,-3.6101074218750003E-4,0,0,0,1475618,106516,16757594,136623,107725,109007,142808,69905,Tag0,unknown
1605939274397,200,-1401,-3.0783691406250003E-4,0,0,0,1475618,106516,16757594,136623,107725,109007,142808,69905,Tag0,unknown
1605939274423,200,35,7.6904296875E-6,0,0,0,1475618,106516,16757594,136623,107725,109007,142808,69905,Tag0,unknown
1605939274433,200,1791,3.935302734375E-4,0,0,0,1475618,106516,16757594,136623,107725,109007,142808,69905,Tag0,unknown
1605939274460,200,1835,4.031982421875E-4,0,0,0,1475618,106516,16757594,136623,107725,109007,142808,69905,Tag0,unknown
1605939274480,200,1436,3.1552734375E-4,0,0,0,1475618,106516,16757594,136623,107725,109007,142808,69905,Tag0,unknown
1605939274498,200,-2048,-4.5E-4,0,0,0,1475618,106516,16757594,136623,107725,109007,142808,69905,Tag0,unknown
1605939274508,200,-1982,-4.35498046875E-4,0,0,0,1475618,106516,16757594,136623,107725,109007,142808,69905,Tag0,unknown
1605939274519,200,-2170,-4.76806640625E-4,0,0,0,1475618,106516,16757594,136623,107725,109007,142808,69905,Tag0,unknown
1605939274535,200,-1204,-2.6455078125000003E-4,0,0,0,1475618,106516,16757594,136623,107725,109007,142808,69905,Tag0,unknown
1605939274546,200,-1325,-2.911376953125E-4,0,0,0,1475618,106516,16757594,136623,107725,109007,142808,69905,Tag0,unknown
1605939274570,200,-715,-1.571044921875E-4,0,0,0,1475618,106516,16757594,136623,107725,109007,142808,69905,Tag0,unknown
1605939274580,200,-451,-9.909667968750001E-5,0,0,0,1475618,106516,16757594,136623,107725,109007,142808,69905,Tag0,unknown
1605939274607,200,-241,-5.29541015625E-5,0,0,0,1475618,106516,16757594,136623,107725,109007,142808,69905,Tag0,unknown
1605939274619,200,-217,-4.76806640625E-5,0,0,0,1475618,106516,16757594,136623,107725,109007,142808,69905,Tag0,unknown
1605939274640,200,-383,-8.41552734375E-5,0,0,0,1475618,106516,16757594,136623,107725,109007,142808,69905,Tag0,unknown
1605939274650,200,1791,3.935302734375E-4,0,0,0,1475618,106516,16757594,136623,107725,109007,142808,69905,Tag0,unknown
1605939274662,200,1791,3.935302734375E-4,0,0,0,1475618,106516,16757594,136623,107725,109007,142808,69905,Tag0,unknown
1605939274681,200,1791,3.935302734375E-4,0,0,0,1475618,106516,16757594,136623,107725,109007,142808,69905,Tag0,unknown
1605939274696,200,1791,3.935302734375E-4,0,0,0,1475618,106516,16757594,136623,107725,109007,142808,69905,Tag0,unknown
1605939274716,200,1655,3.636474609375E-4,0,0,0,1475618,106516,16757594,136623,107725,109007,142808,69905,Tag0,unknown
1605939274732,200,-2048,-4.5E-4,0,0,0,1475618,106516,16757594,136623,107725,109007,142808,69905,Tag0,unknown
1605939274754,200,1723,3.785888671875E-4,0,0,0,185119,75431,58391,16771205,16765408,16751360,30274,19932,Tag0,unknown
1605939274787,200,996,2.1884765625E-4,0,0,0,185119,75431,58391,16771205,16765408,16751360,30274,19932,Tag0,unknown
1605939274797,200,915,2.010498046875E-4,0,0,0,185119,75431,58391,16771205,16765408,16751360,30274,19932,Tag0,unknown
1605939274824,200,-2048,-4.5E-4,0,0,0,185119,75431,58391,16771205,16765408,16751360,30274,19932,Tag0,unknown
1605939274834,200,-2048,-4.5E-4,0,0,0,185119,75431,58391,16771205,16765408,16751360,30274,19932,Tag0,unknown
1605939274846,200,-2048,-4.5E-4,0,0,0,185119,75431,58391,16771205,16765408,16751360,30274,19932,Tag0,unknown
1605939274866,200,-1580,-3.4716796875E-4,0,0,0,185119,75431,58391,16771205,16765408,16751360,30274,19932,Tag0,unknown
1605939274880,200,-1225,-2.691650390625E-4,0,0,0,185119,75431,58391,16771205,16765408,16751360,30274,19932,Tag0,unknown
1605939274919,200,-1079,-2.3708496093750002E-4,0,0,0,185119,75431,58391,16771205,16765408,16751360,30274,19932,Tag0,unknown
1605939274932,200,-759,-1.667724609375E-4,0,0,0,185119,75431,58391,16771205,16765408,16751360,30274,19932,Tag0,unknown
1605939274942,200,-407,-8.94287109375E-5,0,0,0,185119,75431,58391,16771205,16765408,16751360,30274,19932,Tag0,unknown
1605939274956,200,-538,-1.1821289062499999E-4,0,0,0,185119,75431,58391,16771205,16765408,16751360,30274,19932,Tag0,unknown
1605939274966,200,-245,-5.38330078125E-5,0,0,0,185119,75431,58391,16771205,16765408,16751360,30274,19932,Tag0,unknown
1605939274976,200,-121,-2.6586914062500003E-5,0,0,0,185119,75431,58391,16771205,16765408,16751360,30274,19932,Tag0,unknown
1605939274993,200,649,1.4260253906250002E-4,0,0,0,185119,75431,58391,16771205,16765408,16751360,30274,19932,Tag0,unknown
1605939275003,200,1527,3.3552246093749996E-4,0,0,0,185119,75431,58391,16771205,16765408,16751360,30274,19932,Tag0,unknown
1605939275014,200,267,5.86669921875E-5,0,0,0,185119,75431,58391,16771205,16765408,16751360,30274,19932,Tag0,unknown
1605939275031,200,1791,3.935302734375E-4,0,0,0,185119,75431,58391,16771205,16765408,16751360,30274,19932,Tag0,unknown
1605939275053,200,1791,3.935302734375E-4,0,0,0,185119,75431,58391,16771205,16765408,16751360,30274,19932,Tag0,unknown
1605939275068,200,1791,3.935302734375E-4,0,0,0,185119,75431,58391,16771205,16765408,16751360,30274,19932,Tag0,unknown
1605939275078,200,1613,3.544189453125E-4,0,0,0,185119,75431,58391,16771205,16765408,16751360,30274,19932,Tag0,unknown
1605939275102,200,1557,3.421142578125E-4,0,0,0,185119,75431,58391,16771205,16765408,16751360,30274,19932,Tag0,unknown
1605939275116,200,1194,2.6235351562500005E-4,0,0,0,185119,75431,58391,16771205,16765408,16751360,30274,19932,Tag0,unknown
1605939275126,200,281,6.17431640625E-5,0,0,0,185119,75431,58391,16771205,16765408,16751360,30274,19932,Tag0,unknown
1605939275140,200,-2048,-4.5E-4,0,0,0,185119,75431,58391,16771205,16765408,16751360,30274,19932,Tag0,unknown
1605939275150,200,-1736,-3.814453125E-4,0,0,0,185119,75431,58391,16771205,16765408,16751360,30274,19932,Tag0,unknown
1605939275164,200,-2048,-4.5E-4,0,0,0,185119,75431,58391,16771205,16765408,16751360,30274,19932,Tag0,unknown
1605939275182,200,-1897,-4.168212890625E-4,0,0,0,185119,75431,58391,16771205,16765408,16751360,30274,19932,Tag0,unknown
1605939275198,200,-1521,-3.342041015625E-4,0,0,0,185119,75431,58391,16771205,16765408,16751360,30274,19932,Tag0,unknown
1605939275221,200,-899,-1.975341796875E-4,0,0,0,185119,75431,58391,16771205,16765408,16751360,30274,19932,Tag0,unknown
1605939275236,200,-729,-1.601806640625E-4,0,0,0,185119,75431,58391,16771205,16765408,16751360,30274,19932,Tag0,unknown
1605939275261,200,-421,-9.25048828125E-5,0,0,0,185119,75431,58391,16771205,16765408,16751360,30274,19932,Tag0,unknown
1605939275281,200,-388,-8.525390625E-5,0,0,0,185119,75431,58391,16771205,16765408,16751360,30274,19932,Tag0,unknown
1605939275298,200,-245,-5.38330078125E-5,0,0,0,185119,75431,58391,16771205,16765408,16751360,30274,19932,Tag0,unknown
1605939275317,200,1791,3.935302734375E-4,0,0,0,185119,75431,58391,16771205,16765408,16751360,30274,19932,Tag0,unknown
1605939275333,200,1791,3.935302734375E-4,0,0,0,185119,75431,58391,16771205,16765408,16751360,30274,19932,Tag0,unknown
1605939275350,200,1801,3.957275390625E-4,0,0,0,185119,75431,58391,16771205,16765408,16751360,30274,19932,Tag0,unknown
1605939275366,200,1201,2.6389160156250005E-4,0,0,0,185119,75431,58391,16771205,16765408,16751360,30274,19932,Tag0,unknown
1605939275383,200,731,1.6062011718749998E-4,0,0,0,185119,75431,58391,16771205,16765408,16751360,30274,19932,Tag0,unknown
1605939275406,200,404,8.876953125000001E-5,0,0,0,185119,75431,58391,16771205,16765408,16751360,30274,19932,Tag0,unknown
1605939275437,200,185,4.06494140625E-5,0,0,0,185119,75431,58391,16771205,16765408,16751360,30274,19932,Tag0,unknown
1605939275449,200,135,2.96630859375E-5,0,0,0,185119,75431,58391,16771205,16765408,16751360,30274,19932,Tag0,unknown
1605939275459,200,-2121,-4.660400390625E-4,0,0,0,185119,75431,58391,16771205,16765408,16751360,30274,19932,Tag0,unknown
1605939275474,200,-1671,-3.671630859375E-4,0,0,0,185119,75431,58391,16771205,16765408,16751360,30274,19932,Tag0,unknown
1605939275484,200,-1350,-2.96630859375E-4,0,0,0,185119,75431,58391,16771205,16765408,16751360,30274,19932,Tag0,unknown
1605939275512,200,-939,-2.0632324218750002E-4,0,0,0,185119,75431,58391,16771205,16765408,16751360,30274,19932,Tag0,unknown
1605939275534,200,-1339,-2.942138671875E-4,0,0,0,185119,75431,58391,16771205,16765408,16751360,30274,19932,Tag0,unknown
1605939275544,200,-331,-7.272949218750001E-5,0,0,0,185119,75431,58391,16771205,16765408,16751360,30274,19932,Tag0,unknown
1605939275554,200,-327,-7.18505859375E-5,0,0,0,185119,75431,58391,16771205,16765408,16751360,30274,19932,Tag0,unknown
1605939275586,200,-58,-1.2744140625E-5,0,0,0,185119,75431,58391,16771205,16765408,16751360,30274,19932,Tag0,unknown
1605939275599,200,-107,-2.35107421875E-5,0,0,0,185119,75431,58391,16771205,16765408,16751360,30274,19932,Tag0,unknown
1605939275624,200,743,1.6325683593750002E-4,0,0,0,185119,75431,58391,16771205,16765408,16751360,30274,19932,Tag0,unknown
1605939275634,200,-27,-5.9326171875000005E-6,0,0,0,185119,75431,58391,16771205,16765408,16751360,30274,19932,Tag0,unknown
1605939275658,200,786,1.72705078125E-4,0,0,0,185119,75431,58391,16771205,16765408,16751360,30274,19932,Tag0,unknown
1605939275668,200,762,1.6743164062500002E-4,0,0,0,185119,75431,58391,16771205,16765408,16751360,30274,19932,Tag0,unknown
1605939275694,200,-1137,-2.498291015625E-4,0,0,0,185119,75431,58391,16771205,16765408,16751360,30274,19932,Tag0,unknown
1605939275704,200,-2048,-4.5E-4,0,0,0,185119,75431,58391,16771205,16765408,16751360,30274,19932,Tag0,unknown
1605939275732,200,-2048,-4.5E-4,0,0,0,185119,75431,58391,16771205,16765408,16751360,30274,19932,Tag0,unknown
1605939275750,200,-2048,-4.5E-4,0,0,0,185119,75431,58391,16771205,16765408,16751360,30274,19932,Tag0,unknown
1605939275760,200,-1611,-3.5397949218750005E-4,0,0,0,1672405,1619857,39620,305984,814764,388204,443006,158158,Tag0,unknown
1605939275777,200,-1285,-2.823486328125E-4,0,0,0,1672405,1619857,39620,305984,814764,388204,443006,158158,Tag0,unknown
1605939275787,200,1791,3.935302734375E-4,0,0,0,1672405,1619857,39620,305984,814764,388204,443006,158158,Tag0,unknown
1605939275806,200,1791,3.935302734375E-4,0,0,0,1672405,1619857,39620,305984,814764,388204,443006,158158,Tag0,unknown
1605939275816,200,1791,3.935302734375E-4,0,0,0,1672405,1619857,39620,305984,814764,388204,443006,158158,Tag0,unknown
1605939275840,200,1717,3.772705078125E-4,0,0,0,1672405,1619857,39620,305984,814764,388204,443006,158158,Tag0,unknown
1605939275852,200,1841,4.045166015625E-4,0,0,0,1672405,1619857,39620,305984,814764,388204,443006,158158,Tag0,unknown
1605939275862,200,949,2.085205078125E-4,0,0,0,1672405,1619857,39620,305984,814764,388204,443006,158158,Tag0,unknown
1605939275880,200,811,1.781982421875E-4,0,0,0,1672405,1619857,39620,305984,814764,388204,443006,158158,Tag0,unknown
1605939275900,200,457,1.004150390625E-4,0,0,0,1672405,1619857,39620,305984,814764,388204,443006,158158,Tag0,unknown
1605939275917,200,220,4.833984375E-5,0,0,0,1672405,1619857,39620,305984,814764,388204,443006,158158,Tag0,unknown
1605939275934,200,108,2.3730468750000002E-5,0,0,0,1672405,1619857,39620,305984,814764,388204,443006,158158,Tag0,unknown
1605939275953,200,-2048,-4.5E-4,0,0,0,1672405,1619857,39620,305984,814764,388204,443006,158158,Tag0,unknown
1605939275975,200,-2048,-4.5E-4,0,0,0,1672405,1619857,39620,305984,814764,388204,443006,158158,Tag0,unknown
1605939275987,200,-2048,-4.5E-4,0,0,0,1672405,1619857,39620,305984,814764,388204,443006,158158,Tag0,unknown
1605939276009,200,-2172,-4.7724609374999997E-4,0,0,0,1672405,1619857,39620,305984,814764,388204,443006,158158,Tag0,unknown
1605939276019,200,-1905,-4.185791015625E-4,0,0,0,1672405,1619857,39620,305984,814764,388204,443006,158158,Tag0,unknown
1605939276054,200,-499,-1.096435546875E-4,0,0,0,1672405,1619857,39620,305984,814764,388204,443006,158158,Tag0,unknown
1605939276066,200,1209,2.656494140625E-4,0,0,0,1672405,1619857,39620,305984,814764,388204,443006,158158,Tag0,unknown
1605939276089,200,1791,3.935302734375E-4,0,0,0,1672405,1619857,39620,305984,814764,388204,443006,158158,Tag0,unknown
1605939276105,200,167,3.6694335937500004E-5,0,0,0,1672405,1619857,39620,305984,814764,388204,443006,158158,Tag0,unknown
1605939276115,200,1418,3.11572265625E-4,0,0,0,1672405,1619857,39620,305984,814764,388204,443006,158158,Tag0,unknown
1605939276127,200,1791,3.935302734375E-4,0,0,0,1672405,1619857,39620,305984,814764,388204,443006,158158,Tag0,unknown
1605939276137,200,1791,3.935302734375E-4,0,0,0,1672405,1619857,39620,305984,814764,388204,443006,158158,Tag0,unknown
1605939276161,200,1914,4.2055664062500003E-4,0,0,0,1672405,1619857,39620,305984,814764,388204,443006,158158,Tag0,unknown
1605939276171,200,1545,3.394775390625E-4,0,0,0,1672405,1619857,39620,305984,814764,388204,443006,158158,Tag0,unknown
1605939276181,200,-278,-6.108398437500001E-5,0,0,0,1672405,1619857,39620,305984,814764,388204,443006,158158,Tag0,unknown
1605939276201,200,45,9.8876953125E-6,0,0,0,1672405,1619857,39620,305984,814764,388204,443006,158158,Tag0,unknown
1605939276233,200,-2048,-4.5E-4,0,0,0,1672405,1619857,39620,305984,814764,388204,443006,158158,Tag0,unknown
1605939276250,200,-2048,-4.5E-4,0,0,0,1672405,1619857,39620,305984,814764,388204,443006,158158,Tag0,unknown
1605939276269,200,-1219,-2.6784667968750005E-4,0,0,0,1672405,1619857,39620,305984,814764,388204,443006,158158,Tag0,unknown
1605939276285,200,-1382,-3.03662109375E-4,0,0,0,1672405,1619857,39620,305984,814764,388204,443006,158158,Tag0,unknown
1605939276306,200,-725,-1.593017578125E-4,0,0,0,1672405,1619857,39620,305984,814764,388204,443006,158158,Tag0,unknown
1605939276318,200,-667,-1.4655761718750001E-4,0,0,0,1672405,1619857,39620,305984,814764,388204,443006,158158,Tag0,unknown
1605939276328,200,-565,-1.241455078125E-4,0,0,0,1672405,1619857,39620,305984,814764,388204,443006,158158,Tag0,unknown
1605939276342,200,-244,-5.361328125E-5,0,0,0,1672405,1619857,39620,305984,814764,388204,443006,158158,Tag0,unknown
1605939276353,200,-221,-4.85595703125E-5,0,0,0,1672405,1619857,39620,305984,814764,388204,443006,158158,Tag0,unknown
1605939276378,200,-132,-2.900390625E-5,0,0,0,1672405,1619857,39620,305984,814764,388204,443006,158158,Tag0,unknown
1605939276388,200,-354,-7.778320312500001E-5,0,0,0,1672405,1619857,39620,305984,814764,388204,443006,158158,Tag0,unknown
1605939276407,200,232,5.09765625E-5,0,0,0,1672405,1619857,39620,305984,814764,388204,443006,158158,Tag0,unknown
1605939276418,200,1791,3.935302734375E-4,0,0,0,1672405,1619857,39620,305984,814764,388204,443006,158158,Tag0,unknown
1605939276448,200,1520,3.33984375E-4,0,0,0,1672405,1619857,39620,305984,814764,388204,443006,158158,Tag0,unknown
1605939276468,200,1791,3.935302734375E-4,0,0,0,1672405,1619857,39620,305984,814764,388204,443006,158158,Tag0,unknown
1605939276488,200,-2007,-4.409912109375E-4,0,0,0,1672405,1619857,39620,305984,814764,388204,443006,158158,Tag0,unknown
1605939276502,200,-2117,-4.651611328125E-4,0,0,0,1672405,1619857,39620,305984,814764,388204,443006,158158,Tag0,unknown
1605939276524,200,-1265,-2.779541015625E-4,0,0,0,1672405,1619857,39620,305984,814764,388204,443006,158158,Tag0,unknown
1605939276535,200,-1169,-2.568603515625E-4,0,0,0,1672405,1619857,39620,305984,814764,388204,443006,158158,Tag0,unknown
1605939276545,200,-820,-1.8017578125E-4,0,0,0,1672405,1619857,39620,305984,814764,388204,443006,158158,Tag0,unknown
1605939276566,200,-457,-1.004150390625E-4,0,0,0,1672405,1619857,39620,305984,814764,388204,443006,158158,Tag0,unknown
1605939276586,200,-419,-9.206542968750001E-5,0,0,0,1672405,1619857,39620,305984,814764,388204,443006,158158,Tag0,unknown
1605939276596,200,-171,-3.75732421875E-5,0,0,0,1672405,1619857,39620,305984,814764,388204,443006,158158,Tag0,unknown
1605939276619,200,-138,-3.0322265625E-5,0,0,0,1672405,1619857,39620,305984,814764,388204,443006,158158,Tag0,unknown
1605939276637,200,-313,-6.87744140625E-5,0,0,0,1672405,1619857,39620,305984,814764,388204,443006,158158,Tag0,unknown
1605939276655,200,1791,3.935302734375E-4,0,0,0,1672405,1619857,39620,305984,814764,388204,443006,158158,Tag0,unknown
1605939276676,200,1791,3.935302734375E-4,0,0,0,1672405,1619857,39620,305984,814764,388204,443006,158158,Tag0,unknown
1605939276687,200,1791,3.935302734375E-4,0,0,0,1672405,1619857,39620,305984,814764,388204,443006,158158,Tag0,unknown
1605939276708,200,1445,3.175048828125E-4,0,0,0,1672405,1619857,39620,305984,814764,388204,443006,158158,Tag0,unknown
1605939276719,200,1586,3.48486328125E-4,0,0,0,1672405,1619857,39620,305984,814764,388204,443006,158158,Tag0,unknown
1605939276748,200,-1198,-2.63232421875E-4,0,0,0,460142,16765835,50096,103521,90210,16770099,16755635,17208,Tag0,unknown
1605939276758,200,-1848,-4.060546875E-4,0,0,0,460142,16765835,50096,103521,90210,16770099,16755635,17208,Tag0,unknown
1605939276782,200,-965,-2.120361328125E-4,0,0,0,460142,16765835,50096,103521,90210,16770099,16755635,17208,Tag0,unknown
1605939276792,200,-763,-1.6765136718750002E-4,0,0,0,460142,16765835,50096,103521,90210,16770099,16755635,17208,Tag0,unknown
1605939276819,200,1809,3.974853515625E-4,0,0,0,460142,16765835,50096,103521,90210,16770099,16755635,17208,Tag0,unknown
1605939276836,200,1427,3.135498046875E-4,0,0,0,460142,16765835,50096,103521,90210,16770099,16755635,17208,Tag0,unknown
1605939276853,200,1140,2.5048828125E-4,0,0,0,460142,16765835,50096,103521,90210,16770099,16755635,17208,Tag0,unknown
1605939276873,200,1063,2.335693359375E-4,0,0,0,460142,16765835,50096,103521,90210,16770099,16755635,17208,Tag0,unknown
1605939276883,200,183,4.02099609375E-5,0,0,0,460142,16765835,50096,103521,90210,16770099,16755635,17208,Tag0,unknown
1605939276904,200,-309,-6.78955078125E-5,0,0,0,460142,16765835,50096,103521,90210,16770099,16755635,17208,Tag0,unknown
1605939276924,200,229,5.03173828125E-5,0,0,0,460142,16765835,50096,103521,90210,16770099,16755635,17208,Tag0,unknown
1605939276936,200,228,5.0097656250000005E-5,0,0,0,460142,16765835,50096,103521,90210,16770099,16755635,17208,Tag0,unknown
1605939276965,200,-62,-1.3623046875E-5,0,0,0,460142,16765835,50096,103521,90210,16770099,16755635,17208,Tag0,unknown
1605939276975,200,-108,-2.3730468750000002E-5,0,0,0,460142,16765835,50096,103521,90210,16770099,16755635,17208,Tag0,unknown
1605939276999,200,-108,-2.3730468750000002E-5,0,0,0,460142,16765835,50096,103521,90210,16770099,16755635,17208,Tag0,unknown
1605939277010,200,117,2.5708007812499998E-5,0,0,0,460142,16765835,50096,103521,90210,16770099,16755635,17208,Tag0,unknown
1605939277040,200,108,2.3730468750000002E-5,0,0,0,460142,16765835,50096,103521,90210,16770099,16755635,17208,Tag0,unknown
1605939277053,200,69,1.51611328125E-5,0,0,0,460142,16765835,50096,103521,90210,16770099,16755635,17208,Tag0,unknown
1605939277070,200,61,1.34033203125E-5,0,0,0,460142,16765835,50096,103521,90210,16770099,16755635,17208,Tag0,unknown
1605939277093,200,-264,-5.80078125E-5,0,0,0,460142,16765835,50096,103521,90210,16770099,16755635,17208,Tag0,unknown
1605939277106,200,-595,-1.307373046875E-4,0,0,0,460142,16765835,50096,103521,90210,16770099,16755635,17208,Tag0,unknown
1605939277126,200,-215,-4.72412109375E-5,0,0,0,460142,16765835,50096,103521,90210,16770099,16755635,17208,Tag0,unknown
1605939277138,200,122,2.6806640625E-5,0,0,0,460142,16765835,50096,103521,90210,16770099,16755635,17208,Tag0,unknown
1605939277160,200,-67,-1.4721679687500002E-5,0,0,0,460142,16765835,50096,103521,90210,16770099,16755635,17208,Tag0,unknown
1605939277171,200,-48,-1.0546875E-5,0,0,0,460142,16765835,50096,103521,90210,16770099,16755635,17208,Tag0,unknown
1605939277194,200,-90,-1.9775390625E-5,0,0,0,460142,16765835,50096,103521,90210,16770099,16755635,17208,Tag0,unknown
1605939277204,200,-98,-2.1533203125E-5,0,0,0,460142,16765835,50096,103521,90210,16770099,16755635,17208,Tag0,unknown
1605939277233,200,105,2.30712890625E-5,0,0,0,460142,16765835,50096,103521,90210,16770099,16755635,17208,Tag0,unknown
1605939277243,200,96,2.109375E-5,0,0,0,460142,16765835,50096,103521,90210,16770099,16755635,17208,Tag0,unknown
1605939277270,200,91,1.99951171875E-5,0,0,0,460142,16765835,50096,103521,90210,16770099,16755635,17208,Tag0,unknown
1605939277289,200,89,1.95556640625E-5,0,0,0,460142,16765835,50096,103521,90210,16770099,16755635,17208,Tag0,unknown
1605939277299,200,80,1.7578125E-5,0,0,0,460142,16765835,50096,103521,90210,16770099,16755635,17208,Tag0,unknown
1605939277316,200,75,1.64794921875E-5,0,0,0,460142,16765835,50096,103521,90210,16770099,16755635,17208,Tag0,unknown
1605939277326,200,73,1.6040039062500002E-5,0,0,0,460142,16765835,50096,103521,90210,16770099,16755635,17208,Tag0,unknown
1605939277336,200,70,1.5380859375E-5,0,0,0,460142,16765835,50096,103521,90210,16770099,16755635,17208,Tag0,unknown
1605939277356,200,70,1.5380859375E-5,0,0,0,460142,16765835,50096,103521,90210,16770099,16755635,17208,Tag0,unknown
1605939277372,200,69,1.51611328125E-5,0,0,0,460142,16765835,50096,103521,90210,16770099,16755635,17208,Tag0,unknown
1605939277391,200,69,1.51611328125E-5,0,0,0,460142,16765835,50096,103521,90210,16770099,16755635,17208,Tag0,unknown
1605939277405,200,68,1.4941406250000001E-5,0,0,0,460142,16765835,50096,103521,90210,16770099,16755635,17208,Tag0,unknown
1605939277428,200,67,1.4721679687500002E-5,0,0,0,460142,16765835,50096,103521,90210,16770099,16755635,17208,Tag0,unknown
1605939277438,200,67,1.4721679687500002E-5,0,0,0,460142,16765835,50096,103521,90210,16770099,16755635,17208,Tag0,unknown
1605939277479,200,66,1.4501953125E-5,0,0,0,460142,16765835,50096,103521,90210,16770099,16755635,17208,Tag0,unknown
1605939277489,200,67,1.4721679687500002E-5,0,0,0,460142,16765835,50096,103521,90210,16770099,16755635,17208,Tag0,unknown
1605939277515,200,67,1.4721679687500002E-5,0,0,0,460142,16765835,50096,103521,90210,16770099,16755635,17208,Tag0,unknown
1605939277525,200,67,1.4721679687500002E-5,0,0,0,460142,16765835,50096,103521,90210,16770099,16755635,17208,Tag0,unknown
1605939277554,200,67,1.4721679687500002E-5,0,0,0,460142,16765835,50096,103521,90210,16770099,16755635,17208,Tag0,unknown
1605939277573,200,67,1.4721679687500002E-5,0,0,0,460142,16765835,50096,103521,90210,16770099,16755635,17208,Tag0,unknown
1605939277583,200,67,1.4721679687500002E-5,0,0,0,460142,16765835,50096,103521,90210,16770099,16755635,17208,Tag0,unknown
1605939277597,200,67,1.4721679687500002E-5,0,0,0,460142,16765835,50096,103521,90210,16770099,16755635,17208,Tag0,unknown
1605939277607,200,67,1.4721679687500002E-5,0,0,0,460142,16765835,50096,103521,90210,16770099,16755635,17208,Tag0,unknown
1605939277632,200,67,1.4721679687500002E-5,0,0,0,460142,16765835,50096,103521,90210,16770099,16755635,17208,Tag0,unknown
1605939277642,200,-1073,-2.357666015625E-4,0,0,0,460142,16765835,50096,103521,90210,16770099,16755635,17208,Tag0,unknown
1605939277656,200,-2048,-4.5E-4,0,0,0,460142,16765835,50096,103521,90210,16770099,16755635,17208,Tag0,unknown
1605939277673,200,1713,3.763916015625E-4,0,0,0,460142,16765835,50096,103521,90210,16770099,16755635,17208,Tag0,unknown
1605939277690,200,1175,2.581787109375E-4,0,0,0,460142,16765835,50096,103521,90210,16770099,16755635,17208,Tag0,unknown
1605939277706,200,1285,2.823486328125E-4,0,0,0,460142,16765835,50096,103521,90210,16770099,16755635,17208,Tag0,unknown
1605939277723,200,941,2.067626953125E-4,0,0,0,460142,16765835,50096,103521,90210,16770099,16755635,17208,Tag0,unknown
1605939277733,200,456,1.0019531250000001E-4,0,0,0,291220,61031,16771645,1229,25635,17074,7378,9982,Tag0,unknown
1605939277750,200,621,1.364501953125E-4,0,0,0,291220,61031,16771645,1229,25635,17074,7378,9982,Tag0,unknown
1605939277765,200,138,3.0322265625E-5,0,0,0,291220,61031,16771645,1229,25635,17074,7378,9982,Tag0,unknown
1605939277784,200,283,6.218261718750001E-5,0,0,0,291220,61031,16771645,1229,25635,17074,7378,9982,Tag0,unknown
1605939277794,200,-5,-1.0986328125E-6,0,0,0,291220,61031,16771645,1229,25635,17074,7378,9982,Tag0,unknown
1605939277818,200,-52,-1.142578125E-5,0,0,0,291220,61031,16771645,1229,25635,17074,7378,9982,Tag0,unknown
1605939277828,200,-72,-1.58203125E-5,0,0,0,291220,61031,16771645,1229,25635,17074,7378,9982,Tag0,unknown
1605939277838,200,123,2.70263671875E-5,0,0,0,291220,61031,16771645,1229,25635,17074,7378,9982,Tag0,unknown
1605939277854,200,119,2.6147460937500004E-5,0,0,0,291220,61031,16771645,1229,25635,17074,7378,9982,Tag0,unknown
1605939277873,200,116,2.548828125E-5,0,0,0,291220,61031,16771645,1229,25635,17074,7378,9982,Tag0,unknown
1605939277892,200,99,2.1752929687500003E-5,0,0,0,291220,61031,16771645,1229,25635,17074,7378,9982,Tag0,unknown
1605939277908,200,87,1.91162109375E-5,0,0,0,291220,61031,16771645,1229,25635,17074,7378,9982,Tag0,unknown
1605939277932,200,-2041,-4.4846191406250005E-4,0,0,0,291220,61031,16771645,1229,25635,17074,7378,9982,Tag0,unknown
1605939277942,200,-2048,-4.5E-4,0,0,0,291220,61031,16771645,1229,25635,17074,7378,9982,Tag0,unknown
1605939277966,200,-1637,-3.596923828125E-4,0,0,0,291220,61031,16771645,1229,25635,17074,7378,9982,Tag0,unknown
1605939277976,200,-1927,-4.234130859375E-4,0,0,0,291220,61031,16771645,1229,25635,17074,7378,9982,Tag0,unknown
1605939277993,200,-2048,-4.5E-4,0,0,0,291220,61031,16771645,1229,25635,17074,7378,9982,Tag0,unknown
1605939278007,200,-1899,-4.172607421875E-4,0,0,0,291220,61031,16771645,1229,25635,17074,7378,9982,Tag0,unknown
1605939278038,200,-987,-2.1687011718750002E-4,0,0,0,291220,61031,16771645,1229,25635,17074,7378,9982,Tag0,unknown
1605939278057,200,-913,-2.0061035156250002E-4,0,0,0,291220,61031,16771645,1229,25635,17074,7378,9982,Tag0,unknown
1605939278067,200,-619,-1.360107421875E-4,0,0,0,291220,61031,16771645,1229,25635,17074,7378,9982,Tag0,unknown
1605939278091,200,-572,-1.2568359375E-4,0,0,0,291220,61031,16771645,1229,25635,17074,7378,9982,Tag0,unknown
1605939278110,200,-199,-4.3725585937499995E-5,0,0,0,291220,61031,16771645,1229,25635,17074,7378,9982,Tag0,unknown
1605939278123,200,-372,-8.173828125E-5,0,0,0,291220,61031,16771645,1229,25635,17074,7378,9982,Tag0,unknown
1605939278149,200,-293,-6.43798828125E-5,0,0,0,291220,61031,16771645,1229,25635,17074,7378,9982,Tag0,unknown
1605939278159,200,-281,-6.17431640625E-5,0,0,0,291220,61031,16771645,1229,25635,17074,7378,9982,Tag0,unknown
1605939278182,200,1791,3.935302734375E-4,0,0,0,291220,61031,16771645,1229,25635,17074,7378,9982,Tag0,unknown
1605939278192,200,1791,3.935302734375E-4,0,0,0,291220,61031,16771645,1229,25635,17074,7378,9982,Tag0,unknown
1605939278202,200,-1938,-4.25830078125E-4,0,0,0,291220,61031,16771645,1229,25635,17074,7378,9982,Tag0,unknown
1605939278222,200,-936,-2.0566406249999998E-4,0,0,0,291220,61031,16771645,1229,25635,17074,7378,9982,Tag0,unknown
1605939278243,200,1105,2.427978515625E-4,0,0,0,291220,61031,16771645,1229,25635,17074,7378,9982,Tag0,unknown
1605939278260,200,780,1.7138671875E-4,0,0,0,291220,61031,16771645,1229,25635,17074,7378,9982,Tag0,unknown
1605939278276,200,-369,-8.10791015625E-5,0,0,0,291220,61031,16771645,1229,25635,17074,7378,9982,Tag0,unknown
1605939278335,200,889,1.953369140625E-4,0,0,0,291220,61031,16771645,1229,25635,17074,7378,9982,Tag0,unknown
1605939278345,200,593,1.3029785156250002E-4,0,0,0,291220,61031,16771645,1229,25635,17074,7378,9982,Tag0,unknown
1605939278403,200,203,4.460449218750001E-5,0,0,0,291220,61031,16771645,1229,25635,17074,7378,9982,Tag0,unknown
1605939278413,200,-253,-5.55908203125E-5,0,0,0,291220,61031,16771645,1229,25635,17074,7378,9982,Tag0,unknown
1605939278469,200,-2037,-4.475830078125E-4,0,0,0,291220,61031,16771645,1229,25635,17074,7378,9982,Tag0,unknown
1605939278479,200,-1783,-3.917724609375E-4,0,0,0,291220,61031,16771645,1229,25635,17074,7378,9982,Tag0,unknown
1605939278539,200,-1659,-3.645263671875E-4,0,0,0,291220,61031,16771645,1229,25635,17074,7378,9982,Tag0,unknown
1605939278561,200,-1657,-3.6408691406249996E-4,0,0,0,291220,61031,16771645,1229,25635,17074,7378,9982,Tag0,unknown
1605939278571,200,-1309,-2.8762207031250004E-4,0,0,0,291220,61031,16771645,1229,25635,17074,7378,9982,Tag0,unknown
1605939278604,200,-971,-2.133544921875E-4,0,0,0,291220,61031,16771645,1229,25635,17074,7378,9982,Tag0,unknown
1605939278614,200,-805,-1.768798828125E-4,0,0,0,291220,61031,16771645,1229,25635,17074,7378,9982,Tag0,unknown
1605939278673,200,-774,-1.70068359375E-4,0,0,0,291220,61031,16771645,1229,25635,17074,7378,9982,Tag0,unknown
1605939278694,200,-456,-1.0019531250000001E-4,0,0,0,291220,61031,16771645,1229,25635,17074,7378,9982,Tag0,unknown
1605939278704,200,-441,-9.689941406250001E-5,0,0,0,291220,61031,16771645,1229,25635,17074,7378,9982,Tag0,unknown
1605939278746,200,-613,-1.3469238281250002E-4,0,0,0,291220,61031,16771645,1229,25635,17074,7378,9982,Tag0,unknown
1605939278807,200,-195,-4.28466796875E-5,0,0,0,291220,61031,16771645,1229,25635,17074,7378,9982,Tag0,unknown
1605939278831,200,-171,-3.75732421875E-5,0,0,0,291220,61031,16771645,1229,25635,17074,7378,9982,Tag0,unknown
1605939278842,200,-371,-8.151855468750001E-5,0,0,0,291220,61031,16771645,1229,25635,17074,7378,9982,Tag0,unknown
1605939278875,200,-260,-5.712890625E-5,0,0,0,291220,61031,16771645,1229,25635,17074,7378,9982,Tag0,unknown
1605939278895,200,116,2.548828125E-5,0,0,0,291220,61031,16771645,1229,25635,17074,7378,9982,Tag0,unknown
1605939278933,200,393,8.63525390625E-5,0,0,0,291220,61031,16771645,1229,25635,17074,7378,9982,Tag0,unknown
1605939278944,200,919,2.0192871093750001E-4,0,0,0,291220,61031,16771645,1229,25635,17074,7378,9982,Tag0,unknown
1605939278954,200,-437,-9.602050781250001E-5,0,0,0,291220,61031,16771645,1229,25635,17074,7378,9982,Tag0,unknown
1605939278964,200,-2048,-4.5E-4,0,0,0,291220,61031,16771645,1229,25635,17074,7378,9982,Tag0,unknown
1605939278974,200,-2048,-4.5E-4,0,0,0,782027,24535,16762493,16758916,121134,86509,16751861,15076,Tag0,unknown
1605939278984,200,1099,2.414794921875E-4,0,0,0,782027,24535,16762493,16758916,121134,86509,16751861,15076,Tag0,unknown
1605939278994,200,469,1.0305175781250001E-4,0,0,0,782027,24535,16762493,16758916,121134,86509,16751861,15076,Tag0,unknown
1605939279004,200,-237,-5.2075195312500004E-5,0,0,0,782027,24535,16762493,16758916,121134,86509,16751861,15076,Tag0,unknown
1605939279014,200,-2048,-4.5E-4,0,0,0,782027,24535,16762493,16758916,121134,86509,16751861,15076,Tag0,unknown
1605939279033,200,-2035,-4.471435546875E-4,0,0,0,782027,24535,16762493,16758916,121134,86509,16751861,15076,Tag0,unknown
1605939279043,200,-2141,-4.704345703125E-4,0,0,0,782027,24535,16762493,16758916,121134,86509,16751861,15076,Tag0,unknown
1605939279076,200,-763,-1.6765136718750002E-4,0,0,0,782027,24535,16762493,16758916,121134,86509,16751861,15076,Tag0,unknown
1605939279093,200,-465,-1.021728515625E-4,0,0,0,782027,24535,16762493,16758916,121134,86509,16751861,15076,Tag0,unknown
1605939279124,200,-517,-1.135986328125E-4,0,0,0,782027,24535,16762493,16758916,121134,86509,16751861,15076,Tag0,unknown
1605939279144,200,-247,-5.42724609375E-5,0,0,0,782027,24535,16762493,16758916,121134,86509,16751861,15076,Tag0,unknown
1605939279154,200,-327,-7.18505859375E-5,0,0,0,782027,24535,16762493,16758916,121134,86509,16751861,15076,Tag0,unknown
1605939279166,200,-315,-6.92138671875E-5,0,0,0,782027,24535,16762493,16758916,121134,86509,16751861,15076,Tag0,unknown
1605939279179,200,-313,-6.87744140625E-5,0,0,0,782027,24535,16762493,16758916,121134,86509,16751861,15076,Tag0,unknown
1605939279200,200,-273,-5.998535156250001E-5,0,0,0,782027,24535,16762493,16758916,121134,86509,16751861,15076,Tag0,unknown
1605939279217,200,-265,-5.82275390625E-5,0,0,0,782027,24535,16762493,16758916,121134,86509,16751861,15076,Tag0,unknown
1605939279227,200,29,6.3720703125E-6,0,0,0,782027,24535,16762493,16758916,121134,86509,16751861,15076,Tag0,unknown
1605939279243,200,35,7.6904296875E-6,0,0,0,782027,24535,16762493,16758916,121134,86509,16751861,15076,Tag0,unknown
1605939279261,200,37,8.1298828125E-6,0,0,0,782027,24535,16762493,16758916,121134,86509,16751861,15076,Tag0,unknown
1605939279282,200,1791,3.935302734375E-4,0,0,0,782027,24535,16762493,16758916,121134,86509,16751861,15076,Tag0,unknown
1605939279313,200,-2048,-4.5E-4,0,0,0,782027,24535,16762493,16758916,121134,86509,16751861,15076,Tag0,unknown
1605939279327,200,-2048,-4.5E-4,0,0,0,782027,24535,16762493,16758916,121134,86509,16751861,15076,Tag0,unknown
1605939279347,200,-2048,-4.5E-4,0,0,0,782027,24535,16762493,16758916,121134,86509,16751861,15076,Tag0,unknown
1605939279365,200,-2048,-4.5E-4,0,0,0,782027,24535,16762493,16758916,121134,86509,16751861,15076,Tag0,unknown
1605939279375,200,-2024,-4.447265625E-4,0,0,0,782027,24535,16762493,16758916,121134,86509,16751861,15076,Tag0,unknown
1605939279392,200,-1273,-2.797119140625E-4,0,0,0,782027,24535,16762493,16758916,121134,86509,16751861,15076,Tag0,unknown
1605939279412,200,-1175,-2.581787109375E-4,0,0,0,782027,24535,16762493,16758916,121134,86509,16751861,15076,Tag0,unknown
1605939279428,200,1791,3.935302734375E-4,0,0,0,782027,24535,16762493,16758916,121134,86509,16751861,15076,Tag0,unknown
1605939279446,200,1791,3.935302734375E-4,0,0,0,782027,24535,16762493,16758916,121134,86509,16751861,15076,Tag0,unknown
1605939279469,200,1547,3.3991699218749997E-4,0,0,0,782027,24535,16762493,16758916,121134,86509,16751861,15076,Tag0,unknown
1605939279479,200,756,1.6611328125E-4,0,0,0,782027,24535,16762493,16758916,121134,86509,16751861,15076,Tag0,unknown
1605939279509,200,392,8.61328125E-5,0,0,0,782027,24535,16762493,16758916,121134,86509,16751861,15076,Tag0,unknown
1605939279528,200,605,1.329345703125E-4,0,0,0,782027,24535,16762493,16758916,121134,86509,16751861,15076,Tag0,unknown
1605939279547,200,294,6.4599609375E-5,0,0,0,782027,24535,16762493,16758916,121134,86509,16751861,15076,Tag0,unknown
1605939279562,200,277,6.0864257812500005E-5,0,0,0,782027,24535,16762493,16758916,121134,86509,16751861,15076,Tag0,unknown
1605939279583,200,-45,-9.8876953125E-6,0,0,0,782027,24535,16762493,16758916,121134,86509,16751861,15076,Tag0,unknown
1605939279598,200,-78,-1.7138671875E-5,0,0,0,782027,24535,16762493,16758916,121134,86509,16751861,15076,Tag0,unknown
1605939279616,200,-102,-2.2412109374999998E-5,0,0,0,782027,24535,16762493,16758916,121134,86509,16751861,15076,Tag0,unknown
1605939279629,200,-103,-2.26318359375E-5,0,0,0,782027,24535,16762493,16758916,121134,86509,16751861,15076,Tag0,unknown
1605939279639,200,-283,-6.218261718750001E-5,0,0,0,782027,24535,16762493,16758916,121134,86509,16751861,15076,Tag0,unknown
1605939279653,200,-423,-9.29443359375E-5,0,0,0,782027,24535,16762493,16758916,121134,86509,16751861,15076,Tag0,unknown
1605939279663,200,-2056,-4.517578125E-4,0,0,0,782027,24535,16762493,16758916,121134,86509,16751861,15076,Tag0,unknown
1605939279694,200,-2121,-4.660400390625E-4,0,0,0,782027,24535,16762493,16758916,121134,86509,16751861,15076,Tag0,unknown
1605939279712,200,1283,2.819091796875E-4,0,0,0,782027,24535,16762493,16758916,121134,86509,16751861,15076,Tag0,unknown
1605939279735,200,906,1.99072265625E-4,0,0,0,587262,236422,49450,67005,16766434,16747138,28733,27021,Tag0,unknown
1605939279745,200,1791,3.935302734375E-4,0,0,0,587262,236422,49450,67005,16766434,16747138,28733,27021,Tag0,unknown
1605939279769,200,1791,3.935302734375E-4,0,0,0,587262,236422,49450,67005,16766434,16747138,28733,27021,Tag0,unknown
1605939279779,200,1791,3.935302734375E-4,0,0,0,587262,236422,49450,67005,16766434,16747138,28733,27021,Tag0,unknown
1605939279804,200,1791,3.935302734375E-4,0,0,0,587262,236422,49450,67005,16766434,16747138,28733,27021,Tag0,unknown
1605939279814,200,1791,3.935302734375E-4,0,0,0,587262,236422,49450,67005,16766434,16747138,28733,27021,Tag0,unknown
1605939279843,200,1791,3.935302734375E-4,0,0,0,587262,236422,49450,67005,16766434,16747138,28733,27021,Tag0,unknown
1605939279864,200,1791,3.935302734375E-4,0,0,0,587262,236422,49450,67005,16766434,16747138,28733,27021,Tag0,unknown
1605939279888,200,1595,3.504638671875E-4,0,0,0,587262,236422,49450,67005,16766434,16747138,28733,27021,Tag0,unknown
1605939279901,200,685,1.505126953125E-4,0,0,0,587262,236422,49450,67005,16766434,16747138,28733,27021,Tag0,unknown
1605939279917,200,-2048,-4.5E-4,0,0,0,587262,236422,49450,67005,16766434,16747138,28733,27021,Tag0,unknown
1605939279929,200,-2048,-4.5E-4,0,0,0,587262,236422,49450,67005,16766434,16747138,28733,27021,Tag0,unknown
1605939279946,200,-2048,-4.5E-4,0,0,0,587262,236422,49450,67005,16766434,16747138,28733,27021,Tag0,unknown
1605939279973,200,-1739,-3.8210449218750004E-4,0,0,0,587262,236422,49450,67005,16766434,16747138,28733,27021,Tag0,unknown
1605939279983,200,-1581,-3.473876953125E-4,0,0,0,587262,236422,49450,67005,16766434,16747138,28733,27021,Tag0,unknown
1605939280010,200,-645,-1.417236328125E-4,0,0,0,587262,236422,49450,67005,16766434,16747138,28733,27021,Tag0,unknown
1605939280020,200,-405,-8.89892578125E-5,0,0,0,587262,236422,49450,67005,16766434,16747138,28733,27021,Tag0,unknown
1605939280043,200,-388,-8.525390625E-5,0,0,0,587262,236422,49450,67005,16766434,16747138,28733,27021,Tag0,unknown
1605939280064,200,-612,-1.3447265625000002E-4,0,0,0,587262,236422,49450,67005,16766434,16747138,28733,27021,Tag0,unknown
1605939280080,200,-369,-8.10791015625E-5,0,0,0,587262,236422,49450,67005,16766434,16747138,28733,27021,Tag0,unknown
1605939280098,200,-357,-7.844238281250001E-5,0,0,0,587262,236422,49450,67005,16766434,16747138,28733,27021,Tag0,unknown
1605939280117,200,68,1.4941406250000001E-5,0,0,0,587262,236422,49450,67005,16766434,16747138,28733,27021,Tag0,unknown
1605939280133,200,247,5.42724609375E-5,0,0,0,587262,236422,49450,67005,16766434,16747138,28733,27021,Tag0,unknown
1605939280143,200,-326,-7.163085937500001E-5,0,0,0,587262,236422,49450,67005,16766434,16747138,28733,27021,Tag0,unknown
1605939280156,200,-285,-6.26220703125E-5,0,0,0,587262,236422,49450,67005,16766434,16747138,28733,27021,Tag0,unknown
1605939280188,200,4,8.7890625E-7,0,0,0,587262,236422,49450,67005,16766434,16747138,28733,27021,Tag0,unknown
1605939280198,200,8,1.7578125E-6,0,0,0,587262,236422,49450,67005,16766434,16747138,28733,27021,Tag0,unknown
1605939280208,200,39,8.5693359375E-6,0,0,0,587262,236422,49450,67005,16766434,16747138,28733,27021,Tag0,unknown
1605939280230,200,42,9.228515625000002E-6,0,0,0,587262,236422,49450,67005,16766434,16747138,28733,27021,Tag0,unknown
1605939280248,200,42,9.228515625000002E-6,0,0,0,587262,236422,49450,67005,16766434,16747138,28733,27021,Tag0,unknown
1605939280264,200,51,1.1206054687499999E-5,0,0,0,587262,236422,49450,67005,16766434,16747138,28733,27021,Tag0,unknown
1605939280285,200,52,1.142578125E-5,0,0,0,587262,236422,49450,67005,16766434,16747138,28733,27021,Tag0,unknown
1605939280295,200,58,1.2744140625E-5,0,0,0,587262,236422,49450,67005,16766434,16747138,28733,27021,Tag0,unknown
1605939280307,200,58,1.2744140625E-5,0,0,0,587262,236422,49450,67005,16766434,16747138,28733,27021,Tag0,unknown
1605939280317,200,60,1.318359375E-5,0,0,0,587262,236422,49450,67005,16766434,16747138,28733,27021,Tag0,unknown
1605939280331,200,60,1.318359375E-5,0,0,0,587262,236422,49450,67005,16766434,16747138,28733,27021,Tag0,unknown
1605939280348,200,64,1.40625E-5,0,0,0,587262,236422,49450,67005,16766434,16747138,28733,27021,Tag0,unknown
1605939280379,200,65,1.42822265625E-5,0,0,0,587262,236422,49450,67005,16766434,16747138,28733,27021,Tag0,unknown
1605939280397,200,65,1.42822265625E-5,0,0,0,587262,236422,49450,67005,16766434,16747138,28733,27021,Tag0,unknown
1605939280416,200,1791,3.935302734375E-4,0,0,0,587262,236422,49450,67005,16766434,16747138,28733,27021,Tag0,unknown
1605939280432,200,897,1.970947265625E-4,0,0,0,587262,236422,49450,67005,16766434,16747138,28733,27021,Tag0,unknown
1605939280452,200,-561,-1.232666015625E-4,0,0,0,587262,236422,49450,67005,16766434,16747138,28733,27021,Tag0,unknown
1605939280484,200,-170,-3.7353515625E-5,0,0,0,587262,236422,49450,67005,16766434,16747138,28733,27021,Tag0,unknown
1605939280498,200,-153,-3.3618164062500004E-5,0,0,0,587262,236422,49450,67005,16766434,16747138,28733,27021,Tag0,unknown
1605939280508,200,1791,3.935302734375E-4,0,0,0,587262,236422,49450,67005,16766434,16747138,28733,27021,Tag0,unknown
1605939280523,200,1791,3.935302734375E-4,0,0,0,587262,236422,49450,67005,16766434,16747138,28733,27021,Tag0,unknown
1605939280533,200,1791,3.935302734375E-4,0,0,0,587262,236422,49450,67005,16766434,16747138,28733,27021,Tag0,unknown
1605939280559,200,1543,3.390380859375E-4,0,0,0,587262,236422,49450,67005,16766434,16747138,28733,27021,Tag0,unknown
1605939280569,200,949,2.085205078125E-4,0,0,0,587262,236422,49450,67005,16766434,16747138,28733,27021,Tag0,unknown
1605939280597,200,391,8.591308593750001E-5,0,0,0,587262,236422,49450,67005,16766434,16747138,28733,27021,Tag0,unknown
1605939280615,200,227,4.98779296875E-5,0,0,0,587262,236422,49450,67005,16766434,16747138,28733,27021,Tag0,unknown
1605939280634,200,181,3.9770507812500004E-5,0,0,0,587262,236422,49450,67005,16766434,16747138,28733,27021,Tag0,unknown
1605939280650,200,293,6.43798828125E-5,0,0,0,587262,236422,49450,67005,16766434,16747138,28733,27021,Tag0,unknown
1605939280674,200,-45,-9.8876953125E-6,0,0,0,587262,236422,49450,67005,16766434,16747138,28733,27021,Tag0,unknown
1605939280689,200,-56,-1.23046875E-5,0,0,0,587262,236422,49450,67005,16766434,16747138,28733,27021,Tag0,unknown
1605939280700,200,-107,-2.35107421875E-5,0,0,0,587262,236422,49450,67005,16766434,16747138,28733,27021,Tag0,unknown
1605939280736,200,-128,-2.8125E-5,0,0,0,936492,69098,84401,95849,16763329,33686,85220,16746870,Tag0,unknown
1605939280746,200,86,1.8896484375000003E-5,0,0,0,936492,69098,84401,95849,16763329,33686,85220,16746870,Tag0,unknown
1605939280756,200,86,1.8896484375000003E-5,0,0,0,936492,69098,84401,95849,16763329,33686,85220,16746870,Tag0,unknown
1605939280766,200,80,1.7578125E-5,0,0,0,936492,69098,84401,95849,16763329,33686,85220,16746870,Tag0,unknown
1605939280793,200,87,1.91162109375E-5,0,0,0,936492,69098,84401,95849,16763329,33686,85220,16746870,Tag0,unknown
1605939280803,200,83,1.82373046875E-5,0,0,0,936492,69098,84401,95849,16763329,33686,85220,16746870,Tag0,unknown
1605939280813,200,75,1.64794921875E-5,0,0,0,936492,69098,84401,95849,16763329,33686,85220,16746870,Tag0,unknown
1605939280831,200,73,1.6040039062500002E-5,0,0,0,936492,69098,84401,95849,16763329,33686,85220,16746870,Tag0,unknown
1605939280849,200,71,1.56005859375E-5,0,0,0,936492,69098,84401,95849,16763329,33686,85220,16746870,Tag0,unknown
1605939280868,200,71,1.56005859375E-5,0,0,0,936492,69098,84401,95849,16763329,33686,85220,16746870,Tag0,unknown
1605939280883,200,72,1.58203125E-5,0,0,0,936492,69098,84401,95849,16763329,33686,85220,16746870,Tag0,unknown
1605939280906,200,-1240,-2.724609375E-4,0,0,0,936492,69098,84401,95849,16763329,33686,85220,16746870,Tag0,unknown
1605939280921,200,-1411,-3.100341796875E-4,0,0,0,936492,69098,84401,95849,16763329,33686,85220,16746870,Tag0,unknown
1605939280931,200,-2048,-4.5E-4,0,0,0,936492,69098,84401,95849,16763329,33686,85220,16746870,Tag0,unknown
1605939280953,200,-2048,-4.5E-4,0,0,0,936492,69098,84401,95849,16763329,33686,85220,16746870,Tag0,unknown
1605939280967,200,-2048,-4.5E-4,0,0,0,936492,69098,84401,95849,16763329,33686,85220,16746870,Tag0,unknown
1605939280986,200,-1734,-3.8100585937500005E-4,0,0,0,936492,69098,84401,95849,16763329,33686,85220,16746870,Tag0,unknown
1605939281001,200,-1301,-2.858642578125E-4,0,0,0,936492,69098,84401,95849,16763329,33686,85220,16746870,Tag0,unknown
1605939281022,200,-801,-1.760009765625E-4,0,0,0,936492,69098,84401,95849,16763329,33686,85220,16746870,Tag0,unknown
1605939281033,200,1791,3.935302734375E-4,0,0,0,936492,69098,84401,95849,16763329,33686,85220,16746870,Tag0,unknown
1605939281055,200,-804,-1.7666015625E-4,0,0,0,936492,69098,84401,95849,16763329,33686,85220,16746870,Tag0,unknown
1605939281067,200,-2007,-4.409912109375E-4,0,0,0,936492,69098,84401,95849,16763329,33686,85220,16746870,Tag0,unknown
1605939281099,200,-1094,-2.40380859375E-4,0,0,0,936492,69098,84401,95849,16763329,33686,85220,16746870,Tag0,unknown
1605939281118,200,-1031,-2.265380859375E-4,0,0,0,936492,69098,84401,95849,16763329,33686,85220,16746870,Tag0,unknown
1605939281136,200,-769,-1.689697265625E-4,0,0,0,936492,69098,84401,95849,16763329,33686,85220,16746870,Tag0,unknown
1605939281153,200,-587,-1.2897949218750003E-4,0,0,0,936492,69098,84401,95849,16763329,33686,85220,16746870,Tag0,unknown
1605939281173,200,-156,-3.427734375E-5,0,0,0,936492,69098,84401,95849,16763329,33686,85220,16746870,Tag0,unknown
1605939281184,200,-147,-3.22998046875E-5,0,0,0,936492,69098,84401,95849,16763329,33686,85220,16746870,Tag0,unknown
1605939281206,200,753,1.6545410156250002E-4,0,0,0,936492,69098,84401,95849,16763329,33686,85220,16746870,Tag0,unknown
1605939281218,200,1791,3.935302734375E-4,0,0,0,936492,69098,84401,95849,16763329,33686,85220,16746870,Tag0,unknown
1605939281228,200,1791,3.935302734375E-4,0,0,0,936492,69098,84401,95849,16763329,33686,85220,16746870,Tag0,unknown
1605939281242,200,1891,4.1550292968750005E-4,0,0,0,936492,69098,84401,95849,16763329,33686,85220,16746870,Tag0,unknown
1605939281252,200,1444,3.1728515625E-4,0,0,0,936492,69098,84401,95849,16763329,33686,85220,16746870,Tag0,unknown
1605939281278,200,-2048,-4.5E-4,0,0,0,936492,69098,84401,95849,16763329,33686,85220,16746870,Tag0,unknown
1605939281288,200,-2048,-4.5E-4,0,0,0,936492,69098,84401,95849,16763329,33686,85220,16746870,Tag0,unknown
1605939281323,200,-1226,-2.6938476562500004E-4,0,0,0,936492,69098,84401,95849,16763329,33686,85220,16746870,Tag0,unknown
1605939281335,200,-1389,-3.0520019531250005E-4,0,0,0,936492,69098,84401,95849,16763329,33686,85220,16746870,Tag0,unknown
1605939281345,200,-503,-1.105224609375E-4,0,0,0,936492,69098,84401,95849,16763329,33686,85220,16746870,Tag0,unknown
1605939281362,200,-440,-9.66796875E-5,0,0,0,936492,69098,84401,95849,16763329,33686,85220,16746870,Tag0,unknown
1605939281372,200,-581,-1.276611328125E-4,0,0,0,936492,69098,84401,95849,16763329,33686,85220,16746870,Tag0,unknown
1605939281400,200,-247,-5.42724609375E-5,0,0,0,936492,69098,84401,95849,16763329,33686,85220,16746870,Tag0,unknown
1605939281418,200,-225,-4.94384765625E-5,0,0,0,936492,69098,84401,95849,16763329,33686,85220,16746870,Tag0,unknown
1605939281428,200,-67,-1.4721679687500002E-5,0,0,0,936492,69098,84401,95849,16763329,33686,85220,16746870,Tag0,unknown
1605939281438,200,-127,-2.79052734375E-5,0,0,0,936492,69098,84401,95849,16763329,33686,85220,16746870,Tag0,unknown
1605939281468,200,-304,-6.6796875E-5,0,0,0,936492,69098,84401,95849,16763329,33686,85220,16746870,Tag0,unknown
1605939281485,200,-358,-7.8662109375E-5,0,0,0,936492,69098,84401,95849,16763329,33686,85220,16746870,Tag0,unknown
1605939281495,200,1791,3.935302734375E-4,0,0,0,936492,69098,84401,95849,16763329,33686,85220,16746870,Tag0,unknown
1605939281517,200,1791,3.935302734375E-4,0,0,0,936492,69098,84401,95849,16763329,33686,85220,16746870,Tag0,unknown
1605939281536,200,1791,3.935302734375E-4,0,0,0,936492,69098,84401,95849,16763329,33686,85220,16746870,Tag0,unknown
1605939281546,200,1790,3.93310546875E-4,0,0,0,936492,69098,84401,95849,16763329,33686,85220,16746870,Tag0,unknown
1605939281556,200,1542,3.38818359375E-4,0,0,0,936492,69098,84401,95849,16763329,33686,85220,16746870,Tag0,unknown
1605939281571,200,1179,2.5905761718750004E-4,0,0,0,936492,69098,84401,95849,16763329,33686,85220,16746870,Tag0,unknown
1605939281592,200,720,1.58203125E-4,0,0,0,936492,69098,84401,95849,16763329,33686,85220,16746870,Tag0,unknown
1605939281603,200,653,1.434814453125E-4,0,0,0,936492,69098,84401,95849,16763329,33686,85220,16746870,Tag0,unknown
1605939281613,200,604,1.3271484375E-4,0,0,0,936492,69098,84401,95849,16763329,33686,85220,16746870,Tag0,unknown
1605939281630,200,167,3.6694335937500004E-5,0,0,0,936492,69098,84401,95849,16763329,33686,85220,16746870,Tag0,unknown
1605939281640,200,330,7.2509765625E-5,0,0,0,936492,69098,84401,95849,16763329,33686,85220,16746870,Tag0,unknown
1605939281663,200,293,6.43798828125E-5,0,0,0,936492,69098,84401,95849,16763329,33686,85220,16746870,Tag0,unknown
1605939281673,200,261,5.73486328125E-5,0,0,0,936492,69098,84401,95849,16763329,33686,85220,16746870,Tag0,unknown
1605939281694,200,-99,-2.1752929687500003E-5,0,0,0,936492,69098,84401,95849,16763329,33686,85220,16746870,Tag0,unknown
1605939281709,200,-103,-2.26318359375E-5,0,0,0,936492,69098,84401,95849,16763329,33686,85220,16746870,Tag0,unknown
1605939281721,200,-111,-2.43896484375E-5,0,0,0,417206,6424,2229,4931,14876,13664,24054,12863,Tag0,unknown
1605939281746,200,105,2.30712890625E-5,0,0,0,417206,6424,2229,4931,14876,13664,24054,12863,Tag0,unknown
1605939281760,200,103,2.26318359375E-5,0,0,0,417206,6424,2229,4931,14876,13664,24054,12863,Tag0,unknown
1605939281785,200,89,1.95556640625E-5,0,0,0,417206,6424,2229,4931,14876,13664,24054,12863,Tag0,unknown
1605939281802,200,88,1.93359375E-5,0,0,0,417206,6424,2229,4931,14876,13664,24054,12863,Tag0,unknown
1605939281812,200,75,1.64794921875E-5,0,0,0,417206,6424,2229,4931,14876,13664,24054,12863,Tag0,unknown
1605939281822,200,73,1.6040039062500002E-5,0,0,0,417206,6424,2229,4931,14876,13664,24054,12863,Tag0,unknown
1605939281836,200,71,1.56005859375E-5,0,0,0,417206,6424,2229,4931,14876,13664,24054,12863,Tag0,unknown
1605939281856,200,71,1.56005859375E-5,0,0,0,417206,6424,2229,4931,14876,13664,24054,12863,Tag0,unknown
1605939281869,200,70,1.5380859375E-5,0,0,0,417206,6424,2229,4931,14876,13664,24054,12863,Tag0,unknown
1605939281879,200,2,4.39453125E-7,0,0,0,417206,6424,2229,4931,14876,13664,24054,12863,Tag0,unknown
1605939281896,200,70,1.5380859375E-5,0,0,0,417206,6424,2229,4931,14876,13664,24054,12863,Tag0,unknown
1605939281907,200,71,1.56005859375E-5,0,0,0,417206,6424,2229,4931,14876,13664,24054,12863,Tag0,unknown
1605939281917,200,67,1.4721679687500002E-5,0,0,0,417206,6424,2229,4931,14876,13664,24054,12863,Tag0,unknown
1605939281932,200,67,1.4721679687500002E-5,0,0,0,417206,6424,2229,4931,14876,13664,24054,12863,Tag0,unknown
1605939281943,200,67,1.4721679687500002E-5,0,0,0,417206,6424,2229,4931,14876,13664,24054,12863,Tag0,unknown
1605939281966,200,66,1.4501953125E-5,0,0,0,417206,6424,2229,4931,14876,13664,24054,12863,Tag0,unknown
1605939281985,200,66,1.4501953125E-5,0,0,0,417206,6424,2229,4931,14876,13664,24054,12863,Tag0,unknown
1605939282008,200,67,1.4721679687500002E-5,0,0,0,417206,6424,2229,4931,14876,13664,24054,12863,Tag0,unknown
1605939282018,200,66,1.4501953125E-5,0,0,0,417206,6424,2229,4931,14876,13664,24054,12863,Tag0,unknown
1605939282038,200,65,1.42822265625E-5,0,0,0,417206,6424,2229,4931,14876,13664,24054,12863,Tag0,unknown
1605939282053,200,65,1.42822265625E-5,0,0,0,417206,6424,2229,4931,14876,13664,24054,12863,Tag0,unknown
1605939282073,200,67,1.4721679687500002E-5,0,0,0,417206,6424,2229,4931,14876,13664,24054,12863,Tag0,unknown
1605939282089,200,66,1.4501953125E-5,0,0,0,417206,6424,2229,4931,14876,13664,24054,12863,Tag0,unknown
1605939282099,200,67,1.4721679687500002E-5,0,0,0,417206,6424,2229,4931,14876,13664,24054,12863,Tag0,unknown
1605939282113,200,65,1.42822265625E-5,0,0,0,417206,6424,2229,4931,14876,13664,24054,12863,Tag0,unknown
1605939282144,200,65,1.42822265625E-5,0,0,0,417206,6424,2229,4931,14876,13664,24054,12863,Tag0,unknown
1605939282154,200,65,1.42822265625E-5,0,0,0,417206,6424,2229,4931,14876,13664,24054,12863,Tag0,unknown
1605939282183,200,68,1.4941406250000001E-5,0,0,0,417206,6424,2229,4931,14876,13664,24054,12863,Tag0,unknown
1605939282203,200,65,1.42822265625E-5,0,0,0,417206,6424,2229,4931,14876,13664,24054,12863,Tag0,unknown
1605939282221,200,67,1.4721679687500002E-5,0,0,0,417206,6424,2229,4931,14876,13664,24054,12863,Tag0,unknown
1605939282240,200,67,1.4721679687500002E-5,0,0,0,417206,6424,2229,4931,14876,13664,24054,12863,Tag0,unknown
1605939282258,200,67,1.4721679687500002E-5,0,0,0,417206,6424,2229,4931,14876,13664,24054,12863,Tag0,unknown
1605939282296,200,66,1.4501953125E-5,0,0,0,417206,6424,2229,4931,14876,13664,24054,12863,Tag0,unknown
1605939282306,200,65,1.42822265625E-5,0,0,0,417206,6424,2229,4931,14876,13664,24054,12863,Tag0,unknown
1605939282332,200,66,1.4501953125E-5,0,0,0,417206,6424,2229,4931,14876,13664,24054,12863,Tag0,unknown
1605939282342,200,68,1.4941406250000001E-5,0,0,0,417206,6424,2229,4931,14876,13664,24054,12863,Tag0,unknown
1605939282355,200,-301,-6.613769531250001E-5,0,0,0,417206,6424,2229,4931,14876,13664,24054,12863,Tag0,unknown
1605939282373,200,-2048,-4.5E-4,0,0,0,417206,6424,2229,4931,14876,13664,24054,12863,Tag0,unknown
1605939282402,200,-2048,-4.5E-4,0,0,0,417206,6424,2229,4931,14876,13664,24054,12863,Tag0,unknown
1605939282420,200,-2048,-4.5E-4,0,0,0,417206,6424,2229,4931,14876,13664,24054,12863,Tag0,unknown
1605939282440,200,-1843,-4.049560546875E-4,0,0,0,417206,6424,2229,4931,14876,13664,24054,12863,Tag0,unknown
1605939282458,200,-953,-2.093994140625E-4,0,0,0,417206,6424,2229,4931,14876,13664,24054,12863,Tag0,unknown
1605939282477,200,-840,-1.845703125E-4,0,0,0,417206,6424,2229,4931,14876,13664,24054,12863,Tag0,unknown
1605939282498,200,-772,-1.6962890625000002E-4,0,0,0,417206,6424,2229,4931,14876,13664,24054,12863,Tag0,unknown
1605939282509,200,-605,-1.329345703125E-4,0,0,0,417206,6424,2229,4931,14876,13664,24054,12863,Tag0,unknown
1605939282522,200,-589,-1.294189453125E-4,0,0,0,417206,6424,2229,4931,14876,13664,24054,12863,Tag0,unknown
1605939282547,200,-353,-7.75634765625E-5,0,0,0,417206,6424,2229,4931,14876,13664,24054,12863,Tag0,unknown
1605939282557,200,-325,-7.14111328125E-5,0,0,0,417206,6424,2229,4931,14876,13664,24054,12863,Tag0,unknown
1605939282599,200,-290,-6.3720703125E-5,0,0,0,417206,6424,2229,4931,14876,13664,24054,12863,Tag0,unknown
1605939282613,200,-282,-6.1962890625E-5,0,0,0,417206,6424,2229,4931,14876,13664,24054,12863,Tag0,unknown
1605939282625,200,11,2.4169921875E-6,0,0,0,417206,6424,2229,4931,14876,13664,24054,12863,Tag0,unknown
1605939282635,200,37,8.1298828125E-6,0,0,0,417206,6424,2229,4931,14876,13664,24054,12863,Tag0,unknown
1605939282655,200,42,9.228515625000002E-6,0,0,0,417206,6424,2229,4931,14876,13664,24054,12863,Tag0,unknown
1605939282681,200,51,1.1206054687499999E-5,0,0,0,417206,6424,2229,4931,14876,13664,24054,12863,Tag0,unknown
1605939282693,200,53,1.1645507812500002E-5,0,0,0,417206,6424,2229,4931,14876,13664,24054,12863,Tag0,unknown
1605939282703,200,-36,-7.91015625E-6,0,0,0,417206,6424,2229,4931,14876,13664,24054,12863,Tag0,unknown
1605939282726,200,283,6.218261718750001E-5,0,0,0,1772606,42922,16764255,65939,69180,16762983,16391,5837,Tag0,unknown
1605939282739,200,-55,-1.20849609375E-5,0,0,0,1772606,42922,16764255,65939,69180,16762983,16391,5837,Tag0,unknown
1605939282762,200,1791,3.935302734375E-4,0,0,0,1772606,42922,16764255,65939,69180,16762983,16391,5837,Tag0,unknown
1605939282772,200,1791,3.935302734375E-4,0,0,0,1772606,42922,16764255,65939,69180,16762983,16391,5837,Tag0,unknown
1605939282796,200,1791,3.935302734375E-4,0,0,0,1772606,42922,16764255,65939,69180,16762983,16391,5837,Tag0,unknown
1605939282806,200,1791,3.935302734375E-4,0,0,0,1772606,42922,16764255,65939,69180,16762983,16391,5837,Tag0,unknown
1605939282833,200,1027,2.2565917968750003E-4,0,0,0,1772606,42922,16764255,65939,69180,16762983,16391,5837,Tag0,unknown
1605939282843,200,861,1.8918457031249998E-4,0,0,0,1772606,42922,16764255,65939,69180,16762983,16391,5837,Tag0,unknown
1605939282868,200,422,9.2724609375E-5,0,0,0,1772606,42922,16764255,65939,69180,16762983,16391,5837,Tag0,unknown
1605939282878,200,200,4.39453125E-5,0,0,0,1772606,42922,16764255,65939,69180,16762983,16391,5837,Tag0,unknown
1605939282889,200,-507,-1.1140136718750001E-4,0,0,0,1772606,42922,16764255,65939,69180,16762983,16391,5837,Tag0,unknown
1605939282913,200,889,1.953369140625E-4,0,0,0,1772606,42922,16764255,65939,69180,16762983,16391,5837,Tag0,unknown
1605939282923,200,829,1.821533203125E-4,0,0,0,1772606,42922,16764255,65939,69180,16762983,16391,5837,Tag0,unknown
1605939282952,200,-2048,-4.5E-4,0,0,0,1772606,42922,16764255,65939,69180,16762983,16391,5837,Tag0,unknown
1605939282962,200,-1411,-3.100341796875E-4,0,0,0,1772606,42922,16764255,65939,69180,16762983,16391,5837,Tag0,unknown
1605939282988,200,-1255,-2.757568359375E-4,0,0,0,1772606,42922,16764255,65939,69180,16762983,16391,5837,Tag0,unknown
1605939283007,200,-1160,-2.548828125E-4,0,0,0,1772606,42922,16764255,65939,69180,16762983,16391,5837,Tag0,unknown
1605939283017,200,-661,-1.452392578125E-4,0,0,0,1772606,42922,16764255,65939,69180,16762983,16391,5837,Tag0,unknown
1605939283027,200,-435,-9.55810546875E-5,0,0,0,1772606,42922,16764255,65939,69180,16762983,16391,5837,Tag0,unknown
1605939283042,200,-548,-1.2041015624999999E-4,0,0,0,1772606,42922,16764255,65939,69180,16762983,16391,5837,Tag0,unknown
1605939283062,200,-521,-1.1447753906250001E-4,0,0,0,1772606,42922,16764255,65939,69180,16762983,16391,5837,Tag0,unknown
1605939283072,200,-145,-3.18603515625E-5,0,0,0,1772606,42922,16764255,65939,69180,16762983,16391,5837,Tag0,unknown
1605939283082,200,-337,-7.40478515625E-5,0,0,0,1772606,42922,16764255,65939,69180,16762983,16391,5837,Tag0,unknown
1605939283096,200,66,1.4501953125E-5,0,0,0,1772606,42922,16764255,65939,69180,16762983,16391,5837,Tag0,unknown
1605939283107,200,656,1.4414062499999998E-4,0,0,0,1772606,42922,16764255,65939,69180,16762983,16391,5837,Tag0,unknown
1605939283129,200,-378,-8.3056640625E-5,0,0,0,1772606,42922,16764255,65939,69180,16762983,16391,5837,Tag0,unknown
1605939283143,200,-359,-7.88818359375E-5,0,0,0,1772606,42922,16764255,65939,69180,16762983,16391,5837,Tag0,unknown
1605939283153,200,1791,3.935302734375E-4,0,0,0,1772606,42922,16764255,65939,69180,16762983,16391,5837,Tag0,unknown
1605939283173,200,1791,3.935302734375E-4,0,0,0,1772606,42922,16764255,65939,69180,16762983,16391,5837,Tag0,unknown
1605939283190,200,1791,3.935302734375E-4,0,0,0,1772606,42922,16764255,65939,69180,16762983,16391,5837,Tag0,unknown
1605939283212,200,1645,3.614501953125E-4,0,0,0,1772606,42922,16764255,65939,69180,16762983,16391,5837,Tag0,unknown
1605939283225,200,1278,2.8081054687500003E-4,0,0,0,1772606,42922,16764255,65939,69180,16762983,16391,5837,Tag0,unknown
1605939283235,200,713,1.566650390625E-4,0,0,0,1772606,42922,16764255,65939,69180,16762983,16391,5837,Tag0,unknown
1605939283246,200,434,9.5361328125E-5,0,0,0,1772606,42922,16764255,65939,69180,16762983,16391,5837,Tag0,unknown
1605939283257,200,225,4.94384765625E-5,0,0,0,1772606,42922,16764255,65939,69180,16762983,16391,5837,Tag0,unknown
1605939283316,200,195,4.28466796875E-5,0,0,0,1772606,42922,16764255,65939,69180,16762983,16391,5837,Tag0,unknown
1605939283326,200,140,3.076171875E-5,0,0,0,1772606,42922,16764255,65939,69180,16762983,16391,5837,Tag0,unknown
1605939283384,200,313,6.87744140625E-5,0,0,0,1772606,42922,16764255,65939,69180,16762983,16391,5837,Tag0,unknown
1605939283394,200,288,6.328125E-5,0,0,0,1772606,42922,16764255,65939,69180,16762983,16391,5837,Tag0,unknown
1605939283451,200,-40,-8.7890625E-6,0,0,0,1772606,42922,16764255,65939,69180,16762983,16391,5837,Tag0,unknown
1605939283461,200,-75,-1.64794921875E-5,0,0,0,1772606,42922,16764255,65939,69180,16762983,16391,5837,Tag0,unknown
1605939283519,200,-93,-2.04345703125E-5,0,0,0,1772606,42922,16764255,65939,69180,16762983,16391,5837,Tag0,unknown
1605939283529,200,-111,-2.43896484375E-5,0,0,0,1772606,42922,16764255,65939,69180,16762983,16391,5837,Tag0,unknown
1605939283586,200,124,2.724609375E-5,0,0,0,1772606,42922,16764255,65939,69180,16762983,16391,5837,Tag0,unknown
1605939283596,200,117,2.5708007812499998E-5,0,0,0,1772606,42922,16764255,65939,69180,16762983,16391,5837,Tag0,unknown
1605939283727,200,106,2.3291015625000003E-5,0,0,0,1772606,42922,16764255,65939,69180,16762983,16391,5837,Tag0,unknown
1605939283753,200,104,2.28515625E-5,0,0,0,1772606,42922,16764255,65939,69180,16762983,16391,5837,Tag0,unknown
1605939283763,200,-381,-8.371582031250001E-5,0,0,0,1772606,42922,16764255,65939,69180,16762983,16391,5837,Tag0,unknown
1605939283791,200,-565,-1.241455078125E-4,0,0,0,1772606,42922,16764255,65939,69180,16762983,16391,5837,Tag0,unknown
1605939283809,200,-134,-2.9443359375000003E-5,0,0,0,1772606,42922,16764255,65939,69180,16762983,16391,5837,Tag0,unknown
1605939283921,200,-71,-1.56005859375E-5,0,0,0,1772606,42922,16764255,65939,69180,16762983,16391,5837,Tag0,unknown
1605939283938,200,-115,-2.52685546875E-5,0,0,0,1772606,42922,16764255,65939,69180,16762983,16391,5837,Tag0,unknown
1605939283948,200,-362,-7.954101562500001E-5,0,0,0,1772606,42922,16764255,65939,69180,16762983,16391,5837,Tag0,unknown
1605939283958,200,101,2.2192382812500002E-5,0,0,0,1772606,42922,16764255,65939,69180,16762983,16391,5837,Tag0,unknown
1605939283968,200,-30,-6.591796875E-6,0,0,0,1772606,42922,16764255,65939,69180,16762983,16391,5837,Tag0,unknown
1605939283978,200,68,1.4941406250000001E-5,0,0,0,1772606,42922,16764255,65939,69180,16762983,16391,5837,Tag0,unknown
1605939283989,200,-2048,-4.5E-4,0,0,0,1772606,42922,16764255,65939,69180,16762983,16391,5837,Tag0,unknown
1605939283999,200,-1500,-3.2958984375E-4,0,0,0,1772606,42922,16764255,65939,69180,16762983,16391,5837,Tag0,unknown
1605939284013,200,-506,-1.11181640625E-4,0,0,0,1772606,42922,16764255,65939,69180,16762983,16391,5837,Tag0,unknown
1605939284043,200,-156,-3.427734375E-5,0,0,0,1772606,42922,16764255,65939,69180,16762983,16391,5837,Tag0,unknown
1605939284055,200,-134,-2.9443359375000003E-5,0,0,0,1772606,42922,16764255,65939,69180,16762983,16391,5837,Tag0,unknown
1605939284077,200,-327,-7.18505859375E-5,0,0,0,1772606,42922,16764255,65939,69180,16762983,16391,5837,Tag0,unknown
1605939284088,200,-316,-6.943359375000001E-5,0,0,0,1772606,42922,16764255,65939,69180,16762983,16391,5837,Tag0,unknown
1605939284098,200,-257,-5.64697265625E-5,0,0,0,1772606,42922,16764255,65939,69180,16762983,16391,5837,Tag0,unknown
1605939284120,200,11,2.4169921875E-6,0,0,0,1772606,42922,16764255,65939,69180,16762983,16391,5837,Tag0,unknown
1605939284139,200,13,2.8564453125E-6,0,0,0,1772606,42922,16764255,65939,69180,16762983,16391,5837,Tag0,unknown
1605939284149,200,27,5.9326171875000005E-6,0,0,0,1772606,42922,16764255,65939,69180,16762983,16391,5837,Tag0,unknown
1605939284161,200,29,6.3720703125E-6,0,0,0,1772606,42922,16764255,65939,69180,16762983,16391,5837,Tag0,unknown
1605939284171,200,257,5.64697265625E-5,0,0,0,1772606,42922,16764255,65939,69180,16762983,16391,5837,Tag0,unknown
1605939284189,200,391,8.591308593750001E-5,0,0,0,1772606,42922,16764255,65939,69180,16762983,16391,5837,Tag0,unknown
1605939284204,200,582,1.27880859375E-4,0,0,0,1772606,42922,16764255,65939,69180,16762983,16391,5837,Tag0,unknown
1605939284225,200,1791,3.935302734375E-4,0,0,0,1772606,42922,16764255,65939,69180,16762983,16391,5837,Tag0,unknown
1605939284236,200,1791,3.935302734375E-4,0,0,0,1772606,42922,16764255,65939,69180,16762983,16391,5837,Tag0,unknown
1605939284246,200,1791,3.935302734375E-4,0,0,0,1772606,42922,16764255,65939,69180,16762983,16391,5837,Tag0,unknown
1605939284269,200,1791,3.935302734375E-4,0,0,0,1772606,42922,16764255,65939,69180,16762983,16391,5837,Tag0,unknown
1605939284289,200,1791,3.935302734375E-4,0,0,0,1772606,42922,16764255,65939,69180,16762983,16391,5837,Tag0,unknown
1605939284305,200,1645,3.614501953125E-4,0,0,0,1772606,42922,16764255,65939,69180,16762983,16391,5837,Tag0,unknown
1605939284322,200,679,1.491943359375E-4,0,0,0,1772606,42922,16764255,65939,69180,16762983,16391,5837,Tag0,unknown
1605939284341,200,433,9.51416015625E-5,0,0,0,1772606,42922,16764255,65939,69180,16762983,16391,5837,Tag0,unknown
1605939284355,200,546,1.1997070312500001E-4,0,0,0,1772606,42922,16764255,65939,69180,16762983,16391,5837,Tag0,unknown
1605939284376,200,193,4.2407226562500005E-5,0,0,0,1772606,42922,16764255,65939,69180,16762983,16391,5837,Tag0,unknown
1605939284388,200,165,3.62548828125E-5,0,0,0,1772606,42922,16764255,65939,69180,16762983,16391,5837,Tag0,unknown
1605939284398,200,-23,-5.0537109375E-6,0,0,0,1772606,42922,16764255,65939,69180,16762983,16391,5837,Tag0,unknown
1605939284414,200,-40,-8.7890625E-6,0,0,0,1772606,42922,16764255,65939,69180,16762983,16391,5837,Tag0,unknown
1605939284424,200,-79,-1.7358398437500003E-5,0,0,0,1772606,42922,16764255,65939,69180,16762983,16391,5837,Tag0,unknown
1605939284438,200,-108,-2.3730468750000002E-5,0,0,0,1772606,42922,16764255,65939,69180,16762983,16391,5837,Tag0,unknown
1605939284454,200,123,2.70263671875E-5,0,0,0,1772606,42922,16764255,65939,69180,16762983,16391,5837,Tag0,unknown
1605939284470,200,120,2.63671875E-5,0,0,0,1772606,42922,16764255,65939,69180,16762983,16391,5837,Tag0,unknown
1605939284488,200,103,2.26318359375E-5,0,0,0,1772606,42922,16764255,65939,69180,16762983,16391,5837,Tag0,unknown
1605939284510,200,100,2.197265625E-5,0,0,0,1772606,42922,16764255,65939,69180,16762983,16391,5837,Tag0,unknown
1605939284535,200,81,1.77978515625E-5,0,0,0,1772606,42922,16764255,65939,69180,16762983,16391,5837,Tag0,unknown
1605939284547,200,75,1.64794921875E-5,0,0,0,1772606,42922,16764255,65939,69180,16762983,16391,5837,Tag0,unknown
1605939284566,200,76,1.669921875E-5,0,0,0,1772606,42922,16764255,65939,69180,16762983,16391,5837,Tag0,unknown
1605939284578,200,73,1.6040039062500002E-5,0,0,0,1772606,42922,16764255,65939,69180,16762983,16391,5837,Tag0,unknown
1605939284588,200,69,1.51611328125E-5,0,0,0,1772606,42922,16764255,65939,69180,16762983,16391,5837,Tag0,unknown
1605939284604,200,69,1.51611328125E-5,0,0,0,1772606,42922,16764255,65939,69180,16762983,16391,5837,Tag0,unknown
1605939284614,200,69,1.51611328125E-5,0,0,0,1772606,42922,16764255,65939,69180,16762983,16391,5837,Tag0,unknown
1605939284642,200,68,1.4941406250000001E-5,0,0,0,1772606,42922,16764255,65939,69180,16762983,16391,5837,Tag0,unknown
1605939284661,200,68,1.4941406250000001E-5,0,0,0,1772606,42922,16764255,65939,69180,16762983,16391,5837,Tag0,unknown
1605939284678,200,67,1.4721679687500002E-5,0,0,0,1772606,42922,16764255,65939,69180,16762983,16391,5837,Tag0,unknown
1605939284695,200,67,1.4721679687500002E-5,0,0,0,1772606,42922,16764255,65939,69180,16762983,16391,5837,Tag0,unknown
1605939284716,200,65,1.42822265625E-5,0,0,0,1174148,90566,10617,8198,6972,4618,2940,1218,Tag0,unknown
1605939284728,200,66,1.4501953125E-5,0,0,0,1174148,90566,10617,8198,6972,4618,2940,1218,Tag0,unknown
1605939284749,200,67,1.4721679687500002E-5,0,0,0,1174148,90566,10617,8198,6972,4618,2940,1218,Tag0,unknown
1605939284762,200,67,1.4721679687500002E-5,0,0,0,1174148,90566,10617,8198,6972,4618,2940,1218,Tag0,unknown
1605939284788,200,66,1.4501953125E-5,0,0,0,1174148,90566,10617,8198,6972,4618,2940,1218,Tag0,unknown
1605939284800,200,66,1.4501953125E-5,0,0,0,1174148,90566,10617,8198,6972,4618,2940,1218,Tag0,unknown
1605939284824,200,67,1.4721679687500002E-5,0,0,0,1174148,90566,10617,8198,6972,4618,2940,1218,Tag0,unknown
1605939284834,200,67,1.4721679687500002E-5,0,0,0,1174148,90566,10617,8198,6972,4618,2940,1218,Tag0,unknown
1605939284847,200,67,1.4721679687500002E-5,0,0,0,1174148,90566,10617,8198,6972,4618,2940,1218,Tag0,unknown
1605939284867,200,67,1.4721679687500002E-5,0,0,0,1174148,90566,10617,8198,6972,4618,2940,1218,Tag0,unknown
1605939284880,200,67,1.4721679687500002E-5,0,0,0,1174148,90566,10617,8198,6972,4618,2940,1218,Tag0,unknown
1605939284890,200,67,1.4721679687500002E-5,0,0,0,1174148,90566,10617,8198,6972,4618,2940,1218,Tag0,unknown
1605939284902,200,66,1.4501953125E-5,0,0,0,1174148,90566,10617,8198,6972,4618,2940,1218,Tag0,unknown
1605939284913,200,67,1.4721679687500002E-5,0,0,0,1174148,90566,10617,8198,6972,4618,2940,1218,Tag0,unknown
1605939284934,200,66,1.4501953125E-5,0,0,0,1174148,90566,10617,8198,6972,4618,2940,1218,Tag0,unknown
1605939284945,200,66,1.4501953125E-5,0,0,0,1174148,90566,10617,8198,6972,4618,2940,1218,Tag0,unknown
1605939284968,200,68,1.4941406250000001E-5,0,0,0,1174148,90566,10617,8198,6972,4618,2940,1218,Tag0,unknown
1605939284979,200,67,1.4721679687500002E-5,0,0,0,1174148,90566,10617,8198,6972,4618,2940,1218,Tag0,unknown
1605939284989,200,65,1.42822265625E-5,0,0,0,1174148,90566,10617,8198,6972,4618,2940,1218,Tag0,unknown
1605939285011,200,67,1.4721679687500002E-5,0,0,0,1174148,90566,10617,8198,6972,4618,2940,1218,Tag0,unknown
1605939285030,200,66,1.4501953125E-5,0,0,0,1174148,90566,10617,8198,6972,4618,2940,1218,Tag0,unknown
1605939285047,200,67,1.4721679687500002E-5,0,0,0,1174148,90566,10617,8198,6972,4618,2940,1218,Tag0,unknown
1605939285064,200,67,1.4721679687500002E-5,0,0,0,1174148,90566,10617,8198,6972,4618,2940,1218,Tag0,unknown
1605939285081,200,66,1.4501953125E-5,0,0,0,1174148,90566,10617,8198,6972,4618,2940,1218,Tag0,unknown
1605939285096,200,67,1.4721679687500002E-5,0,0,0,1174148,90566,10617,8198,6972,4618,2940,1218,Tag0,unknown
1605939285118,200,67,1.4721679687500002E-5,0,0,0,1174148,90566,10617,8198,6972,4618,2940,1218,Tag0,unknown
1605939285130,200,65,1.42822265625E-5,0,0,0,1174148,90566,10617,8198,6972,4618,2940,1218,Tag0,unknown
1605939285162,200,66,1.4501953125E-5,0,0,0,1174148,90566,10617,8198,6972,4618,2940,1218,Tag0,unknown
1605939285179,200,65,1.42822265625E-5,0,0,0,1174148,90566,10617,8198,6972,4618,2940,1218,Tag0,unknown
1605939285211,200,67,1.4721679687500002E-5,0,0,0,1174148,90566,10617,8198,6972,4618,2940,1218,Tag0,unknown
1605939285231,200,67,1.4721679687500002E-5,0,0,0,1174148,90566,10617,8198,6972,4618,2940,1218,Tag0,unknown
1605939285241,200,67,1.4721679687500002E-5,0,0,0,1174148,90566,10617,8198,6972,4618,2940,1218,Tag0,unknown
1605939285251,200,-439,-9.64599609375E-5,0,0,0,1174148,90566,10617,8198,6972,4618,2940,1218,Tag0,unknown
1605939285266,200,-740,-1.6259765625E-4,0,0,0,1174148,90566,10617,8198,6972,4618,2940,1218,Tag0,unknown
1605939285284,200,358,7.8662109375E-5,0,0,0,1174148,90566,10617,8198,6972,4618,2940,1218,Tag0,unknown
1605939285299,200,599,1.316162109375E-4,0,0,0,1174148,90566,10617,8198,6972,4618,2940,1218,Tag0,unknown
1605939285309,200,345,7.58056640625E-5,0,0,0,1174148,90566,10617,8198,6972,4618,2940,1218,Tag0,unknown
1605939285323,200,280,6.15234375E-5,0,0,0,1174148,90566,10617,8198,6972,4618,2940,1218,Tag0,unknown
1605939285333,200,-20,-4.39453125E-6,0,0,0,1174148,90566,10617,8198,6972,4618,2940,1218,Tag0,unknown
1605939285357,200,-59,-1.29638671875E-5,0,0,0,1174148,90566,10617,8198,6972,4618,2940,1218,Tag0,unknown
1605939285367,200,-86,-1.8896484375000003E-5,0,0,0,1174148,90566,10617,8198,6972,4618,2940,1218,Tag0,unknown
1605939285396,200,117,2.5708007812499998E-5,0,0,0,1174148,90566,10617,8198,6972,4618,2940,1218,Tag0,unknown
1605939285415,200,105,2.30712890625E-5,0,0,0,1174148,90566,10617,8198,6972,4618,2940,1218,Tag0,unknown
1605939285433,200,98,2.1533203125E-5,0,0,0,1174148,90566,10617,8198,6972,4618,2940,1218,Tag0,unknown
1605939285449,200,98,2.1533203125E-5,0,0,0,1174148,90566,10617,8198,6972,4618,2940,1218,Tag0,unknown
1605939285459,200,81,1.77978515625E-5,0,0,0,1174148,90566,10617,8198,6972,4618,2940,1218,Tag0,unknown
1605939285469,200,77,1.69189453125E-5,0,0,0,1174148,90566,10617,8198,6972,4618,2940,1218,Tag0,unknown
1605939285481,200,77,1.69189453125E-5,0,0,0,1174148,90566,10617,8198,6972,4618,2940,1218,Tag0,unknown
1605939285504,200,74,1.6259765625E-5,0,0,0,1174148,90566,10617,8198,6972,4618,2940,1218,Tag0,unknown
1605939285519,200,73,1.6040039062500002E-5,0,0,0,1174148,90566,10617,8198,6972,4618,2940,1218,Tag0,unknown
1605939285540,200,-1933,-4.247314453125E-4,0,0,0,1174148,90566,10617,8198,6972,4618,2940,1218,Tag0,unknown
1605939285550,200,-2048,-4.5E-4,0,0,0,1174148,90566,10617,8198,6972,4618,2940,1218,Tag0,unknown
1605939285574,200,-2048,-4.5E-4,0,0,0,1174148,90566,10617,8198,6972,4618,2940,1218,Tag0,unknown
1605939285584,200,-2048,-4.5E-4,0,0,0,1174148,90566,10617,8198,6972,4618,2940,1218,Tag0,unknown
1605939285608,200,-2048,-4.5E-4,0,0,0,1174148,90566,10617,8198,6972,4618,2940,1218,Tag0,unknown
1605939285618,200,-1513,-3.3244628906250003E-4,0,0,0,1174148,90566,10617,8198,6972,4618,2940,1218,Tag0,unknown
1605939285645,200,-1060,-2.3291015625E-4,0,0,0,1174148,90566,10617,8198,6972,4618,2940,1218,Tag0,unknown
1605939285665,200,-741,-1.6281738281249998E-4,0,0,0,1174148,90566,10617,8198,6972,4618,2940,1218,Tag0,unknown
1605939285684,200,-533,-1.171142578125E-4,0,0,0,1174148,90566,10617,8198,6972,4618,2940,1218,Tag0,unknown
1605939285699,200,-251,-5.5151367187500004E-5,0,0,0,1174148,90566,10617,8198,6972,4618,2940,1218,Tag0,unknown
1605939285726,200,-187,-4.10888671875E-5,0,0,0,1300329,544749,329040,423849,669935,631852,219611,94228,Tag0,unknown
1605939285736,200,-353,-7.75634765625E-5,0,0,0,1300329,544749,329040,423849,669935,631852,219611,94228,Tag0,unknown
1605939285758,200,-290,-6.3720703125E-5,0,0,0,1300329,544749,329040,423849,669935,631852,219611,94228,Tag0,unknown
1605939285768,200,-265,-5.82275390625E-5,0,0,0,1300329,544749,329040,423849,669935,631852,219611,94228,Tag0,unknown
1605939285782,200,3,6.591796875E-7,0,0,0,1300329,544749,329040,423849,669935,631852,219611,94228,Tag0,unknown
1605939285805,200,1415,3.109130859375E-4,0,0,0,1300329,544749,329040,423849,669935,631852,219611,94228,Tag0,unknown
1605939285818,200,1791,3.935302734375E-4,0,0,0,1300329,544749,329040,423849,669935,631852,219611,94228,Tag0,unknown
1605939285828,200,1791,3.935302734375E-4,0,0,0,1300329,544749,329040,423849,669935,631852,219611,94228,Tag0,unknown
1605939285852,200,1791,3.935302734375E-4,0,0,0,1300329,544749,329040,423849,669935,631852,219611,94228,Tag0,unknown
1605939285865,200,1791,3.935302734375E-4,0,0,0,1300329,544749,329040,423849,669935,631852,219611,94228,Tag0,unknown
1605939285886,200,1791,3.935302734375E-4,0,0,0,1300329,544749,329040,423849,669935,631852,219611,94228,Tag0,unknown
1605939285898,200,1789,3.930908203125E-4,0,0,0,1300329,544749,329040,423849,669935,631852,219611,94228,Tag0,unknown
1605939285908,200,717,1.5754394531250002E-4,0,0,0,1300329,544749,329040,423849,669935,631852,219611,94228,Tag0,unknown
1605939285927,200,651,1.430419921875E-4,0,0,0,1300329,544749,329040,423849,669935,631852,219611,94228,Tag0,unknown
1605939285937,200,411,9.03076171875E-5,0,0,0,1300329,544749,329040,423849,669935,631852,219611,94228,Tag0,unknown
1605939285963,200,584,1.2832031250000002E-4,0,0,0,1300329,544749,329040,423849,669935,631852,219611,94228,Tag0,unknown
1605939285984,200,566,1.2436523437500002E-4,0,0,0,1300329,544749,329040,423849,669935,631852,219611,94228,Tag0,unknown
1605939285994,200,129,2.8344726562500002E-5,0,0,0,1300329,544749,329040,423849,669935,631852,219611,94228,Tag0,unknown
1605939286004,200,283,6.218261718750001E-5,0,0,0,1300329,544749,329040,423849,669935,631852,219611,94228,Tag0,unknown
1605939286014,200,-39,-8.5693359375E-6,0,0,0,1300329,544749,329040,423849,669935,631852,219611,94228,Tag0,unknown
1605939286031,200,-57,-1.2524414062500001E-5,0,0,0,1300329,544749,329040,423849,669935,631852,219611,94228,Tag0,unknown
1605939286049,200,-63,-1.38427734375E-5,0,0,0,1300329,544749,329040,423849,669935,631852,219611,94228,Tag0,unknown
1605939286071,200,-2048,-4.5E-4,0,0,0,1300329,544749,329040,423849,669935,631852,219611,94228,Tag0,unknown
1605939286082,200,-2048,-4.5E-4,0,0,0,1300329,544749,329040,423849,669935,631852,219611,94228,Tag0,unknown
1605939286107,200,-1972,-4.3330078125E-4,0,0,0,1300329,544749,329040,423849,669935,631852,219611,94228,Tag0,unknown
1605939286120,200,-134,-2.9443359375000003E-5,0,0,0,1300329,544749,329040,423849,669935,631852,219611,94228,Tag0,unknown
1605939286143,200,1209,2.656494140625E-4,0,0,0,1300329,544749,329040,423849,669935,631852,219611,94228,Tag0,unknown
1605939286153,200,1791,3.935302734375E-4,0,0,0,1300329,544749,329040,423849,669935,631852,219611,94228,Tag0,unknown
1605939286177,200,1791,3.935302734375E-4,0,0,0,1300329,544749,329040,423849,669935,631852,219611,94228,Tag0,unknown
1605939286187,200,1791,3.935302734375E-4,0,0,0,1300329,544749,329040,423849,669935,631852,219611,94228,Tag0,unknown
1605939286200,200,620,1.3623046875E-4,0,0,0,1300329,544749,329040,423849,669935,631852,219611,94228,Tag0,unknown
1605939286218,200,-1621,-3.561767578125E-4,0,0,0,1300329,544749,329040,423849,669935,631852,219611,94228,Tag0,unknown
1605939286248,200,-2155,-4.735107421875E-4,0,0,0,1300329,544749,329040,423849,669935,631852,219611,94228,Tag0,unknown
1605939286268,200,-1292,-2.8388671875E-4,0,0,0,1300329,544749,329040,423849,669935,631852,219611,94228,Tag0,unknown
1605939286278,200,-1228,-2.6982421875E-4,0,0,0,1300329,544749,329040,423849,669935,631852,219611,94228,Tag0,unknown
1605939286289,200,-1353,-2.972900390625E-4,0,0,0,1300329,544749,329040,423849,669935,631852,219611,94228,Tag0,unknown
1605939286302,200,-1017,-2.2346191406250003E-4,0,0,0,1300329,544749,329040,423849,669935,631852,219611,94228,Tag0,unknown
1605939286327,200,-681,-1.496337890625E-4,0,0,0,1300329,544749,329040,423849,669935,631852,219611,94228,Tag0,unknown
1605939286341,200,-394,-8.6572265625E-5,0,0,0,1300329,544749,329040,423849,669935,631852,219611,94228,Tag0,unknown
1605939286362,200,-227,-4.98779296875E-5,0,0,0,1300329,544749,329040,423849,669935,631852,219611,94228,Tag0,unknown
1605939286372,200,-141,-3.09814453125E-5,0,0,0,1300329,544749,329040,423849,669935,631852,219611,94228,Tag0,unknown
1605939286396,200,-370,-8.1298828125E-5,0,0,0,1300329,544749,329040,423849,669935,631852,219611,94228,Tag0,unknown
1605939286406,200,-334,-7.338867187500001E-5,0,0,0,1300329,544749,329040,423849,669935,631852,219611,94228,Tag0,unknown
1605939286439,200,539,1.1843261718750001E-4,0,0,0,1300329,544749,329040,423849,669935,631852,219611,94228,Tag0,unknown
1605939286451,200,-52,-1.142578125E-5,0,0,0,1300329,544749,329040,423849,669935,631852,219611,94228,Tag0,unknown
1605939286473,200,-365,-8.02001953125E-5,0,0,0,1300329,544749,329040,423849,669935,631852,219611,94228,Tag0,unknown
1605939286485,200,-340,-7.470703125E-5,0,0,0,1300329,544749,329040,423849,669935,631852,219611,94228,Tag0,unknown
1605939286516,200,-257,-5.64697265625E-5,0,0,0,1300329,544749,329040,423849,669935,631852,219611,94228,Tag0,unknown
1605939286536,200,3,6.591796875E-7,0,0,0,1300329,544749,329040,423849,669935,631852,219611,94228,Tag0,unknown
1605939286546,200,26,5.712890625E-6,0,0,0,1300329,544749,329040,423849,669935,631852,219611,94228,Tag0,unknown
1605939286561,200,39,8.5693359375E-6,0,0,0,1300329,544749,329040,423849,669935,631852,219611,94228,Tag0,unknown
1605939286571,200,42,9.228515625000002E-6,0,0,0,1300329,544749,329040,423849,669935,631852,219611,94228,Tag0,unknown
1605939286593,200,49,1.07666015625E-5,0,0,0,1300329,544749,329040,423849,669935,631852,219611,94228,Tag0,unknown
1605939286603,200,53,1.1645507812500002E-5,0,0,0,1300329,544749,329040,423849,669935,631852,219611,94228,Tag0,unknown
1605939286630,200,-119,-2.6147460937500004E-5,0,0,0,1300329,544749,329040,423849,669935,631852,219611,94228,Tag0,unknown
1605939286640,200,-89,-1.95556640625E-5,0,0,0,1300329,544749,329040,423849,669935,631852,219611,94228,Tag0,unknown
1605939286653,200,583,1.281005859375E-4,0,0,0,1300329,544749,329040,423849,669935,631852,219611,94228,Tag0,unknown
1605939286670,200,129,2.8344726562500002E-5,0,0,0,1300329,544749,329040,423849,669935,631852,219611,94228,Tag0,unknown
1605939286680,200,-304,-6.6796875E-5,0,0,0,1300329,544749,329040,423849,669935,631852,219611,94228,Tag0,unknown
1605939286699,200,-299,-6.56982421875E-5,0,0,0,1801925,106955,54928,35570,114863,58756,16761028,16752471,Tag0,unknown
1605939286718,200,-283,-6.218261718750001E-5,0,0,0,1801925,106955,54928,35570,114863,58756,16761028,16752471,Tag0,unknown
1605939286739,200,24,5.2734375E-6,0,0,0,1801925,106955,54928,35570,114863,58756,16761028,16752471,Tag0,unknown
1605939286752,200,46,1.0107421875E-5,0,0,0,1801925,106955,54928,35570,114863,58756,16761028,16752471,Tag0,unknown
1605939286773,200,1791,3.935302734375E-4,0,0,0,1801925,106955,54928,35570,114863,58756,16761028,16752471,Tag0,unknown
1605939286785,200,1791,3.935302734375E-4,0,0,0,1801925,106955,54928,35570,114863,58756,16761028,16752471,Tag0,unknown
